File: samples/wool/wool-000811/Column 1_050626_20150331_123551.csv
Method:,Column 1,,
Host Date-Time:,31/3/15 @ 12:35:51,,
Header Version:,1,,
System Temp (C):,34.14,,
Detector Temp (C):,35.05,,
Humidity (%):,1.56,,
Lamp PD:,3817,,
Shift Vector Coefficients:,-10.5391,0.0761263,-0.000134223,,
Pixel to Wavelength Coefficients:,1775.68,-0.916766,-0.000235065,,
Serial Number:,5510004,,
Scan Config Name:,Column 1,,
Scan Config Type:,Slew,,
Section 1,,
Start wavelength (nm):,900,,
End wavelength (nm):,1700,,
Pattern Pixel Width (nm):,   7.03,,,,
Exposure (ms):,  0.635,,,,
Digital Resolution:,228,,
Num Repeats:,6,,
PGA Gain:,64,,
Total Measurement Time in sec:,  2.667,,
Wavelength (nm),Absorbance (AU),Reference Signal (unitless),Sample Signal (unitless)
901.51,0.068792,108485,92593
905.376,0.074385,121306,102211
909.237,0.077569,131909,110333
913.095,0.078218,143299,119681
916.948,0.078549,156982,131009
922.079,0.080462,179937,149506
925.923,0.081241,200504,166296
929.762,0.082551,222660,184116
933.597,0.082257,244426,202251
937.427,0.080969,263972,219073
941.254,0.080626,281845,234091
945.076,0.079248,297271,247688
950.165,0.078233,315605,263579
953.978,0.077783,328029,274239
957.786,0.077926,340470,284546
961.59,0.077819,352317,294520
965.389,0.077792,363056,303516
969.185,0.077485,373162,312185
972.976,0.077942,382632,319771
976.763,0.078120,391202,326799
981.806,0.078327,400190,334148
985.583,0.079203,406088,338390
989.355,0.079814,410162,341304
993.124,0.080397,412868,343095
996.888,0.080602,414263,344092
1000.65,0.081329,415476,344522
1004.4,0.082613,415479,343507
1009.41,0.083886,414358,341578
1013.15,0.083936,412923,340356
1016.89,0.084931,411526,338428
1020.63,0.084594,409066,336666
1024.36,0.084697,406777,334703
1028.09,0.084091,404427,333234
1031.82,0.083873,401911,331327
1036.78,0.084292,398410,328124
1040.49,0.083657,396204,326785
1044.2,0.083548,394236,325243
1047.91,0.083246,392042,323658
1051.61,0.082821,389823,322141
1055.31,0.082318,388234,321200
1059,0.082299,387599,320689
1063.92,0.081537,386688,320497
1067.61,0.080388,386598,321271
1071.29,0.080881,387377,321553
1074.96,0.080038,388536,323142
1078.63,0.079020,389855,325000
1082.3,0.078180,391215,326765
1085.96,0.077370,393215,329049
1090.84,0.076247,396270,332464
1094.49,0.076112,398760,334657
1098.14,0.075205,400987,337229
1101.79,0.075287,403477,339259
1105.43,0.074214,406116,342323
1109.06,0.073129,407701,344519
1112.7,0.073338,409859,346176
1117.53,0.072816,412494,348820
1121.15,0.073503,414909,350308
1124.77,0.073562,416559,351653
1128.38,0.074743,418532,352359
1131.99,0.075914,419956,352606
1135.6,0.077167,421946,353256
1139.2,0.077785,423881,354372
1143.99,0.079976,426786,355005
1147.58,0.080945,428617,355733
1151.17,0.081839,431169,357115
1154.75,0.082807,433579,358312
1158.33,0.083877,436264,359644
1161.91,0.085619,439132,360559
1165.48,0.087638,442389,361548
1169.04,0.090071,446101,362545
1173.79,0.093438,451929,364445
1177.34,0.095983,456026,365600
1180.9,0.097901,461306,368204
1184.44,0.099546,467657,371862
1187.99,0.100756,473969,375832
1191.52,0.100603,479856,380634
1195.06,0.100555,487372,386639
1199.76,0.100079,497347,394985
1203.29,0.099093,504311,401426
1206.81,0.098519,511507,407692
1210.33,0.098004,519078,414218
1213.84,0.097479,527163,421178
1217.35,0.097209,534208,427072
1220.85,0.096010,540472,433275
1225.51,0.095633,549929,441239
1229.01,0.095353,556888,447111
1232.5,0.094480,562180,452268
1235.98,0.094133,567975,457295
1239.46,0.092781,574815,464245
1242.94,0.091720,582782,471831
1246.41,0.091452,591476,479165
1251.03,0.091312,604016,489482
1254.5,0.091477,612289,495998
1257.96,0.091394,619125,501631
1261.41,0.093412,624551,503681
1264.86,0.092655,629900,508881
1268.31,0.093088,634345,511962
1271.75,0.094024,638574,514265
1276.33,0.094174,642499,517247
1279.76,0.094069,645905,520115
1283.19,0.093327,648307,522942
1286.61,0.092695,650446,525432
1290.03,0.092700,652132,526788
1293.44,0.092101,653907,528951
1296.85,0.091798,655963,530984
1301.39,0.091608,657349,532339
1304.8,0.091619,657558,532494
1308.19,0.091690,658515,533182
1311.58,0.091702,658804,533402
1314.97,0.092394,659011,532720
1318.36,0.092388,658272,532129
1321.73,0.092702,658022,531543
1326.23,0.093401,657870,530566
1329.6,0.094225,656482,528442
1332.97,0.094997,654926,526254
1336.33,0.095757,653727,524372
1339.69,0.097557,652497,521220
1343.04,0.098767,649913,517712
1346.39,0.101153,647671,513099
1349.73,0.102729,645338,509399
1354.18,0.105749,641175,502606
1357.52,0.107551,638376,498340
1360.85,0.109908,635805,493646
1364.17,0.111690,633413,489775
1367.49,0.113271,631026,486157
1370.81,0.115824,628050,481028
1374.12,0.117785,625034,476561
1378.54,0.120409,620272,470082
1381.84,0.123490,616892,464215
1385.14,0.126190,613613,458886
1388.43,0.129894,611526,453441
1391.72,0.133403,610663,449157
1395.01,0.137281,610634,445143
1398.29,0.141426,611700,441685
1402.66,0.147310,614051,437416
1405.93,0.152038,616268,434242
1409.2,0.156966,617795,430406
1412.46,0.160145,618872,428012
1415.72,0.164613,619795,424263
1418.98,0.167795,620495,421641
1422.23,0.171063,621087,418880
1426.56,0.174695,621375,415584
1429.8,0.177475,621616,413092
1433.04,0.179684,622129,411336
1436.27,0.182128,621526,408631
1439.5,0.184168,621113,406446
1442.72,0.186458,620921,404183
1445.94,0.188969,620270,401432
1450.23,0.192917,618860,396895
1453.44,0.195119,617697,394145
1456.64,0.198418,616264,390255
1459.85,0.200714,614413,387032
1463.04,0.204629,612307,382244
1466.24,0.207825,610032,378031
1469.43,0.211978,607345,372784
1473.67,0.217735,603789,365721
1476.85,0.223910,601175,358997
1480.02,0.230011,597737,351965
1483.19,0.237510,594479,344054
1486.36,0.242952,591232,337914
1489.52,0.247806,587853,332248
1492.68,0.251642,583875,327098
1496.89,0.252788,578062,322988
1500.03,0.254304,574159,319689
1503.18,0.254467,570285,317413
1506.32,0.253151,565444,315674
1509.45,0.252286,560571,313577
1512.58,0.250356,555821,312305
1515.71,0.247685,550344,311135
1519.87,0.245020,543983,309432
1522.99,0.242357,538764,308348
1526.1,0.239947,533692,307145
1529.21,0.237318,527902,305658
1532.32,0.234652,521886,304035
1535.42,0.231420,515888,302786
1538.51,0.228537,509987,301316
1541.6,0.225644,503936,299731
1545.72,0.221178,494694,297275
1548.8,0.219173,488378,294838
1551.88,0.215841,481832,293126
1554.95,0.214557,474989,289819
1558.02,0.212545,467818,286769
1561.08,0.211018,460730,283419
1564.15,0.210963,454170,279419
1568.22,0.210304,444181,273688
1571.27,0.209277,436947,269868
1574.32,0.208022,429598,266097
1577.36,0.207204,422039,261908
1580.4,0.207021,414375,257260
1583.43,0.204242,406354,253900
1586.46,0.202591,398475,249925
1590.49,0.201157,388982,244778
1593.51,0.199798,380708,240322
1596.53,0.197224,372727,236683
1599.54,0.195663,365060,232649
1602.55,0.193777,357543,228850
1605.55,0.191900,349495,224668
1608.55,0.189900,341154,220318
1612.54,0.187210,330877,215009
1615.53,0.186102,322904,210364
1618.51,0.186031,315116,205324
1621.49,0.185190,307217,200565
1624.47,0.183464,299481,196293
1627.44,0.182047,292112,192089
1630.41,0.182332,284245,186793
1634.36,0.180116,274079,181034
1637.32,0.179141,266916,176699
1640.27,0.179524,259612,171712
1643.22,0.178320,251804,167010
1646.16,0.177348,244348,162428
1649.1,0.176113,236703,157794
1652.04,0.173711,228171,152950
1655.95,0.171418,215408,145159
1658.88,0.166275,204937,139748
1661.8,0.161710,193395,133271
1664.72,0.156342,179728,125393
1667.63,0.142503,163642,117867
1670.54,0.127320,146312,109134
1673.44,0.110801,128451,99526
1677.31,0.090255,105080,85362
1680.21,0.078135,88906,74267
1683.1,0.072869,75033,63443
1685.99,0.074102,63520,53556
1688.87,0.077194,53714,44967
1691.75,0.078271,45653,38124
1694.62,0.080664,39137,32503
1697.49,0.084563,33776,27800
1701.31,0.099112,28175,22426