File: samples/wool/wool-000811/Column 1_050630_20150331_123745.csv
Method:,Column 1,,
Host Date-Time:,31/3/15 @ 12:37:45,,
Header Version:,1,,
System Temp (C):,34.13,,
Detector Temp (C):,35.08,,
Humidity (%):,1.56,,
Lamp PD:,3818,,
Shift Vector Coefficients:,-10.5391,0.0761263,-0.000134223,,
Pixel to Wavelength Coefficients:,1775.68,-0.916766,-0.000235065,,
Serial Number:,5510004,,
Scan Config Name:,Column 1,,
Scan Config Type:,Slew,,
Section 1,,
Start wavelength (nm):,900,,
End wavelength (nm):,1700,,
Pattern Pixel Width (nm):,   7.03,,,,
Exposure (ms):,  0.635,,,,
Digital Resolution:,228,,
Num Repeats:,6,,
PGA Gain:,64,,
Total Measurement Time in sec:,  2.677,,
Wavelength (nm),Absorbance (AU),Reference Signal (unitless),Sample Signal (unitless)
901.51,0.067574,108485,92853
905.376,0.073392,121306,102445
909.237,0.077813,131909,110271
913.095,0.078247,143299,119673
916.948,0.079418,156982,130747
922.079,0.079023,179937,150002
925.923,0.082143,200504,165951
929.762,0.082086,222660,184313
933.597,0.082990,244426,201910
937.427,0.080499,263972,219310
941.254,0.079194,281845,234864
945.076,0.079099,297271,247773
950.165,0.077154,315605,264235
953.978,0.077134,328029,274649
957.786,0.076392,340470,285553
961.59,0.077586,352317,294678
965.389,0.077129,363056,303980
969.185,0.077474,373162,312193
972.976,0.077314,382632,320234
976.763,0.077803,391202,327038
981.806,0.078730,400190,333838
985.583,0.078526,406088,338918
989.355,0.078870,410162,342047
993.124,0.079497,412868,343807
996.888,0.080166,414263,344437
1000.65,0.081171,415476,344647
1004.4,0.081953,415479,344030
1009.41,0.083356,414358,341995
1013.15,0.083831,412923,340438
1016.89,0.084135,411526,339049
1020.63,0.084283,409066,336907
1024.36,0.084371,406777,334954
1028.09,0.083798,404427,333459
1031.82,0.083865,401911,331333
1036.78,0.083534,398410,328697
1040.49,0.083476,396204,326921
1044.2,0.082891,394236,325736
1047.91,0.083181,392042,323707
1051.61,0.082215,389823,322591
1055.31,0.082460,388234,321095
1059,0.081684,387599,321143
1063.92,0.081130,386688,320797
1067.61,0.079934,386598,321607
1071.29,0.079996,387377,322209
1074.96,0.079572,388536,323489
1078.63,0.079232,389855,324841
1082.3,0.077435,391215,327326
1085.96,0.076510,393215,329701
1090.84,0.076424,396270,332328
1094.49,0.074976,398760,335533
1098.14,0.075074,400987,337331
1101.79,0.074414,403477,339942
1105.43,0.074116,406116,342400
1109.06,0.073716,407701,344053
1112.7,0.072613,409859,346754
1117.53,0.072702,412494,348912
1121.15,0.072870,414909,350819
1124.77,0.073400,416559,351784
1128.38,0.074355,418532,352674
1131.99,0.075518,419956,352928
1135.6,0.076419,421946,353865
1139.2,0.077973,423881,354218
1143.99,0.079977,426786,355004
1147.58,0.081092,428617,355613
1151.17,0.081625,431169,357291
1154.75,0.081871,433579,359085
1158.33,0.083206,436264,360200
1161.91,0.085628,439132,360551
1165.48,0.087534,442389,361635
1169.04,0.089880,446101,362705
1173.79,0.092774,451929,365003
1177.34,0.095083,456026,366359
1180.9,0.097360,461306,368663
1184.44,0.098887,467657,372426
1187.99,0.100045,473969,376448
1191.52,0.100419,479856,380796
1195.06,0.100247,487372,386913
1199.76,0.099532,497347,395483
1203.29,0.098266,504311,402191
1206.81,0.098196,511507,407996
1210.33,0.097462,519078,414735
1213.84,0.096960,527163,421682
1217.35,0.096939,534208,427338
1220.85,0.095886,540472,433398
1225.51,0.094876,549929,442008
1229.01,0.094382,556888,448111
1232.5,0.093774,562180,453003
1235.98,0.093389,567975,458079
1239.46,0.092166,574815,464903
1242.94,0.091433,582782,472143
1246.41,0.090846,591476,479834
1251.03,0.090923,604016,489920
1254.5,0.091015,612289,496525
1257.96,0.091611,619125,501380
1261.41,0.091717,624551,505651
1264.86,0.092624,629900,508918
1268.31,0.092750,634345,512360
1271.75,0.093692,638574,514659
1276.33,0.093661,642499,517859
1279.76,0.093840,645905,520390
1283.19,0.092842,648307,523526
1286.61,0.092549,650446,525608
1290.03,0.092285,652132,527291
1293.44,0.091796,653907,529322
1296.85,0.091366,655963,531512
1301.39,0.091341,657349,532666
1304.8,0.091164,657558,533053
1308.19,0.091328,658515,533627
1311.58,0.091446,658804,533716
1314.97,0.092011,659011,533189
1318.36,0.092172,658272,532394
1321.73,0.092630,658022,531631
1326.23,0.093473,657870,530478
1329.6,0.093863,656482,528883
1332.97,0.094775,654926,526523
1336.33,0.095640,653727,524513
1339.69,0.097036,652497,521846
1343.04,0.098351,649913,518208
1346.39,0.100559,647671,513802
1349.73,0.102192,645338,510030
1354.18,0.105088,641175,503371
1357.52,0.106798,638376,499204
1360.85,0.108675,635805,495050
1364.17,0.110751,633413,490836
1367.49,0.112723,631026,486770
1370.81,0.115782,628050,481074
1374.12,0.117441,625034,476939
1378.54,0.120074,620272,470444
1381.84,0.122752,616892,465004
1385.14,0.125963,613613,459126
1388.43,0.129253,611526,454111
1391.72,0.132590,610663,449999
1395.01,0.136818,610634,445618
1398.29,0.140634,611700,442491
1402.66,0.146898,614051,437831
1405.93,0.151328,616268,434952
1409.2,0.155603,617795,431759
1412.46,0.159435,618872,428712
1415.72,0.163921,619795,424939
1418.98,0.166898,620495,422513
1422.23,0.170111,621087,419799
1426.56,0.173759,621375,416481
1429.8,0.176013,621616,414485
1433.04,0.178820,622129,412155
1436.27,0.181150,621526,409552
1439.5,0.182982,621113,407557
1442.72,0.185258,620921,405302
1445.94,0.188192,620270,402151
1450.23,0.191463,618860,398226
1453.44,0.194393,617697,394805
1456.64,0.196950,616264,391577
1459.85,0.200679,614413,387063
1463.04,0.202805,612307,383852
1466.24,0.206403,610032,379271
1469.43,0.210478,607345,374074
1473.67,0.217012,603789,366331
1476.85,0.223190,601175,359593
1480.02,0.229324,597737,352522
1483.19,0.236453,594479,344892
1486.36,0.242396,591232,338347
1489.52,0.246672,587853,333117
1492.68,0.250569,583875,327907
1496.89,0.252932,578062,322881
1500.03,0.253496,574159,320285
1503.18,0.253143,570285,318382
1506.32,0.252778,565444,315945
1509.45,0.251207,560571,314357
1512.58,0.250278,555821,312361
1515.71,0.247038,550344,311599
1519.87,0.243644,543983,310414
1522.99,0.240831,538764,309434
1526.1,0.239364,533692,307558
1529.21,0.235786,527902,306738
1532.32,0.233588,521886,304781
1535.42,0.230325,515888,303550
1538.51,0.227661,509987,301924
1541.6,0.224242,503936,300700
1545.72,0.220593,494694,297676
1548.8,0.218056,488378,295597
1551.88,0.215721,481832,293207
1554.95,0.213814,474989,290315
1558.02,0.212210,467818,286990
1561.08,0.211163,460730,283324
1564.15,0.210402,454170,279780
1568.22,0.209595,444181,274135
1571.27,0.208698,436947,270228
1574.32,0.207363,429598,266501
1577.36,0.206634,422039,262252
1580.4,0.205752,414375,258013
1583.43,0.204112,406354,253976
1586.46,0.202819,398475,249794
1590.49,0.200758,388982,245003
1593.51,0.198761,380708,240897
1596.53,0.196710,372727,236963
1599.54,0.195551,365060,232709
1602.55,0.192812,357543,229359
1605.55,0.191235,349495,225012
1608.55,0.189422,341154,220561
1612.54,0.187299,330877,214965
1615.53,0.185615,322904,210600
1618.51,0.184711,315116,205949
1621.49,0.183774,307217,201220
1624.47,0.182901,299481,196548
1627.44,0.182665,292112,191816
1630.41,0.180972,284245,187379
1634.36,0.179104,274079,181456
1637.32,0.179372,266916,176605
1640.27,0.178953,259612,171938
1643.22,0.177767,251804,167223
1646.16,0.175981,244348,162940
1649.1,0.174833,236703,158260
1652.04,0.173833,228171,152907
1655.95,0.170106,215408,145598
1658.88,0.167460,204937,139367
1661.8,0.162394,193395,133061
1664.72,0.153006,179728,126360
1667.63,0.140286,163642,118470
1670.54,0.125446,146312,109606
1673.44,0.109620,128451,99797
1677.31,0.087760,105080,85854
1680.21,0.075297,88906,74754
1683.1,0.073149,75033,63402
1685.99,0.069424,63520,54136
1688.87,0.075911,53714,45100
1691.75,0.075670,45653,38353
1694.62,0.082955,39137,32332
1697.49,0.084282,33776,27818
1701.31,0.094642,28175,22658