File: samples/wool/wool-000811/Column 1_050618_20150331_123200.csv
Method:,Column 1,,
Host Date-Time:,31/3/15 @ 12:32:0,,
Header Version:,1,,
System Temp (C):,34.14,,
Detector Temp (C):,35,,
Humidity (%):,1.66,,
Lamp PD:,3818,,
Shift Vector Coefficients:,-10.5391,0.0761263,-0.000134223,,
Pixel to Wavelength Coefficients:,1775.68,-0.916766,-0.000235065,,
Serial Number:,5510004,,
Scan Config Name:,Column 1,,
Scan Config Type:,Slew,,
Section 1,,
Start wavelength (nm):,900,,
End wavelength (nm):,1700,,
Pattern Pixel Width (nm):,   7.03,,,,
Exposure (ms):,  0.635,,,,
Digital Resolution:,228,,
Num Repeats:,6,,
PGA Gain:,64,,
Total Measurement Time in sec:,  2.673,,
Wavelength (nm),Absorbance (AU),Reference Signal (unitless),Sample Signal (unitless)
901.51,0.068815,108485,92588
905.376,0.075363,121306,101981
909.237,0.076511,131909,110602
913.095,0.077384,143299,119911
916.948,0.077833,156982,131225
922.079,0.080061,179937,149644
925.923,0.081338,200504,166259
929.762,0.082343,222660,184204
933.597,0.081619,244426,202548
937.427,0.081040,263972,219037
941.254,0.079849,281845,234510
945.076,0.079565,297271,247507
950.165,0.078192,315605,263604
953.978,0.077626,328029,274338
957.786,0.077612,340470,284752
961.59,0.077692,352317,294606
965.389,0.077137,363056,303974
969.185,0.077104,373162,312459
972.976,0.078291,382632,319514
976.763,0.078437,391202,326561
981.806,0.078753,400190,333821
985.583,0.078899,406088,338627
989.355,0.079893,410162,341242
993.124,0.080653,412868,342893
996.888,0.080473,414263,344194
1000.65,0.081471,415476,344409
1004.4,0.082680,415479,343454
1009.41,0.084075,414358,341429
1013.15,0.084144,412923,340193
1016.89,0.084192,411526,339004
1020.63,0.084232,409066,336947
1024.36,0.084716,406777,334688
1028.09,0.084653,404427,332803
1031.82,0.084138,401911,331125
1036.78,0.083690,398410,328579
1040.49,0.083440,396204,326948
1044.2,0.083703,394236,325127
1047.91,0.083410,392042,323536
1051.61,0.083184,389823,321872
1055.31,0.082973,388234,320716
1059,0.082350,387599,320651
1063.92,0.081618,386688,320437
1067.61,0.080430,386598,321240
1071.29,0.080413,387377,321900
1074.96,0.079955,388536,323204
1078.63,0.079107,389855,324935
1082.3,0.078184,391215,326762
1085.96,0.077360,393215,329056
1090.84,0.076705,396270,332113
1094.49,0.075787,398760,334907
1098.14,0.075729,400987,336823
1101.79,0.074709,403477,339711
1105.43,0.074417,406116,342163
1109.06,0.074026,407701,343808
1112.7,0.073501,409859,346046
1117.53,0.072957,412494,348707
1121.15,0.074193,414909,349752
1124.77,0.073709,416559,351534
1128.38,0.074708,418532,352388
1131.99,0.075829,419956,352675
1135.6,0.077373,421946,353089
1139.2,0.078831,423881,353519
1143.99,0.080756,426786,354368
1147.58,0.080578,428617,356034
1151.17,0.082640,431169,356457
1154.75,0.083216,433579,357975
1158.33,0.084471,436264,359152
1161.91,0.086378,439132,359929
1165.48,0.088562,442389,360780
1169.04,0.090424,446101,362251
1173.79,0.094616,451929,363458
1177.34,0.095950,456026,365628
1180.9,0.098265,461306,367895
1184.44,0.100316,467657,371203
1187.99,0.101259,473969,375397
1191.52,0.100399,479856,380813
1195.06,0.100365,487372,386808
1199.76,0.100132,497347,394937
1203.29,0.099333,504311,401204
1206.81,0.098445,511507,407762
1210.33,0.098070,519078,414155
1213.84,0.097462,527163,421195
1217.35,0.097064,534208,427215
1220.85,0.096377,540472,432909
1225.51,0.095571,549929,441302
1229.01,0.095155,556888,447314
1232.5,0.094464,562180,452284
1235.98,0.094131,567975,457297
1239.46,0.092937,574815,464078
1242.94,0.091849,582782,471691
1246.41,0.091062,591476,479595
1251.03,0.090964,604016,489874
1254.5,0.091452,612289,496026
1257.96,0.091861,619125,501092
1261.41,0.092461,624551,504786
1264.86,0.093419,629900,507987
1268.31,0.093322,634345,511686
1271.75,0.094186,638574,514073
1276.33,0.094232,642499,517178
1279.76,0.094408,645905,519710
1283.19,0.093729,648307,522458
1286.61,0.093390,650446,524591
1290.03,0.093207,652132,526173
1293.44,0.092471,653907,528500
1296.85,0.092265,655963,530413
1301.39,0.092289,657349,531505
1304.8,0.091660,657558,532444
1308.19,0.092179,658515,532582
1311.58,0.092257,658804,532720
1314.97,0.092399,659011,532714
1318.36,0.092881,658272,531526
1321.73,0.093088,658022,531071
1326.23,0.093775,657870,530109
1329.6,0.094743,656482,527813
1332.97,0.095646,654926,525468
1336.33,0.096445,653727,523542
1339.69,0.097994,652497,520696
1343.04,0.099360,649913,517006
1346.39,0.101122,647671,513136
1349.73,0.103144,645338,508913
1354.18,0.106086,641175,502216
1357.52,0.107891,638376,497950
1360.85,0.110009,635805,493532
1364.17,0.111813,633413,489637
1367.49,0.114015,631026,485325
1370.81,0.116691,628050,480068
1374.12,0.118062,625034,476257
1378.54,0.121036,620272,469403
1381.84,0.124066,616892,463600
1385.14,0.126704,613613,458343
1388.43,0.130609,611526,452695
1391.72,0.134563,610663,447959
1395.01,0.138336,610634,444063
1398.29,0.142410,611700,440685
1402.66,0.148407,614051,436312
1405.93,0.153066,616268,433215
1409.2,0.158018,617795,429365
1412.46,0.162262,618872,425931
1415.72,0.165848,619795,423058
1418.98,0.169667,620495,419828
1422.23,0.172561,621087,417437
1426.56,0.176496,621375,413864
1429.8,0.179291,621616,411369
1433.04,0.181305,622129,409803
1436.27,0.183572,621526,407275
1439.5,0.185616,621113,405093
1442.72,0.188618,620921,402178
1445.94,0.190773,620270,399768
1450.23,0.194625,618860,395337
1453.44,0.196850,617697,392578
1456.64,0.199747,616264,389063
1459.85,0.202127,614413,385774
1463.04,0.205252,612307,381696
1466.24,0.208631,610032,377330
1469.43,0.212850,607345,372036
1473.67,0.219312,603789,364396
1476.85,0.224943,601175,358144
1480.02,0.231281,597737,350937
1483.19,0.238128,594479,343565
1486.36,0.243484,591232,337500
1489.52,0.247839,587853,332223
1492.68,0.252288,583875,326612
1496.89,0.254317,578062,321853
1500.03,0.254904,574159,319248
1503.18,0.255687,570285,316523
1506.32,0.254278,565444,314856
1509.45,0.252848,560571,313172
1512.58,0.250730,555821,312036
1515.71,0.248494,550344,310556
1519.87,0.245713,543983,308939
1522.99,0.242868,538764,307986
1526.1,0.240974,533692,306420
1529.21,0.237906,527902,305244
1532.32,0.235122,521886,303706
1535.42,0.231646,515888,302628
1538.51,0.229107,509987,300921
1541.6,0.226745,503936,298972
1545.72,0.221544,494694,297025
1548.8,0.219316,488378,294741
1551.88,0.216877,481832,292428
1554.95,0.215335,474989,289300
1558.02,0.213712,467818,285999
1561.08,0.212038,460730,282754
1564.15,0.211773,454170,278898
1568.22,0.210445,444181,273599
1571.27,0.210465,436947,269131
1574.32,0.210026,429598,264872
1577.36,0.208045,422039,261401
1580.4,0.206842,414375,257366
1583.43,0.206048,406354,252846
1586.46,0.204128,398475,249042
1590.49,0.202095,388982,244250
1593.51,0.200232,380708,240082
1596.53,0.198047,372727,236235
1599.54,0.197052,365060,231906
1602.55,0.195146,357543,228130
1605.55,0.192416,349495,224401
1608.55,0.190994,341154,219764
1612.54,0.189433,330877,213911
1615.53,0.186389,322904,210225
1618.51,0.185836,315116,205416
1621.49,0.185379,307217,200478
1624.47,0.184659,299481,195754
1627.44,0.183458,292112,191466
1630.41,0.181977,284245,186946
1634.36,0.181829,274079,180321
1637.32,0.180993,266916,175947
1640.27,0.178834,259612,171985
1643.22,0.177642,251804,167271
1646.16,0.177538,244348,162357
1649.1,0.177378,236703,157335
1652.04,0.176100,228171,152111
1655.95,0.173139,215408,144585
1658.88,0.168218,204937,139124
1661.8,0.163686,193395,132666
1664.72,0.154887,179728,125814
1667.63,0.142853,163642,117772
1670.54,0.128647,146312,108801
1673.44,0.109072,128451,99923
1677.31,0.091397,105080,85138
1680.21,0.080822,88906,73809
1683.1,0.071161,75033,63693
1685.99,0.073414,63520,53641
1688.87,0.079013,53714,44779
1691.75,0.081059,45653,37880
1694.62,0.083277,39137,32308
1697.49,0.097631,33776,26976
1701.31,0.097488,28175,22510