File: samples/wool/wool-000811/Column 1_050544_20150331_115649.csv
Method:,Column 1,,
Host Date-Time:,31/3/15 @ 11:56:49,,
Header Version:,1,,
System Temp (C):,32.69,,
Detector Temp (C):,31.07,,
Humidity (%):,2.74,,
Lamp PD:,3824,,
Shift Vector Coefficients:,-10.5391,0.0761263,-0.000134223,,
Pixel to Wavelength Coefficients:,1775.68,-0.916766,-0.000235065,,
Serial Number:,5510004,,
Scan Config Name:,Column 1,,
Scan Config Type:,Slew,,
Section 1,,
Start wavelength (nm):,900,,
End wavelength (nm):,1700,,
Pattern Pixel Width (nm):,   7.03,,,,
Exposure (ms):,  0.635,,,,
Digital Resolution:,228,,
Num Repeats:,6,,
PGA Gain:,64,,
Total Measurement Time in sec:,  2.685,,
Wavelength (nm),Absorbance (AU),Reference Signal (unitless),Sample Signal (unitless)
901.51,0.046196,108485,97538
905.376,0.051832,121306,107659
909.237,0.052467,131909,116898
913.095,0.053374,143299,126727
916.948,0.053717,156982,138718
922.079,0.053854,179937,158952
925.923,0.053603,200504,177223
929.762,0.054912,222660,196214
933.597,0.055154,244426,215275
937.427,0.054580,263972,232797
941.254,0.055398,281845,248092
945.076,0.054652,297271,262120
950.165,0.054311,315605,278505
953.978,0.053249,328029,290177
957.786,0.054321,340470,300440
961.59,0.055650,352317,309944
965.389,0.055477,363056,319519
969.185,0.055930,373162,328071
972.976,0.056482,382632,335969
976.763,0.056717,391202,343308
981.806,0.057208,400190,350799
985.583,0.058252,406088,355114
989.355,0.058894,410162,358147
993.124,0.059366,412868,360118
996.888,0.059931,414263,360865
1000.65,0.060100,415476,361781
1004.4,0.062261,415479,359988
1009.41,0.063561,414358,357944
1013.15,0.063725,412923,356569
1016.89,0.064579,411526,354665
1020.63,0.064079,409066,352951
1024.36,0.064059,406777,350992
1028.09,0.064006,404427,349007
1031.82,0.062960,401911,347672
1036.78,0.062648,398410,344891
1040.49,0.062511,396204,343090
1044.2,0.062022,394236,341770
1047.91,0.061011,392042,340660
1051.61,0.060148,389823,339406
1055.31,0.060000,388234,338138
1059,0.058680,387599,338612
1063.92,0.058179,386688,338206
1067.61,0.056791,386598,339210
1071.29,0.055590,387377,340835
1074.96,0.055453,388536,341962
1078.63,0.055062,389855,343432
1082.3,0.054198,391215,345317
1085.96,0.053168,393215,347906
1090.84,0.052454,396270,351186
1094.49,0.052177,398760,353618
1098.14,0.051944,400987,355784
1101.79,0.051756,403477,358148
1105.43,0.051441,406116,360752
1109.06,0.051224,407701,362341
1112.7,0.050927,409859,364508
1117.53,0.050860,412494,366908
1121.15,0.051926,414909,368152
1124.77,0.052026,416559,369531
1128.38,0.053606,418532,369933
1131.99,0.055341,419956,369711
1135.6,0.057404,421946,369703
1139.2,0.059360,423881,369729
1143.99,0.062435,426786,369637
1147.58,0.063791,428617,370065
1151.17,0.064999,431169,371235
1154.75,0.066271,433579,372218
1158.33,0.068184,436264,372877
1161.91,0.070724,439132,373139
1165.48,0.073399,442389,373599
1169.04,0.076867,446101,373737
1173.79,0.080748,451929,375251
1177.34,0.083180,456026,376539
1180.9,0.086164,461306,378290
1184.44,0.088187,467657,381716
1187.99,0.088547,473969,386548
1191.52,0.087600,479856,392203
1195.06,0.087712,487372,398243
1199.76,0.086300,497347,407718
1203.29,0.084769,504311,414887
1206.81,0.083429,511507,422107
1210.33,0.082699,519078,429075
1213.84,0.081348,527163,437116
1217.35,0.080689,534208,443630
1220.85,0.078860,540472,450727
1225.51,0.078117,549929,459399
1229.01,0.077066,556888,466339
1232.5,0.075780,562180,472167
1235.98,0.074929,567975,477970
1239.46,0.074027,574815,484731
1242.94,0.072711,582782,492941
1246.41,0.072239,591476,500839
1251.03,0.071691,604016,512103
1254.5,0.071824,612289,518958
1257.96,0.072529,619125,523901
1261.41,0.072870,624551,528078
1264.86,0.073402,629900,531948
1268.31,0.074035,634345,534922
1271.75,0.074820,638574,537516
1276.33,0.075108,642499,540461
1279.76,0.075604,645905,542706
1283.19,0.074825,648307,545702
1286.61,0.074891,650446,547420
1290.03,0.073743,652132,550291
1293.44,0.073504,653907,552093
1296.85,0.073331,655963,554049
1301.39,0.072735,657349,555982
1304.8,0.072734,657558,556160
1308.19,0.073310,658515,556232
1311.58,0.073326,658804,556455
1314.97,0.074356,659011,555312
1318.36,0.074094,658272,555024
1321.73,0.074834,658022,553868
1326.23,0.075582,657870,552787
1329.6,0.077067,656482,549738
1332.97,0.078255,654926,546937
1336.33,0.079302,653727,544621
1339.69,0.081453,652497,540911
1343.04,0.083418,649913,536336
1346.39,0.085930,647671,531404
1349.73,0.088265,645338,526650
1354.18,0.091723,641175,519103
1357.52,0.094361,638376,513707
1360.85,0.096279,635805,509383
1364.17,0.099072,633413,504214
1367.49,0.101928,631026,499022
1370.81,0.104571,628050,493655
1374.12,0.107229,625034,488286
1378.54,0.111155,620272,480206
1381.84,0.115052,616892,473322
1385.14,0.119681,613613,465815
1388.43,0.124911,611526,458674
1391.72,0.130341,610663,452335
1395.01,0.135640,610634,446829
1398.29,0.141937,611700,441165
1402.66,0.150216,614051,434499
1405.93,0.156965,616268,429343
1409.2,0.163386,617795,424090
1412.46,0.168941,618872,419430
1415.72,0.174209,619795,414991
1418.98,0.179063,620495,410842
1422.23,0.183478,621087,407075
1426.56,0.188094,621375,402958
1429.8,0.190584,621616,400810
1433.04,0.193763,622129,398215
1436.27,0.196763,621526,395090
1439.5,0.198492,621113,393259
1442.72,0.201541,620921,390387
1445.94,0.203920,620270,387847
1450.23,0.207821,618860,383505
1453.44,0.210663,617697,380288
1456.64,0.213787,616264,376686
1459.85,0.216404,614413,373299
1463.04,0.218772,612307,369996
1466.24,0.222095,610032,365812
1469.43,0.225322,607345,361504
1473.67,0.230981,603789,354735
1476.85,0.235959,601175,349174
1480.02,0.241241,597737,342980
1483.19,0.247757,594479,336031
1486.36,0.254334,591232,329173
1489.52,0.259847,587853,323163
1492.68,0.262471,583875,319043
1496.89,0.266058,578062,313268
1500.03,0.267042,574159,310449
1503.18,0.267000,570285,308384
1506.32,0.266277,565444,306276
1509.45,0.265687,560571,304049
1512.58,0.263890,555821,302723
1515.71,0.261233,550344,301579
1519.87,0.259146,543983,299529
1522.99,0.255648,538764,299055
1526.1,0.252894,533692,298124
1529.21,0.249575,527902,297152
1532.32,0.245881,521886,296275
1535.42,0.242956,515888,294849
1538.51,0.239595,509987,293741
1541.6,0.237189,503936,291868
1545.72,0.231191,494694,290500
1548.8,0.228731,488378,288420
1551.88,0.225435,481832,286722
1554.95,0.223275,474989,284059
1558.02,0.221074,467818,281192
1561.08,0.220266,460730,277447
1564.15,0.218885,454170,274368
1568.22,0.218431,444181,268614
1571.27,0.217987,436947,264510
1574.32,0.215938,429598,261291
1577.36,0.214935,422039,257287
1580.4,0.212875,414375,253816
1583.43,0.210871,406354,250054
1586.46,0.209240,398475,246128
1590.49,0.206561,388982,241751
1593.51,0.204513,380708,237727
1596.53,0.201670,372727,234272
1599.54,0.199486,365060,230610
1602.55,0.197992,357543,226640
1605.55,0.194924,349495,223109
1608.55,0.192263,341154,219123
1612.54,0.190348,330877,213461
1615.53,0.187701,322904,209591
1618.51,0.186772,315116,204974
1621.49,0.185028,307217,200640
1624.47,0.183958,299481,196070
1627.44,0.182434,292112,191918
1630.41,0.181308,284245,187234
1634.36,0.180104,274079,181039
1637.32,0.177840,266916,177229
1640.27,0.177966,259612,172329
1643.22,0.176423,251804,167741
1646.16,0.173721,244348,163790
1649.1,0.174358,236703,158433
1652.04,0.173958,228171,152863
1655.95,0.170730,215408,145389
1658.88,0.169550,204937,138698
1661.8,0.166141,193395,131918
1664.72,0.162801,179728,123542
1667.63,0.158230,163642,113675
1670.54,0.151887,146312,103132
1673.44,0.143978,128451,92206
1677.31,0.137382,105080,76584
1680.21,0.135797,88906,65033
1683.1,0.136757,75033,54764
1685.99,0.143251,63520,45673
1688.87,0.153205,53714,37747
1691.75,0.154795,45653,31965
1694.62,0.158578,39137,27165
1697.49,0.162615,33776,23227
1701.31,0.165320,28175,19255