File: samples/wool/wool-000811/Column 1_050618_20150331_123214.csv
Method:,Column 1,,
Host Date-Time:,31/3/15 @ 12:32:14,,
Header Version:,1,,
System Temp (C):,34.13,,
Detector Temp (C):,34.98,,
Humidity (%):,1.66,,
Lamp PD:,3818,,
Shift Vector Coefficients:,-10.5391,0.0761263,-0.000134223,,
Pixel to Wavelength Coefficients:,1775.68,-0.916766,-0.000235065,,
Serial Number:,5510004,,
Scan Config Name:,Column 1,,
Scan Config Type:,Slew,,
Section 1,,
Start wavelength (nm):,900,,
End wavelength (nm):,1700,,
Pattern Pixel Width (nm):,   7.03,,,,
Exposure (ms):,  0.635,,,,
Digital Resolution:,228,,
Num Repeats:,6,,
PGA Gain:,64,,
Total Measurement Time in sec:,  2.668,,
Wavelength (nm),Absorbance (AU),Reference Signal (unitless),Sample Signal (unitless)
901.51,0.069007,108485,92547
905.376,0.072866,121306,102569
909.237,0.074869,131909,111021
913.095,0.077297,143299,119935
916.948,0.078665,156982,130974
922.079,0.080200,179937,149596
925.923,0.081385,200504,166241
929.762,0.081688,222660,184482
933.597,0.082876,244426,201963
937.427,0.079831,263972,219648
941.254,0.079940,281845,234461
945.076,0.078225,297271,248272
950.165,0.077993,315605,263725
953.978,0.076627,328029,274970
957.786,0.077210,340470,285016
961.59,0.077383,352317,294816
965.389,0.076996,363056,304073
969.185,0.076808,373162,312672
972.976,0.077614,382632,320013
976.763,0.077391,391202,327348
981.806,0.077882,400190,334491
985.583,0.078888,406088,338635
989.355,0.079011,410162,341936
993.124,0.079890,412868,343496
996.888,0.080562,414263,344123
1000.65,0.081420,415476,344450
1004.4,0.082065,415479,343941
1009.41,0.083685,414358,341736
1013.15,0.084085,412923,340239
1016.89,0.084228,411526,338976
1020.63,0.084448,409066,336779
1024.36,0.083518,406777,335613
1028.09,0.084346,404427,333038
1031.82,0.084230,401911,331055
1036.78,0.083709,398410,328565
1040.49,0.083189,396204,327137
1044.2,0.083535,394236,325253
1047.91,0.083148,392042,323731
1051.61,0.082258,389823,322559
1055.31,0.082484,388234,321077
1059,0.081527,387599,321259
1063.92,0.081103,386688,320817
1067.61,0.079415,386598,321992
1071.29,0.079964,387377,322233
1074.96,0.079596,388536,323471
1078.63,0.078312,389855,325530
1082.3,0.077468,391215,327301
1085.96,0.077628,393215,328853
1090.84,0.076622,396270,332177
1094.49,0.075424,398760,335187
1098.14,0.075396,400987,337081
1101.79,0.074245,403477,340074
1105.43,0.073913,406116,342560
1109.06,0.073751,407701,344026
1112.7,0.073363,409859,346156
1117.53,0.072498,412494,349076
1121.15,0.073395,414909,350395
1124.77,0.073138,416559,351997
1128.38,0.074311,418532,352710
1131.99,0.075507,419956,352937
1135.6,0.077203,421946,353227
1139.2,0.078668,423881,353652
1143.99,0.079811,426786,355140
1147.58,0.081482,428617,355294
1151.17,0.082024,431169,356963
1154.75,0.082556,433579,358519
1158.33,0.084231,436264,359351
1161.91,0.085571,439132,360599
1165.48,0.087245,442389,361876
1169.04,0.089777,446101,362791
1173.79,0.093509,451929,364386
1177.34,0.096082,456026,365517
1180.9,0.097787,461306,368300
1184.44,0.099775,467657,371666
1187.99,0.100396,473969,376144
1191.52,0.100376,479856,380833
1195.06,0.100182,487372,386971
1199.76,0.099758,497347,395277
1203.29,0.098570,504311,401910
1206.81,0.098396,511507,407808
1210.33,0.097732,519078,414477
1213.84,0.097809,527163,420858
1217.35,0.097348,534208,426936
1220.85,0.096152,540472,433133
1225.51,0.095196,549929,441683
1229.01,0.094774,556888,447707
1232.5,0.094162,562180,452599
1235.98,0.093872,567975,457570
1239.46,0.092563,574815,464478
1242.94,0.092035,582782,471489
1246.41,0.091123,591476,479528
1251.03,0.091148,604016,489667
1254.5,0.091090,612289,496440
1257.96,0.091501,619125,501507
1261.41,0.091852,624551,505494
1264.86,0.092699,629900,508830
1268.31,0.093101,634345,511946
1271.75,0.093909,638574,514401
1276.33,0.094567,642499,516780
1279.76,0.093855,645905,520372
1283.19,0.093256,648307,523028
1286.61,0.093060,650446,524990
1290.03,0.093123,652132,526275
1293.44,0.092040,653907,529025
1296.85,0.091896,655963,530864
1301.39,0.091360,657349,532643
1304.8,0.091947,657558,532092
1308.19,0.091416,658515,533519
1311.58,0.091805,658804,533275
1314.97,0.092147,659011,533023
1318.36,0.092406,658272,532108
1321.73,0.092725,658022,531515
1326.23,0.093696,657870,530205
1329.6,0.094021,656482,528691
1332.97,0.095290,654926,525899
1336.33,0.095866,653727,524240
1339.69,0.097608,652497,521159
1343.04,0.099179,649913,517221
1346.39,0.100998,647671,513282
1349.73,0.103015,645338,509064
1354.18,0.105602,641175,502776
1357.52,0.107734,638376,498130
1360.85,0.109638,635805,493953
1364.17,0.111734,633413,489726
1367.49,0.113996,631026,485346
1370.81,0.116247,628050,480560
1374.12,0.118082,625034,476235
1378.54,0.120886,620272,469565
1381.84,0.123673,616892,464019
1385.14,0.126845,613613,458194
1388.43,0.130160,611526,453163
1391.72,0.134279,610663,448252
1395.01,0.138089,610634,444316
1398.29,0.142314,611700,440783
1402.66,0.148384,614051,436335
1405.93,0.152885,616268,433396
1409.2,0.157808,617795,429572
1412.46,0.161668,618872,426514
1415.72,0.165661,619795,423240
1418.98,0.169156,620495,420322
1422.23,0.172163,621087,417820
1426.56,0.176109,621375,414233
1429.8,0.178859,621616,411778
1433.04,0.181088,622129,410008
1436.27,0.183194,621526,407629
1439.5,0.185524,621113,405179
1442.72,0.187758,620921,402975
1445.94,0.190159,620270,400333
1450.23,0.193397,618860,396456
1453.44,0.196727,617697,392689
1456.64,0.199211,616264,389543
1459.85,0.202478,614413,385463
1463.04,0.204522,612307,382338
1466.24,0.208460,610032,377479
1469.43,0.212430,607345,372396
1473.67,0.218768,603789,364852
1476.85,0.224654,601175,358383
1480.02,0.230946,597737,351208
1483.19,0.237762,594479,343854
1486.36,0.243587,591232,337420
1489.52,0.248115,587853,332012
1492.68,0.251799,583875,326980
1496.89,0.254092,578062,322020
1500.03,0.254341,574159,319662
1503.18,0.254488,570285,317398
1506.32,0.253204,565444,315635
1509.45,0.252343,560571,313536
1512.58,0.250669,555821,312080
1515.71,0.248202,550344,310765
1519.87,0.244217,543983,310005
1522.99,0.242614,538764,308166
1526.1,0.240091,533692,307043
1529.21,0.237708,527902,305383
1532.32,0.233720,521886,304688
1535.42,0.231177,515888,302955
1538.51,0.228815,509987,301123
1541.6,0.225053,503936,300139
1545.72,0.221380,494694,297137
1548.8,0.218440,488378,295336
1551.88,0.216107,481832,292947
1554.95,0.214320,474989,289977
1558.02,0.212942,467818,286507
1561.08,0.211959,460730,282805
1564.15,0.211550,454170,279041
1568.22,0.210226,444181,273737
1571.27,0.210012,436947,269412
1574.32,0.208674,429598,265698
1577.36,0.207589,422039,261676
1580.4,0.206377,414375,257642
1583.43,0.205338,406354,253260
1586.46,0.203593,398475,249349
1590.49,0.201764,388982,244436
1593.51,0.199838,380708,240300
1596.53,0.197116,372727,236742
1599.54,0.196521,365060,232190
1602.55,0.194533,357543,228452
1605.55,0.192302,349495,224460
1608.55,0.191320,341154,219599
1612.54,0.188438,330877,214402
1615.53,0.185803,322904,210509
1618.51,0.185959,315116,205358
1621.49,0.183923,307217,201151
1624.47,0.183276,299481,196378
1627.44,0.182898,292112,191713
1630.41,0.182290,284245,186811
1634.36,0.180298,274079,180958
1637.32,0.179495,266916,176555
1640.27,0.179077,259612,171889
1643.22,0.177554,251804,167305
1646.16,0.176304,244348,162819
1649.1,0.175767,236703,157920
1652.04,0.173924,228171,152875
1655.95,0.171451,215408,145148
1658.88,0.166492,204937,139678
1661.8,0.162630,193395,132989
1664.72,0.153027,179728,126354
1667.63,0.142613,163642,117837
1670.54,0.126144,146312,109430
1673.44,0.110535,128451,99587
1677.31,0.089041,105080,85601
1680.21,0.077977,88906,74294
1683.1,0.073499,75033,63351
1685.99,0.071523,63520,53875
1688.87,0.073156,53714,45387
1691.75,0.078955,45653,38064
1694.62,0.078026,39137,32701
1697.49,0.079500,33776,28126
1701.31,0.095813,28175,22597