File: samples/wool/wool-000811/Column 1_050558_20150331_120336.csv
Method:,Column 1,,
Host Date-Time:,31/3/15 @ 12:3:36,,
Header Version:,1,,
System Temp (C):,33.61,,
Detector Temp (C):,32.93,,
Humidity (%):,2.25,,
Lamp PD:,3820,,
Shift Vector Coefficients:,-10.5391,0.0761263,-0.000134223,,
Pixel to Wavelength Coefficients:,1775.68,-0.916766,-0.000235065,,
Serial Number:,5510004,,
Scan Config Name:,Column 1,,
Scan Config Type:,Slew,,
Section 1,,
Start wavelength (nm):,900,,
End wavelength (nm):,1700,,
Pattern Pixel Width (nm):,   7.03,,,,
Exposure (ms):,  0.635,,,,
Digital Resolution:,228,,
Num Repeats:,6,,
PGA Gain:,64,,
Total Measurement Time in sec:,  2.673,,
Wavelength (nm),Absorbance (AU),Reference Signal (unitless),Sample Signal (unitless)
901.51,0.034805,108485,100130
905.376,0.040665,121306,110463
909.237,0.043190,131909,119422
913.095,0.042654,143299,129894
916.948,0.042966,156982,142195
922.079,0.045276,179937,162123
925.923,0.046091,200504,180315
929.762,0.047264,222660,199700
933.597,0.048318,244426,218690
937.427,0.047283,263972,236742
941.254,0.046329,281845,253327
945.076,0.046562,297271,267049
950.165,0.046124,315605,283805
953.978,0.045815,328029,295187
957.786,0.045821,340470,306378
961.59,0.046451,352317,316579
965.389,0.046325,363056,326324
969.185,0.046951,373162,334924
972.976,0.047481,382632,343005
976.763,0.048308,391202,350020
981.806,0.048374,400190,358008
985.583,0.049362,406088,362458
989.355,0.049766,410162,365754
993.124,0.049883,412868,368068
996.888,0.050810,414263,368524
1000.65,0.051799,415476,368763
1004.4,0.052791,415479,367924
1009.41,0.054221,414358,365725
1013.15,0.054563,412923,364172
1016.89,0.055010,411526,362566
1020.63,0.055211,409066,360232
1024.36,0.054958,406777,358425
1028.09,0.054956,404427,356356
1031.82,0.054264,401911,354704
1036.78,0.054169,398410,351691
1040.49,0.053372,396204,350386
1044.2,0.053291,394236,348711
1047.91,0.052902,392042,347081
1051.61,0.052650,389823,345317
1055.31,0.052102,388234,344343
1059,0.051371,387599,344359
1063.92,0.050372,386688,344341
1067.61,0.049507,386598,344947
1071.29,0.049448,387377,345689
1074.96,0.048718,388536,347307
1078.63,0.048413,389855,348731
1082.3,0.046823,391215,351231
1085.96,0.046764,393215,353074
1090.84,0.046144,396270,356326
1094.49,0.045591,398760,359022
1098.14,0.045223,400987,361333
1101.79,0.044937,403477,363816
1105.43,0.044787,406116,366322
1109.06,0.043987,407701,368430
1112.7,0.044506,409859,369938
1117.53,0.044066,412494,372693
1121.15,0.045360,414909,373760
1124.77,0.045690,416559,374961
1128.38,0.046782,418532,375791
1131.99,0.048156,419956,375879
1135.6,0.049757,421946,376270
1139.2,0.052150,423881,375919
1143.99,0.054999,426786,376020
1147.58,0.055592,428617,377118
1151.17,0.056591,431169,378492
1154.75,0.057836,433579,379518
1158.33,0.059606,436264,380315
1161.91,0.062250,439132,380492
1165.48,0.063948,442389,381818
1169.04,0.067037,446101,382293
1173.79,0.071103,451929,383678
1177.34,0.072828,456026,385622
1180.9,0.075310,461306,387864
1184.44,0.077512,467657,391215
1187.99,0.077963,473969,396084
1191.52,0.077741,479856,401208
1195.06,0.077512,487372,407707
1199.76,0.076318,497347,417197
1203.29,0.075715,504311,423627
1206.81,0.075044,511507,430336
1210.33,0.074164,519078,437591
1213.84,0.072882,527163,445721
1217.35,0.072513,534208,452061
1220.85,0.071952,540472,457953
1225.51,0.070655,549929,467360
1229.01,0.070376,556888,473578
1232.5,0.069609,562180,478924
1235.98,0.069190,567975,484328
1239.46,0.068104,574815,491387
1242.94,0.066935,582782,499541
1246.41,0.066215,591476,507834
1251.03,0.065946,604016,518922
1254.5,0.066781,612289,525020
1257.96,0.066856,619125,530790
1261.41,0.067293,624551,534903
1264.86,0.067913,629900,538714
1268.31,0.068590,634345,541671
1271.75,0.069181,638574,544541
1276.33,0.069355,642499,547668
1279.76,0.069503,645905,550384
1283.19,0.068913,648307,553181
1286.61,0.069142,650446,554714
1290.03,0.068284,652132,557252
1293.44,0.067589,653907,559664
1296.85,0.067820,655963,561124
1301.39,0.067343,657349,562928
1304.8,0.067359,657558,563087
1308.19,0.067696,658515,563468
1311.58,0.067562,658804,563890
1314.97,0.068642,659011,562666
1318.36,0.069124,658272,561411
1321.73,0.068894,658022,561496
1326.23,0.070077,657870,559839
1329.6,0.071144,656482,557287
1332.97,0.072132,654926,554703
1336.33,0.073678,653727,551720
1339.69,0.075183,652497,548777
1343.04,0.077119,649913,544172
1346.39,0.079194,647671,539710
1349.73,0.081713,645338,534656
1354.18,0.085096,641175,527085
1357.52,0.087134,638376,522327
1360.85,0.089526,635805,517366
1364.17,0.091389,633413,513213
1367.49,0.094159,631026,508029
1370.81,0.096492,628050,502924
1374.12,0.098934,625034,497702
1378.54,0.102274,620272,490126
1381.84,0.106164,616892,483109
1385.14,0.109969,613613,476349
1388.43,0.114831,611526,469444
1391.72,0.119599,610663,463663
1395.01,0.124849,610634,458070
1398.29,0.130767,611700,452659
1402.66,0.138108,614051,446783
1405.93,0.144106,616268,442246
1409.2,0.149849,617795,437517
1412.46,0.154937,618872,433175
1415.72,0.159935,619795,428858
1418.98,0.164427,620495,424924
1422.23,0.168713,621087,421153
1426.56,0.172869,621375,417335
1429.8,0.175379,621616,415091
1433.04,0.178269,622129,412678
1436.27,0.180942,621526,409748
1439.5,0.182953,621113,407584
1442.72,0.185507,620921,405069
1445.94,0.187750,620270,402560
1450.23,0.191185,618860,398481
1453.44,0.194688,617697,394537
1456.64,0.197582,616264,391007
1459.85,0.200072,614413,387604
1463.04,0.203002,612307,383678
1466.24,0.206287,610032,379372
1469.43,0.209412,607345,374993
1473.67,0.215484,603789,367622
1476.85,0.220768,601175,361604
1480.02,0.226241,597737,355033
1483.19,0.233252,594479,347444
1486.36,0.239011,591232,340994
1489.52,0.243237,587853,335762
1492.68,0.247784,583875,330017
1496.89,0.249134,578062,325717
1500.03,0.250099,574159,322800
1503.18,0.250534,570285,320301
1506.32,0.249087,565444,318642
1509.45,0.248533,560571,316299
1512.58,0.246951,555821,314763
1515.71,0.244212,550344,313633
1519.87,0.241471,543983,311971
1522.99,0.237692,538764,311678
1526.1,0.235785,533692,310103
1529.21,0.232693,527902,308930
1532.32,0.230041,521886,307280
1535.42,0.226793,515888,306029
1538.51,0.223843,509987,304590
1541.6,0.220959,503936,302982
1545.72,0.215594,494694,301122
1548.8,0.213378,488378,298798
1551.88,0.210204,481832,296956
1554.95,0.207370,474989,294655
1558.02,0.205863,467818,291215
1561.08,0.204994,460730,287377
1564.15,0.203515,454170,284252
1568.22,0.202532,444181,278630
1571.27,0.202073,436947,274382
1574.32,0.200733,429598,270601
1577.36,0.200056,422039,266254
1580.4,0.198696,414375,262239
1583.43,0.197130,406354,258092
1586.46,0.194773,398475,254465
1590.49,0.192228,388982,249863
1593.51,0.190441,380708,245556
1596.53,0.187865,372727,241839
1599.54,0.186123,365060,237816
1602.55,0.184122,357543,233995
1605.55,0.181707,349495,230003
1608.55,0.179600,341154,225606
1612.54,0.176516,330877,220369
1615.53,0.174519,322904,216050
1618.51,0.173762,315116,211207
1621.49,0.172927,307217,206309
1624.47,0.170313,299481,202328
1627.44,0.170167,292112,197416
1630.41,0.169003,284245,192615
1634.36,0.167262,274079,186472
1637.32,0.166334,266916,181987
1640.27,0.166408,259612,176977
1643.22,0.164813,251804,172286
1646.16,0.164243,244348,167404
1649.1,0.164429,236703,162097
1652.04,0.161305,228171,157382
1655.95,0.159813,215408,149090
1658.88,0.156980,204937,142771
1661.8,0.153334,193395,135866
1664.72,0.147240,179728,128049
1667.63,0.137823,163642,119144
1670.54,0.127838,146312,109004
1673.44,0.115875,128451,98370
1677.31,0.103464,105080,82805
1680.21,0.098646,88906,70841
1683.1,0.097709,75033,59916
1685.99,0.099129,63520,50557
1688.87,0.105053,53714,42173
1691.75,0.109253,45653,35499
1694.62,0.117774,39137,29841
1697.49,0.119572,33776,25647
1701.31,0.124821,28175,21137