File: samples/wool/wool-000811/Column 1_050554_20150331_120154.csv
Method:,Column 1,,
Host Date-Time:,31/3/15 @ 12:1:54,,
Header Version:,1,,
System Temp (C):,33.46,,
Detector Temp (C):,32.5,,
Humidity (%):,2.44,,
Lamp PD:,3820,,
Shift Vector Coefficients:,-10.5391,0.0761263,-0.000134223,,
Pixel to Wavelength Coefficients:,1775.68,-0.916766,-0.000235065,,
Serial Number:,5510004,,
Scan Config Name:,Column 1,,
Scan Config Type:,Slew,,
Section 1,,
Start wavelength (nm):,900,,
End wavelength (nm):,1700,,
Pattern Pixel Width (nm):,   7.03,,,,
Exposure (ms):,  0.635,,,,
Digital Resolution:,228,,
Num Repeats:,6,,
PGA Gain:,64,,
Total Measurement Time in sec:,  2.684,,
Wavelength (nm),Absorbance (AU),Reference Signal (unitless),Sample Signal (unitless)
901.51,0.033493,108485,100433
905.376,0.040375,121306,110537
909.237,0.041256,131909,119955
913.095,0.043662,143299,129593
916.948,0.042993,156982,142186
922.079,0.044235,179937,162512
925.923,0.045408,200504,180599
929.762,0.045976,222660,200293
933.597,0.047293,244426,219207
937.427,0.046178,263972,237345
941.254,0.046204,281845,253400
945.076,0.046671,297271,266982
950.165,0.046286,315605,283699
953.978,0.045834,328029,295174
957.786,0.045821,340470,306378
961.59,0.046744,352317,316366
965.389,0.046404,363056,326264
969.185,0.046337,373162,335398
972.976,0.046963,382632,343414
976.763,0.048080,391202,350204
981.806,0.048078,400190,358252
985.583,0.049020,406088,362744
989.355,0.049624,410162,365874
993.124,0.050381,412868,367646
996.888,0.050397,414263,368875
1000.65,0.051658,415476,368882
1004.4,0.052337,415479,368309
1009.41,0.053874,414358,366017
1013.15,0.054640,412923,364107
1016.89,0.055476,411526,362177
1020.63,0.054782,409066,360588
1024.36,0.054918,406777,358458
1028.09,0.054544,404427,356694
1031.82,0.054764,401911,354296
1036.78,0.054228,398410,351643
1040.49,0.053608,396204,350196
1044.2,0.052833,394236,349079
1047.91,0.053553,392042,346561
1051.61,0.051973,389823,345855
1055.31,0.052210,388234,344258
1059,0.051340,387599,344384
1063.92,0.050449,386688,344280
1067.61,0.049468,386598,344978
1071.29,0.049123,387377,345948
1074.96,0.048660,388536,347353
1078.63,0.047946,389855,349106
1082.3,0.047358,391215,350798
1085.96,0.046769,393215,353070
1090.84,0.045891,396270,356533
1094.49,0.045826,398760,358827
1098.14,0.045462,400987,361134
1101.79,0.044960,403477,363797
1105.43,0.044573,406116,366503
1109.06,0.044469,407701,368021
1112.7,0.044457,409859,369979
1117.53,0.044654,412494,372189
1121.15,0.045355,414909,373764
1124.77,0.045995,416559,374698
1128.38,0.046761,418532,375809
1131.99,0.048727,419956,375385
1135.6,0.050462,421946,375660
1139.2,0.052514,423881,375604
1143.99,0.055192,426786,375853
1147.58,0.055347,428617,377331
1151.17,0.056970,431169,378162
1154.75,0.058133,433579,379258
1158.33,0.059970,436264,379996
1161.91,0.061855,439132,380838
1165.48,0.064590,442389,381254
1169.04,0.067165,446101,382180
1173.79,0.071495,451929,383332
1177.34,0.073213,456026,385280
1180.9,0.075990,461306,387257
1184.44,0.077651,467657,391090
1187.99,0.078236,473969,395835
1191.52,0.077825,479856,401131
1195.06,0.077576,487372,407647
1199.76,0.076792,497347,416742
1203.29,0.075789,504311,423555
1206.81,0.075098,511507,430282
1210.33,0.074921,519078,436829
1213.84,0.073975,527163,444600
1217.35,0.072653,534208,451916
1220.85,0.071753,540472,458163
1225.51,0.071235,549929,466736
1229.01,0.070559,556888,473379
1232.5,0.070005,562180,478487
1235.98,0.069149,567975,484373
1239.46,0.067636,574815,491917
1242.94,0.067122,582782,499326
1246.41,0.066505,591476,507495
1251.03,0.066002,604016,518856
1254.5,0.066174,612289,525754
1257.96,0.066841,619125,530808
1261.41,0.067511,624551,534635
1264.86,0.068083,629900,538503
1268.31,0.068356,634345,541963
1271.75,0.069333,638574,544350
1276.33,0.069576,642499,547389
1279.76,0.069401,645905,550513
1283.19,0.069302,648307,552686
1286.61,0.068598,650446,555410
1290.03,0.068318,652132,557208
1293.44,0.068033,653907,559091
1296.85,0.067875,655963,561053
1301.39,0.067560,657349,562647
1304.8,0.067781,657558,562540
1308.19,0.068015,658515,563055
1311.58,0.068156,658804,563119
1314.97,0.068592,659011,562731
1318.36,0.069299,658272,561185
1321.73,0.069828,658022,560290
1326.23,0.070727,657870,559002
1329.6,0.071822,656482,556417
1332.97,0.072982,654926,553618
1336.33,0.074102,653727,551181
1339.69,0.075567,652497,548291
1343.04,0.077470,649913,543732
1346.39,0.079846,647671,538900
1349.73,0.082523,645338,533659
1354.18,0.085740,641175,526304
1357.52,0.087559,638376,521816
1360.85,0.089887,635805,516936
1364.17,0.092097,633413,512377
1367.49,0.094463,631026,507673
1370.81,0.097084,628050,502239
1374.12,0.099823,625034,496684
1378.54,0.103438,620272,488815
1381.84,0.106866,616892,482329
1385.14,0.110936,613613,475290
1388.43,0.115637,611526,468574
1391.72,0.120806,610663,462376
1395.01,0.126401,610634,456436
1398.29,0.132004,611700,451372
1402.66,0.139716,614051,445132
1405.93,0.146191,616268,440128
1409.2,0.151788,617795,435568
1412.46,0.157623,618872,430505
1415.72,0.162672,619795,426163
1418.98,0.166645,620495,422759
1422.23,0.171047,621087,418895
1426.56,0.175587,621375,414731
1429.8,0.178486,621616,412132
1433.04,0.181331,622129,409779
1436.27,0.183876,621526,406990
1439.5,0.186027,621113,404710
1442.72,0.188604,620921,402191
1445.94,0.190905,620270,399646
1450.23,0.194804,618860,395174
1453.44,0.197366,617697,392111
1456.64,0.200565,616264,388331
1459.85,0.203269,614413,384761
1463.04,0.205841,612307,381178
1466.24,0.209176,610032,376857
1469.43,0.212646,607345,372211
1473.67,0.217696,603789,365754
1476.85,0.222469,601175,360190
1480.02,0.229140,597737,352671
1483.19,0.234719,594479,346272
1486.36,0.240477,591232,339845
1489.52,0.244748,587853,334596
1492.68,0.248789,583875,329254
1496.89,0.250698,578062,324546
1500.03,0.251539,574159,321731
1503.18,0.251881,570285,319309
1506.32,0.250748,565444,317425
1509.45,0.249382,560571,315681
1512.58,0.247372,555821,314458
1515.71,0.245441,550344,312747
1519.87,0.242236,543983,311422
1522.99,0.239823,538764,310153
1526.1,0.237331,533692,309001
1529.21,0.234395,527902,307722
1532.32,0.231247,521886,306428
1535.42,0.228106,515888,305105
1538.51,0.225270,509987,303591
1541.6,0.221728,503936,302446
1545.72,0.217462,494694,299830
1548.8,0.214302,488378,298163
1551.88,0.211674,481832,295952
1554.95,0.208734,474989,293731
1558.02,0.207817,467818,289908
1561.08,0.206252,460730,286546
1564.15,0.205647,454170,282860
1568.22,0.204044,444181,277662
1571.27,0.203354,436947,273574
1574.32,0.202368,429598,269584
1577.36,0.201493,422039,265375
1580.4,0.199947,414375,261485
1583.43,0.197807,406354,257690
1586.46,0.195267,398475,254176
1590.49,0.194355,388982,248642
1593.51,0.192052,380708,244647
1596.53,0.189212,372727,241090
1599.54,0.187286,365060,237180
1602.55,0.184554,357543,233762
1605.55,0.183772,349495,228912
1608.55,0.180492,341154,225143
1612.54,0.178715,330877,219256
1615.53,0.175751,322904,215438
1618.51,0.175225,315116,210497
1621.49,0.173844,307217,205874
1624.47,0.172258,299481,201424
1627.44,0.172361,292112,196421
1630.41,0.169770,284245,192275
1634.36,0.169150,274079,185663
1637.32,0.167936,266916,181317
1640.27,0.167061,259612,176711
1643.22,0.165605,251804,171972
1646.16,0.165368,244348,166971
1649.1,0.165005,236703,161882
1652.04,0.161871,228171,157177
1655.95,0.162021,215408,148334
1658.88,0.158980,204937,142115
1661.8,0.154182,193395,135601
1664.72,0.150549,179728,127077
1667.63,0.140870,163642,118311
1670.54,0.132609,146312,107813
1673.44,0.120553,128451,97316
1677.31,0.110203,105080,81530
1680.21,0.102854,88906,70158
1683.1,0.103180,75033,59166
1685.99,0.112626,63520,49010
1688.87,0.115138,53714,41205
1691.75,0.119566,45653,34666
1694.62,0.126209,39137,29267
1697.49,0.129004,33776,25096
1701.31,0.144319,28175,20209