File: samples/wool/wool-000811/Column 1_050535_20150331_115238.csv
Method:,Column 1,,
Host Date-Time:,31/3/15 @ 11:52:38,,
Header Version:,1,,
System Temp (C):,31.23,,
Detector Temp (C):,30.19,,
Humidity (%):,3.9,,
Lamp PD:,3828,,
Shift Vector Coefficients:,-10.5391,0.0761263,-0.000134223,,
Pixel to Wavelength Coefficients:,1775.68,-0.916766,-0.000235065,,
Serial Number:,5510004,,
Scan Config Name:,Column 1,,
Scan Config Type:,Slew,,
Section 1,,
Start wavelength (nm):,900,,
End wavelength (nm):,1700,,
Pattern Pixel Width (nm):,   7.03,,,,
Exposure (ms):,  0.635,,,,
Digital Resolution:,228,,
Num Repeats:,6,,
PGA Gain:,64,,
Total Measurement Time in sec:,  2.662,,
Wavelength (nm),Absorbance (AU),Reference Signal (unitless),Sample Signal (unitless)
901.51,0.044529,108485,97913
905.376,0.049122,121306,108333
909.237,0.049255,131909,117766
913.095,0.051132,143299,127383
916.948,0.051086,156982,139561
922.079,0.050743,179937,160095
925.923,0.049887,200504,178746
929.762,0.051038,222660,197972
933.597,0.051662,244426,217013
937.427,0.051995,263972,234187
941.254,0.052204,281845,249923
945.076,0.052631,297271,263343
950.165,0.052880,315605,279424
953.978,0.052935,328029,290387
957.786,0.053569,340470,300961
961.59,0.053756,352317,311299
965.389,0.054499,363056,320239
969.185,0.054674,373162,329021
972.976,0.054577,382632,337446
976.763,0.056168,391202,343742
981.806,0.056744,400190,351174
985.583,0.057559,406088,355681
989.355,0.057943,410162,358932
993.124,0.058660,412868,360704
996.888,0.059119,414263,361541
1000.65,0.059917,415476,361934
1004.4,0.061077,415479,360971
1009.41,0.062538,414358,358788
1013.15,0.063269,412923,356944
1016.89,0.063648,411526,355426
1020.63,0.063383,409066,353517
1024.36,0.063369,406777,351550
1028.09,0.063337,404427,349545
1031.82,0.062581,401911,347976
1036.78,0.061559,398410,345757
1040.49,0.061930,396204,343549
1044.2,0.061277,394236,342357
1047.91,0.060212,392042,341288
1051.61,0.060087,389823,339454
1055.31,0.058478,388234,339325
1059,0.058147,387599,339028
1063.92,0.057089,386688,339056
1067.61,0.056183,386598,339685
1071.29,0.055270,387377,341086
1074.96,0.055455,388536,341961
1078.63,0.054041,389855,344241
1082.3,0.053651,391215,345752
1085.96,0.052492,393215,348448
1090.84,0.051524,396270,351939
1094.49,0.051298,398760,354335
1098.14,0.050856,400987,356676
1101.79,0.050690,403477,359028
1105.43,0.050368,406116,361645
1109.06,0.050232,407701,363170
1112.7,0.050549,409859,364826
1117.53,0.050385,412494,367310
1121.15,0.051017,414909,368923
1124.77,0.051711,416559,369799
1128.38,0.052953,418532,370489
1131.99,0.054966,419956,370031
1135.6,0.056729,421946,370278
1139.2,0.059083,423881,369965
1143.99,0.061646,426786,370309
1147.58,0.062453,428617,371207
1151.17,0.064536,431169,371631
1154.75,0.065602,433579,372792
1158.33,0.067509,436264,373457
1161.91,0.070481,439132,373348
1165.48,0.072980,442389,373959
1169.04,0.076103,446101,374395
1173.79,0.080625,451929,375358
1177.34,0.083452,456026,376303
1180.9,0.085963,461306,378465
1184.44,0.087655,467657,382184
1187.99,0.088018,473969,387019
1191.52,0.088533,479856,391361
1195.06,0.086786,487372,399093
1199.76,0.086110,497347,407896
1203.29,0.084528,504311,415117
1206.81,0.082942,511507,422581
1210.33,0.082179,519078,429589
1213.84,0.081443,527163,437021
1217.35,0.079909,534208,444428
1220.85,0.078615,540472,450981
1225.51,0.077351,549929,460210
1229.01,0.076896,556888,466522
1232.5,0.076011,562180,471916
1235.98,0.075110,567975,477770
1239.46,0.074071,574815,484682
1242.94,0.072901,582782,492726
1246.41,0.071805,591476,501340
1251.03,0.071708,604016,512083
1254.5,0.071704,612289,519102
1257.96,0.072003,619125,524536
1261.41,0.072524,624551,528499
1264.86,0.073124,629900,532289
1268.31,0.073869,634345,535127
1271.75,0.074804,638574,537536
1276.33,0.074636,642499,541049
1279.76,0.075069,645905,543375
1283.19,0.074318,648307,546340
1286.61,0.074197,650446,548295
1290.03,0.073402,652132,550724
1293.44,0.073070,653907,552645
1296.85,0.072885,655963,554618
1301.39,0.072775,657349,555931
1304.8,0.072712,657558,556188
1308.19,0.072844,658515,556829
1311.58,0.073141,658804,556692
1314.97,0.073724,659011,556120
1318.36,0.074594,658272,554385
1321.73,0.074795,658022,553918
1326.23,0.075978,657870,552283
1329.6,0.077229,656482,549533
1332.97,0.078372,654926,546789
1336.33,0.079785,653727,544016
1339.69,0.081792,652497,540488
1343.04,0.083678,649913,536015
1346.39,0.085944,647671,531387
1349.73,0.088810,645338,525990
1354.18,0.092302,641175,518411
1357.52,0.094463,638376,513586
1360.85,0.097055,635805,508474
1364.17,0.099294,633413,503956
1367.49,0.102136,631026,498783
1370.81,0.104983,628050,493187
1374.12,0.107713,625034,487742
1378.54,0.112151,620272,479105
1381.84,0.115939,616892,472357
1385.14,0.121014,613613,464387
1388.43,0.126324,611526,457184
1391.72,0.132133,610663,450473
1395.01,0.137756,610634,444657
1398.29,0.144506,611700,438564
1402.66,0.153549,614051,431177
1405.93,0.160848,616268,425522
1409.2,0.167828,617795,419775
1412.46,0.173653,618872,414904
1415.72,0.179431,619795,410031
1418.98,0.184325,620495,405895
1422.23,0.188517,621087,402379
1426.56,0.193943,621375,397567
1429.8,0.196311,621616,395559
1433.04,0.200001,622129,392536
1436.27,0.202183,621526,390190
1439.5,0.204937,621113,387466
1442.72,0.207875,620921,384735
1445.94,0.209956,620270,382494
1450.23,0.213528,618860,378499
1453.44,0.216880,617697,374883
1456.64,0.219799,616264,371508
1459.85,0.222114,614413,368423
1463.04,0.224469,612307,365174
1466.24,0.227800,610032,361038
1469.43,0.230288,607345,357394
1473.67,0.235369,603789,351169
1476.85,0.240396,601175,345625
1480.02,0.245262,597737,339819
1483.19,0.251425,594479,333205
1486.36,0.257034,591232,327133
1489.52,0.262020,587853,321550
1492.68,0.265932,583875,316510
1496.89,0.268684,578062,311380
1500.03,0.269110,574159,308974
1503.18,0.268945,570285,307006
1506.32,0.268473,565444,304731
1509.45,0.267571,560571,302733
1512.58,0.266221,555821,301102
1515.71,0.263874,550344,299751
1519.87,0.260763,543983,298416
1522.99,0.258388,538764,297174
1526.1,0.255131,533692,296592
1529.21,0.252258,527902,295322
1532.32,0.248501,521886,294493
1535.42,0.245768,515888,292946
1538.51,0.242763,509987,291606
1541.6,0.239428,503936,290367
1545.72,0.234209,494694,288488
1548.8,0.231368,488378,286674
1551.88,0.228171,481832,284921
1554.95,0.226421,474989,282009
1558.02,0.223837,467818,279409
1561.08,0.222849,460730,275802
1564.15,0.221425,454170,272768
1568.22,0.220946,444181,267063
1571.27,0.219900,436947,263347
1574.32,0.218707,429598,259630
1577.36,0.217715,422039,255645
1580.4,0.215593,414375,252232
1583.43,0.213316,406354,248650
1586.46,0.211240,398475,244997
1590.49,0.209317,388982,240222
1593.51,0.206320,380708,236740
1596.53,0.204486,372727,232758
1599.54,0.202167,365060,229191
1602.55,0.199602,357543,225801
1605.55,0.197149,349495,221969
1608.55,0.195381,341154,217555
1612.54,0.192979,330877,212172
1615.53,0.190505,322904,208242
1618.51,0.188606,315116,204110
1621.49,0.187128,307217,199672
1624.47,0.185760,299481,195258
1627.44,0.183365,292112,191507
1630.41,0.181477,284245,187161
1634.36,0.180449,274079,180895
1637.32,0.179871,266916,176402
1640.27,0.179195,259612,171842
1643.22,0.178110,251804,167091
1646.16,0.178073,244348,162157
1649.1,0.176923,236703,157500
1652.04,0.175452,228171,152338
1655.95,0.173818,215408,144359
1658.88,0.173179,204937,137544
1661.8,0.171938,193395,130169
1664.72,0.169686,179728,121599
1667.63,0.167685,163642,111227
1670.54,0.164568,146312,100164
1673.44,0.161446,128451,88571
1677.31,0.159436,105080,72792
1680.21,0.158794,88906,61679
1683.1,0.160319,75033,51872
1685.99,0.170413,63520,42904
1688.87,0.174957,53714,35903
1691.75,0.173720,45653,30602
1694.62,0.185350,39137,25541
1697.49,0.182138,33776,22206
1701.31,0.198518,28175,17838