File: samples/wool/wool-000811/Column 1_050542_20150331_115558.csv
Method:,Column 1,,
Host Date-Time:,31/3/15 @ 11:55:58,,
Header Version:,1,,
System Temp (C):,32.49,,
Detector Temp (C):,30.83,,
Humidity (%):,2.83,,
Lamp PD:,3824,,
Shift Vector Coefficients:,-10.5391,0.0761263,-0.000134223,,
Pixel to Wavelength Coefficients:,1775.68,-0.916766,-0.000235065,,
Serial Number:,5510004,,
Scan Config Name:,Column 1,,
Scan Config Type:,Slew,,
Section 1,,
Start wavelength (nm):,900,,
End wavelength (nm):,1700,,
Pattern Pixel Width (nm):,   7.03,,,,
Exposure (ms):,  0.635,,,,
Digital Resolution:,228,,
Num Repeats:,6,,
PGA Gain:,64,,
Total Measurement Time in sec:,  2.667,,
Wavelength (nm),Absorbance (AU),Reference Signal (unitless),Sample Signal (unitless)
901.51,0.044951,108485,97818
905.376,0.051396,121306,107767
909.237,0.052564,131909,116872
913.095,0.051811,143299,127184
916.948,0.053955,156982,138642
922.079,0.052733,179937,159363
925.923,0.053270,200504,177359
929.762,0.053169,222660,197003
933.597,0.054024,244426,215836
937.427,0.053686,263972,233277
941.254,0.054132,281845,248816
945.076,0.054396,297271,262275
950.165,0.054231,315605,278556
953.978,0.054376,328029,289425
957.786,0.053814,340470,300791
961.59,0.055317,352317,310182
965.389,0.054514,363056,320228
969.185,0.055525,373162,328377
972.976,0.056138,382632,336235
976.763,0.057248,391202,342889
981.806,0.057202,400190,350804
985.583,0.057335,406088,355865
989.355,0.057906,410162,358963
993.124,0.058910,412868,360497
996.888,0.059284,414263,361403
1000.65,0.060399,415476,361532
1004.4,0.061336,415479,360756
1009.41,0.062509,414358,358812
1013.15,0.063194,412923,357006
1016.89,0.063437,411526,355599
1020.63,0.063512,409066,353412
1024.36,0.063740,406777,351250
1028.09,0.063637,404427,349304
1031.82,0.063179,401911,347497
1036.78,0.061983,398410,345420
1040.49,0.061340,396204,344016
1044.2,0.061176,394236,342437
1047.91,0.060759,392042,340858
1051.61,0.059781,389823,339693
1055.31,0.059167,388234,338787
1059,0.058111,387599,339056
1063.92,0.057083,386688,339061
1067.61,0.056504,386598,339434
1071.29,0.055610,387377,340819
1074.96,0.055342,388536,342050
1078.63,0.054810,389855,343632
1082.3,0.053876,391215,345573
1085.96,0.053051,393215,348000
1090.84,0.052290,396270,351319
1094.49,0.051841,398760,353892
1098.14,0.050865,400987,356669
1101.79,0.051109,403477,358682
1105.43,0.050880,406116,361219
1109.06,0.050477,407701,362965
1112.7,0.049735,409859,365510
1117.53,0.050476,412494,367233
1121.15,0.051289,414909,368692
1124.77,0.051672,416559,369832
1128.38,0.053481,418532,370039
1131.99,0.054638,419956,370310
1135.6,0.057175,421946,369898
1139.2,0.058993,423881,370042
1143.99,0.061861,426786,370126
1147.58,0.062873,428617,370848
1151.17,0.064551,431169,371618
1154.75,0.065583,433579,372808
1158.33,0.067418,436264,373535
1161.91,0.070210,439132,373581
1165.48,0.073052,442389,373897
1169.04,0.075932,446101,374543
1173.79,0.080471,451929,375491
1177.34,0.082719,456026,376939
1180.9,0.085638,461306,378749
1184.44,0.087511,467657,382311
1187.99,0.088851,473969,386277
1191.52,0.088059,479856,391789
1195.06,0.087504,487372,398434
1199.76,0.085623,497347,408354
1203.29,0.084179,504311,415451
1206.81,0.083388,511507,422147
1210.33,0.082348,519078,429422
1213.84,0.081285,527163,437180
1217.35,0.079886,534208,444452
1220.85,0.078866,540472,450720
1225.51,0.077832,549929,459700
1229.01,0.077164,556888,466234
1232.5,0.075807,562180,472137
1235.98,0.075172,567975,477702
1239.46,0.073794,574815,484992
1242.94,0.072437,582782,493252
1246.41,0.072044,591476,501064
1251.03,0.071861,604016,511903
1254.5,0.071695,612289,519113
1257.96,0.072000,619125,524540
1261.41,0.072652,624551,528343
1264.86,0.073415,629900,531933
1268.31,0.073719,634345,535311
1271.75,0.074693,638574,537673
1276.33,0.074728,642499,540934
1279.76,0.074526,645905,544055
1283.19,0.074431,648307,546197
1286.61,0.074015,650446,548525
1290.03,0.073584,652132,550492
1293.44,0.072779,653907,553015
1296.85,0.072871,655963,554636
1301.39,0.072417,657349,556390
1304.8,0.072157,657558,556900
1308.19,0.072499,658515,557271
1311.58,0.073204,658804,556611
1314.97,0.073650,659011,556215
1318.36,0.073961,658272,555194
1321.73,0.074445,658022,554364
1326.23,0.075743,657870,552583
1329.6,0.076491,656482,550468
1332.97,0.077718,654926,547613
1336.33,0.079127,653727,544841
1339.69,0.080885,652497,541619
1343.04,0.083089,649913,536743
1346.39,0.085524,647671,531901
1349.73,0.088179,645338,526755
1354.18,0.091442,641175,519439
1357.52,0.093872,638376,514286
1360.85,0.096197,635805,509480
1364.17,0.098788,633413,504544
1367.49,0.101430,631026,499594
1370.81,0.104222,628050,494051
1374.12,0.106970,625034,488578
1378.54,0.111229,620272,480124
1381.84,0.114970,616892,473412
1385.14,0.119776,613613,465713
1388.43,0.124765,611526,458828
1391.72,0.130038,610663,452651
1395.01,0.136226,610634,446226
1398.29,0.142016,611700,441085
1402.66,0.150881,614051,433834
1405.93,0.157575,616268,428741
1409.2,0.163913,617795,423576
1412.46,0.170097,618872,418315
1415.72,0.175209,619795,414037
1418.98,0.179816,620495,410131
1422.23,0.184422,621087,406191
1426.56,0.188427,621375,402649
1429.8,0.191624,621616,399851
1433.04,0.195092,622129,396998
1436.27,0.197381,621526,394528
1439.5,0.199679,621113,392186
1442.72,0.202403,620921,389613
1445.94,0.204343,620270,387470
1450.23,0.208571,618860,382844
1453.44,0.211624,617697,379447
1456.64,0.214617,616264,375967
1459.85,0.216775,614413,372980
1463.04,0.220054,612307,368906
1466.24,0.223229,610032,364858
1469.43,0.226368,607345,360635
1473.67,0.231396,603789,354396
1476.85,0.236459,601175,348772
1480.02,0.242165,597737,342251
1483.19,0.248073,594479,335787
1486.36,0.254573,591232,328992
1489.52,0.259378,587853,323512
1492.68,0.262776,583875,318819
1496.89,0.266183,578062,313178
1500.03,0.266284,574159,310991
1503.18,0.266837,570285,308500
1506.32,0.266435,565444,306164
1509.45,0.265587,560571,304119
1512.58,0.264098,555821,302578
1515.71,0.262065,550344,301002
1519.87,0.258636,543983,299881
1522.99,0.255974,538764,298830
1526.1,0.252739,533692,298230
1529.21,0.250144,527902,296763
1532.32,0.246973,521886,295531
1535.42,0.243848,515888,294244
1538.51,0.239976,509987,293483
1541.6,0.237298,503936,291795
1545.72,0.232205,494694,289822
1548.8,0.228803,488378,288372
1551.88,0.226218,481832,286205
1554.95,0.223373,474989,283995
1558.02,0.221460,467818,280942
1561.08,0.220609,460730,277228
1564.15,0.219944,454170,273700
1568.22,0.218273,444181,268712
1571.27,0.217680,436947,264697
1574.32,0.216305,429598,261070
1577.36,0.215104,422039,257187
1580.4,0.213376,414375,253523
1583.43,0.212536,406354,249097
1586.46,0.209270,398475,246111
1590.49,0.206903,388982,241561
1593.51,0.204894,380708,237519
1596.53,0.202723,372727,233705
1599.54,0.199844,365060,230420
1602.55,0.196752,357543,227288
1605.55,0.195426,349495,222851
1608.55,0.192869,341154,218817
1612.54,0.190800,330877,213239
1615.53,0.188364,322904,209271
1618.51,0.187051,315116,204842
1621.49,0.185602,307217,200375
1624.47,0.184060,299481,196024
1627.44,0.182364,292112,191949
1630.41,0.181652,284245,187086
1634.36,0.178980,274079,181508
1637.32,0.177830,266916,177233
1640.27,0.177611,259612,172470
1643.22,0.176923,251804,167548
1646.16,0.174568,244348,163471
1649.1,0.173567,236703,158722
1652.04,0.173328,228171,153085
1655.95,0.173947,215408,144316
1658.88,0.170133,204937,138512
1661.8,0.168382,193395,131239
1664.72,0.164188,179728,123148
1667.63,0.158998,163642,113474
1670.54,0.153980,146312,102636
1673.44,0.148409,128451,91270
1677.31,0.141313,105080,75894
1680.21,0.139951,88906,64414
1683.1,0.143889,75033,53872
1685.99,0.146372,63520,45346
1688.87,0.157483,53714,37377
1691.75,0.160924,45653,31517
1694.62,0.164663,39137,26787
1697.49,0.164620,33776,23120
1701.31,0.177280,28175,18732