File: samples/wool/wool-000811/Column 1_050544_20150331_115715.csv
Method:,Column 1,,
Host Date-Time:,31/3/15 @ 11:57:15,,
Header Version:,1,,
System Temp (C):,32.79,,
Detector Temp (C):,31.32,,
Humidity (%):,2.54,,
Lamp PD:,3823,,
Shift Vector Coefficients:,-10.5391,0.0761263,-0.000134223,,
Pixel to Wavelength Coefficients:,1775.68,-0.916766,-0.000235065,,
Serial Number:,5510004,,
Scan Config Name:,Column 1,,
Scan Config Type:,Slew,,
Section 1,,
Start wavelength (nm):,900,,
End wavelength (nm):,1700,,
Pattern Pixel Width (nm):,   7.03,,,,
Exposure (ms):,  0.635,,,,
Digital Resolution:,228,,
Num Repeats:,6,,
PGA Gain:,64,,
Total Measurement Time in sec:,  2.680,,
Wavelength (nm),Absorbance (AU),Reference Signal (unitless),Sample Signal (unitless)
901.51,0.042754,108485,98314
905.376,0.049868,121306,108147
909.237,0.052564,131909,116872
913.095,0.052125,143299,127092
916.948,0.052813,156982,139007
922.079,0.052676,179937,159384
925.923,0.052895,200504,177512
929.762,0.054565,222660,196371
933.597,0.055305,244426,215200
937.427,0.054549,263972,232814
941.254,0.054506,281845,248602
945.076,0.054364,297271,262294
950.165,0.053807,315605,278828
953.978,0.054070,328029,289629
957.786,0.054756,340470,300139
961.59,0.054662,352317,310650
965.389,0.054376,363056,320330
969.185,0.055061,373162,328728
972.976,0.055426,382632,336787
976.763,0.056768,391202,343268
981.806,0.056589,400190,351299
985.583,0.058241,406088,355123
989.355,0.058776,410162,358244
993.124,0.058929,412868,360481
996.888,0.059668,414263,361084
1000.65,0.060662,415476,361313
1004.4,0.061374,415479,360724
1009.41,0.062911,414358,358480
1013.15,0.063125,412923,357062
1016.89,0.063841,411526,355268
1020.63,0.063875,409066,353117
1024.36,0.063673,406777,351304
1028.09,0.063115,404427,349724
1031.82,0.062936,401911,347691
1036.78,0.062225,398410,345227
1040.49,0.061336,396204,344019
1044.2,0.061933,394236,341840
1047.91,0.060462,392042,341091
1051.61,0.059726,389823,339736
1055.31,0.059168,388234,338786
1059,0.058783,387599,338532
1063.92,0.057973,386688,338367
1067.61,0.056062,386598,339780
1071.29,0.056474,387377,340142
1074.96,0.054717,388536,342542
1078.63,0.054376,389855,343975
1082.3,0.053701,391215,345712
1085.96,0.052900,393215,348121
1090.84,0.051825,396270,351695
1094.49,0.050973,398760,354600
1098.14,0.051340,400987,356279
1101.79,0.051452,403477,358399
1105.43,0.051091,406116,361043
1109.06,0.050877,407701,362631
1112.7,0.050712,409859,364689
1117.53,0.050404,412494,367294
1121.15,0.051566,414909,368457
1124.77,0.051625,416559,369872
1128.38,0.052932,418532,370507
1131.99,0.055072,419956,369940
1135.6,0.057436,421946,369676
1139.2,0.059238,423881,369833
1143.99,0.061930,426786,370067
1147.58,0.063137,428617,370623
1151.17,0.064463,431169,371693
1154.75,0.066155,433579,372317
1158.33,0.068120,436264,372932
1161.91,0.070528,439132,373308
1165.48,0.072923,442389,374008
1169.04,0.076225,446101,374290
1173.79,0.080423,451929,375532
1177.34,0.083189,456026,376531
1180.9,0.085735,461306,378664
1184.44,0.086965,467657,382792
1187.99,0.088297,473969,386770
1191.52,0.087516,479856,392279
1195.06,0.087657,487372,398294
1199.76,0.086115,497347,407891
1203.29,0.084335,504311,415301
1206.81,0.083597,511507,421944
1210.33,0.082127,519078,429641
1213.84,0.082363,527163,436096
1217.35,0.079972,534208,444363
1220.85,0.078867,540472,450719
1225.51,0.077369,549929,460191
1229.01,0.077004,556888,466406
1232.5,0.075860,562180,472080
1235.98,0.075409,567975,477442
1239.46,0.074589,574815,484104
1242.94,0.072679,582782,492977
1246.41,0.071989,591476,501127
1251.03,0.071488,604016,512343
1254.5,0.071679,612289,519132
1257.96,0.072107,619125,524411
1261.41,0.072556,624551,528460
1264.86,0.073410,629900,531939
1268.31,0.073742,634345,535283
1271.75,0.074842,638574,537488
1276.33,0.074999,642499,540597
1279.76,0.074960,645905,543512
1283.19,0.074145,648307,546557
1286.61,0.073735,650446,548879
1290.03,0.073641,652132,550420
1293.44,0.072937,653907,552814
1296.85,0.072722,655963,554827
1301.39,0.072656,657349,556083
1304.8,0.072307,657558,556707
1308.19,0.072658,658515,557067
1311.58,0.073006,658804,556865
1314.97,0.073303,659011,556659
1318.36,0.074004,658272,555138
1321.73,0.074336,658022,554504
1326.23,0.075284,657870,553167
1329.6,0.076855,656482,550007
1332.97,0.077669,654926,547676
1336.33,0.078978,653727,545027
1339.69,0.080853,652497,541659
1343.04,0.082503,649913,537467
1346.39,0.085152,647671,532356
1349.73,0.087638,645338,527411
1354.18,0.091066,641175,519889
1357.52,0.093287,638376,514979
1360.85,0.095928,635805,509796
1364.17,0.098222,633413,505202
1367.49,0.101072,631026,500006
1370.81,0.104190,628050,494088
1374.12,0.106442,625034,489172
1378.54,0.110713,620272,480694
1381.84,0.114429,616892,474002
1385.14,0.118567,613613,467011
1388.43,0.123927,611526,459714
1391.72,0.129471,610663,453243
1395.01,0.134678,610634,447819
1398.29,0.141368,611700,441744
1402.66,0.149781,614051,434934
1405.93,0.155933,616268,430365
1409.2,0.162697,617795,424764
1412.46,0.168492,618872,419864
1415.72,0.173270,619795,415890
1418.98,0.178416,620495,411455
1422.23,0.182235,621087,408242
1426.56,0.186761,621375,404197
1429.8,0.189593,621616,401725
1433.04,0.192909,622129,398999
1436.27,0.195168,621526,396544
1439.5,0.197425,621113,394226
1442.72,0.199944,620921,391825
1445.94,0.202620,620270,389010
1450.23,0.206182,618860,384955
1453.44,0.209140,617697,381624
1456.64,0.212064,616264,378184
1459.85,0.215070,614413,374447
1463.04,0.217311,612307,371243
1466.24,0.220620,610032,367056
1469.43,0.223651,607345,362898
1473.67,0.229557,603789,355900
1476.85,0.234380,601175,350446
1480.02,0.240697,597737,343410
1483.19,0.247033,594479,336592
1486.36,0.252755,591232,330372
1489.52,0.258341,587853,324286
1492.68,0.260894,583875,320203
1496.89,0.264254,578062,314572
1500.03,0.265963,574159,311221
1503.18,0.265628,570285,309360
1506.32,0.265714,565444,306673
1509.45,0.264197,560571,305094
1512.58,0.262237,555821,303877
1515.71,0.260633,550344,301996
1519.87,0.257095,543983,300947
1522.99,0.254286,538764,299994
1526.1,0.251775,533692,298893
1529.21,0.248664,527902,297776
1532.32,0.245611,521886,296459
1535.42,0.241767,515888,295657
1538.51,0.239234,509987,293985
1541.6,0.235717,503936,292859
1545.72,0.230568,494694,290917
1548.8,0.227411,488378,289298
1551.88,0.224359,481832,287433
1554.95,0.222249,474989,284731
1558.02,0.219916,467818,281943
1561.08,0.219083,460730,278204
1564.15,0.218682,454170,274496
1568.22,0.216045,444181,270094
1571.27,0.216081,436947,265673
1574.32,0.215076,429598,261810
1577.36,0.213104,422039,258374
1580.4,0.211520,414375,254609
1583.43,0.210239,406354,250418
1586.46,0.207936,398475,246868
1590.49,0.205671,388982,242247
1593.51,0.203606,380708,238224
1596.53,0.200626,372727,234836
1599.54,0.199287,365060,230716
1602.55,0.195944,357543,227711
1605.55,0.193860,349495,223656
1608.55,0.191696,341154,219409
1612.54,0.188963,330877,214143
1615.53,0.186616,322904,210115
1618.51,0.185171,315116,205731
1621.49,0.183246,307217,201465
1624.47,0.181650,299481,197115
1627.44,0.181069,292112,192522
1630.41,0.179022,284245,188222
1634.36,0.177656,274079,182062
1637.32,0.176423,266916,177808
1640.27,0.175647,259612,173252
1643.22,0.173556,251804,168852
1646.16,0.173584,244348,163842
1649.1,0.172809,236703,158999
1652.04,0.171448,228171,153749
1655.95,0.168957,215408,145984
1658.88,0.167947,204937,139211
1661.8,0.165299,193395,132174
1664.72,0.161664,179728,123866
1667.63,0.154687,163642,114606
1670.54,0.148038,146312,104050
1673.44,0.141901,128451,92648
1677.31,0.132560,105080,77439
1680.21,0.130230,88906,65872
1683.1,0.132284,75033,55331
1685.99,0.141590,63520,45848
1688.87,0.142466,53714,38692
1691.75,0.146372,45653,32591
1694.62,0.149215,39137,27757
1697.49,0.152670,33776,23765
1701.31,0.155067,28175,19715