File: samples/wool/wool-000811/Column 1_050545_20150331_115737.csv
Method:,Column 1,,
Host Date-Time:,31/3/15 @ 11:57:37,,
Header Version:,1,,
System Temp (C):,32.89,,
Detector Temp (C):,31.4,,
Humidity (%):,2.54,,
Lamp PD:,3823,,
Shift Vector Coefficients:,-10.5391,0.0761263,-0.000134223,,
Pixel to Wavelength Coefficients:,1775.68,-0.916766,-0.000235065,,
Serial Number:,5510004,,
Scan Config Name:,Column 1,,
Scan Config Type:,Slew,,
Section 1,,
Start wavelength (nm):,900,,
End wavelength (nm):,1700,,
Pattern Pixel Width (nm):,   7.03,,,,
Exposure (ms):,  0.635,,,,
Digital Resolution:,228,,
Num Repeats:,6,,
PGA Gain:,64,,
Total Measurement Time in sec:,  2.694,,
Wavelength (nm),Absorbance (AU),Reference Signal (unitless),Sample Signal (unitless)
901.51,0.044206,108485,97986
905.376,0.052583,121306,107473
909.237,0.053721,131909,116561
913.095,0.053885,143299,126578
916.948,0.054325,156982,138524
922.079,0.055004,179937,158532
925.923,0.054199,200504,176980
929.762,0.055559,222660,195922
933.597,0.055656,244426,215026
937.427,0.055159,263972,232487
941.254,0.056077,281845,247704
945.076,0.055428,297271,261652
950.165,0.055576,315605,277695
953.978,0.054573,328029,289294
957.786,0.055476,340470,299642
961.59,0.055458,352317,310081
965.389,0.055530,363056,319480
969.185,0.055882,373162,328107
972.976,0.056381,382632,336047
976.763,0.057099,391202,343006
981.806,0.058003,400190,350157
985.583,0.058446,406088,354956
989.355,0.059260,410162,357845
993.124,0.060028,412868,359570
996.888,0.059988,414263,360818
1000.65,0.060620,415476,361348
1004.4,0.062659,415479,359658
1009.41,0.063576,414358,357931
1013.15,0.064153,412923,356218
1016.89,0.064945,411526,354366
1020.63,0.063826,409066,353157
1024.36,0.064443,406777,350682
1028.09,0.064062,404427,348962
1031.82,0.063948,401911,346882
1036.78,0.062791,398410,344778
1040.49,0.062384,396204,343190
1044.2,0.061770,394236,341969
1047.91,0.061615,392042,340187
1051.61,0.061007,389823,338735
1055.31,0.059875,388234,338235
1059,0.059034,387599,338336
1063.92,0.057796,386688,338505
1067.61,0.057084,386598,338981
1071.29,0.056271,387377,340301
1074.96,0.055559,388536,341879
1078.63,0.056145,389855,342577
1082.3,0.053867,391215,345580
1085.96,0.053413,393215,347710
1090.84,0.052456,396270,351184
1094.49,0.052636,398760,353245
1098.14,0.051084,400987,356489
1101.79,0.050939,403477,358823
1105.43,0.051562,406116,360652
1109.06,0.050508,407701,362939
1112.7,0.050948,409859,364491
1117.53,0.050379,412494,367315
1121.15,0.051421,414909,368580
1124.77,0.052029,416559,369528
1128.38,0.054272,418532,369366
1131.99,0.055258,419956,369782
1135.6,0.057764,421946,369397
1139.2,0.059277,423881,369800
1143.99,0.062267,426786,369780
1147.58,0.063451,428617,370355
1151.17,0.065055,431169,371187
1154.75,0.066162,433579,372311
1158.33,0.068241,436264,372828
1161.91,0.070089,439132,373685
1165.48,0.073470,442389,373538
1169.04,0.076313,446101,374214
1173.79,0.081314,451929,374763
1177.34,0.083601,456026,376174
1180.9,0.085828,461306,378583
1184.44,0.088035,467657,381850
1187.99,0.088704,473969,386408
1191.52,0.088097,479856,391754
1195.06,0.087720,487372,398236
1199.76,0.086563,497347,407471
1203.29,0.085245,504311,414432
1206.81,0.083371,511507,422163
1210.33,0.082670,519078,429104
1213.84,0.081137,527163,437329
1217.35,0.080334,534208,443993
1220.85,0.078815,540472,450773
1225.51,0.078152,549929,459362
1229.01,0.077225,556888,466168
1232.5,0.075825,562180,472118
1235.98,0.075494,567975,477348
1239.46,0.074353,574815,484368
1242.94,0.073118,582782,492479
1246.41,0.072484,591476,500556
1251.03,0.071807,604016,511966
1254.5,0.072214,612289,518493
1257.96,0.072473,619125,523969
1261.41,0.073188,624551,527691
1264.86,0.073774,629900,531493
1268.31,0.074317,634345,534575
1271.75,0.074661,638574,537713
1276.33,0.074691,642499,540980
1279.76,0.075146,645905,543279
1283.19,0.074613,648307,545969
1286.61,0.073924,650446,548640
1290.03,0.073600,652132,550472
1293.44,0.073104,653907,552601
1296.85,0.073207,655963,554208
1301.39,0.072528,657349,556247
1304.8,0.072769,657558,556115
1308.19,0.073154,658515,556432
1311.58,0.073147,658804,556684
1314.97,0.073930,659011,555856
1318.36,0.074191,658272,554900
1321.73,0.074989,658022,553671
1326.23,0.075948,657870,552322
1329.6,0.076568,656482,550370
1332.97,0.077747,654926,547577
1336.33,0.079571,653727,544284
1339.69,0.081112,652497,541335
1343.04,0.082735,649913,537180
1346.39,0.085320,647671,532151
1349.73,0.087865,645338,527136
1354.18,0.091504,641175,519365
1357.52,0.093633,638376,514569
1360.85,0.096403,635805,509238
1364.17,0.098665,633413,504687
1367.49,0.101727,631026,499252
1370.81,0.104061,628050,494235
1374.12,0.106996,625034,488549
1378.54,0.110220,620272,481241
1381.84,0.114754,616892,473647
1385.14,0.118751,613613,466814
1388.43,0.124327,611526,459291
1391.72,0.130156,610663,452528
1395.01,0.135772,610634,446693
1398.29,0.141205,611700,441910
1402.66,0.149574,614051,435141
1405.93,0.156389,616268,429913
1409.2,0.162071,617795,425376
1412.46,0.168743,618872,419622
1415.72,0.173655,619795,415521
1418.98,0.177881,620495,411962
1422.23,0.182225,621087,408251
1426.56,0.186920,621375,404049
1429.8,0.189886,621616,401454
1433.04,0.192947,622129,398964
1436.27,0.195153,621526,396558
1439.5,0.197429,621113,394223
1442.72,0.200123,620921,391664
1445.94,0.202916,620270,388745
1450.23,0.206331,618860,384823
1453.44,0.209188,617697,381582
1456.64,0.211841,616264,378378
1459.85,0.214806,614413,374675
1463.04,0.217861,612307,370773
1466.24,0.220965,610032,366765
1469.43,0.224413,607345,362262
1473.67,0.229611,603789,355856
1476.85,0.235357,601175,349658
1480.02,0.240839,597737,343298
1483.19,0.247473,594479,336251
1486.36,0.253281,591232,329972
1489.52,0.258479,587853,324183
1492.68,0.262101,583875,319315
1496.89,0.264600,578062,314322
1500.03,0.266168,574159,311074
1503.18,0.266666,570285,308621
1506.32,0.265795,565444,306616
1509.45,0.264526,560571,304863
1512.58,0.263277,555821,303150
1515.71,0.260971,550344,301761
1519.87,0.258221,543983,300168
1522.99,0.254942,538764,299541
1526.1,0.251676,533692,298961
1529.21,0.248947,527902,297582
1532.32,0.245621,521886,296452
1535.42,0.242610,515888,295084
1538.51,0.239277,509987,293956
1541.6,0.234825,503936,293461
1545.72,0.230875,494694,290711
1548.8,0.227303,488378,289370
1551.88,0.225297,481832,286813
1554.95,0.222913,474989,284296
1558.02,0.220543,467818,281536
1561.08,0.218872,460730,278339
1564.15,0.219338,454170,274082
1568.22,0.217345,444181,269287
1571.27,0.216891,436947,265178
1574.32,0.215333,429598,261655
1577.36,0.213630,422039,258061
1580.4,0.212627,414375,253961
1583.43,0.210326,406354,250368
1586.46,0.210511,398475,245409
1590.49,0.206550,388982,241757
1593.51,0.203778,380708,238130
1596.53,0.201717,372727,234247
1599.54,0.199315,365060,230701
1602.55,0.197004,357543,227156
1605.55,0.194173,349495,223495
1608.55,0.192949,341154,218777
1612.54,0.188642,330877,214301
1615.53,0.186463,322904,210189
1618.51,0.185287,315116,205676
1621.49,0.183612,307217,201295
1624.47,0.182784,299481,196601
1627.44,0.181746,292112,192222
1630.41,0.178762,284245,188335
1634.36,0.178946,274079,181522
1637.32,0.176702,266916,177694
1640.27,0.176766,259612,172806
1643.22,0.174522,251804,168477
1646.16,0.173867,244348,163735
1649.1,0.173958,236703,158579
1652.04,0.171643,228171,153680
1655.95,0.170500,215408,145466
1658.88,0.167345,204937,139404
1661.8,0.166408,193395,131837
1664.72,0.161338,179728,123959
1667.63,0.154979,163642,114529
1670.54,0.149468,146312,103708
1673.44,0.140283,128451,92994
1677.31,0.132880,105080,77382
1680.21,0.128211,88906,66179
1683.1,0.127949,75033,55886
1685.99,0.136552,63520,46383
1688.87,0.138811,53714,39019
1691.75,0.144271,45653,32749
1694.62,0.143943,39137,28096
1697.49,0.150010,33776,23911
1701.31,0.159963,28175,19494