File: samples/wool/wool-000811/Column 1_050531_20150331_115039.csv
Method:,Column 1,,
Host Date-Time:,31/3/15 @ 11:50:39,,
Header Version:,1,,
System Temp (C):,29.95,,
Detector Temp (C):,31.76,,
Humidity (%):,5.06,,
Lamp PD:,3834,,
Shift Vector Coefficients:,-10.5391,0.0761263,-0.000134223,,
Pixel to Wavelength Coefficients:,1775.68,-0.916766,-0.000235065,,
Serial Number:,5510004,,
Scan Config Name:,Column 1,,
Scan Config Type:,Slew,,
Section 1,,
Start wavelength (nm):,900,,
End wavelength (nm):,1700,,
Pattern Pixel Width (nm):,   7.03,,,,
Exposure (ms):,  0.635,,,,
Digital Resolution:,228,,
Num Repeats:,6,,
PGA Gain:,64,,
Total Measurement Time in sec:,  2.680,,
Wavelength (nm),Absorbance (AU),Reference Signal (unitless),Sample Signal (unitless)
901.51,0.045769,108485,97634
905.376,0.050994,121306,107867
909.237,0.052917,131909,116777
913.095,0.053473,143299,126698
916.948,0.054297,156982,138533
922.079,0.052744,179937,159359
925.923,0.054400,200504,176898
929.762,0.054585,222660,196362
933.597,0.054898,244426,215402
937.427,0.054342,263972,232925
941.254,0.055186,281845,248213
945.076,0.054898,297271,261972
950.165,0.055074,315605,278016
953.978,0.055082,328029,288955
957.786,0.055328,340470,299744
961.59,0.056077,352317,309640
965.389,0.055911,363056,319200
969.185,0.056894,373162,327343
972.976,0.056867,382632,335671
976.763,0.058087,391202,342227
981.806,0.058725,400190,349576
985.583,0.059426,406088,354156
989.355,0.059540,410162,357615
993.124,0.060186,412868,359439
996.888,0.061272,414263,359753
1000.65,0.061531,415476,360591
1004.4,0.062492,415479,359797
1009.41,0.063976,414358,357602
1013.15,0.064215,412923,356167
1016.89,0.064949,411526,354363
1020.63,0.064692,409066,352453
1024.36,0.064712,406777,350465
1028.09,0.064622,404427,348512
1031.82,0.063981,401911,346856
1036.78,0.063282,398410,344388
1040.49,0.063053,396204,342662
1044.2,0.062686,394236,341248
1047.91,0.062134,392042,339781
1051.61,0.061246,389823,338549
1055.31,0.060469,388234,337773
1059,0.059469,387599,337998
1063.92,0.058792,386688,337729
1067.61,0.057891,386598,338352
1071.29,0.057291,387377,339502
1074.96,0.056070,388536,341477
1078.63,0.056144,389855,342578
1082.3,0.054489,391215,345085
1085.96,0.054152,393215,347119
1090.84,0.053241,396270,350550
1094.49,0.053160,398760,352819
1098.14,0.053027,400987,354898
1101.79,0.051869,403477,358055
1105.43,0.051892,406116,360378
1109.06,0.051788,407701,361871
1112.7,0.051398,409859,364113
1117.53,0.051703,412494,366197
1121.15,0.052623,414909,367561
1124.77,0.052959,416559,368738
1128.38,0.054734,418532,368973
1131.99,0.056259,419956,368931
1135.6,0.058387,421946,368867
1139.2,0.060617,423881,368661
1143.99,0.063776,426786,368497
1147.58,0.064798,428617,369208
1151.17,0.065818,431169,370535
1154.75,0.067710,433579,370987
1158.33,0.069630,436264,371637
1161.91,0.072212,439132,371863
1165.48,0.075063,442389,372170
1169.04,0.078275,446101,372527
1173.79,0.082638,451929,373622
1177.34,0.085197,456026,374794
1180.9,0.087470,461306,377154
1184.44,0.089286,467657,380751
1187.99,0.089758,473969,385471
1191.52,0.089712,479856,390300
1195.06,0.089268,487372,396819
1199.76,0.087845,497347,406270
1203.29,0.086532,504311,413206
1206.81,0.085389,511507,420206
1210.33,0.084361,519078,427437
1213.84,0.082926,527163,435531
1217.35,0.082132,534208,442159
1220.85,0.080739,540472,448781
1225.51,0.079869,549929,457549
1229.01,0.078724,556888,464562
1232.5,0.077664,562180,470123
1235.98,0.077309,567975,475357
1239.46,0.076334,574815,482163
1242.94,0.074925,582782,490435
1246.41,0.074390,591476,498364
1251.03,0.073658,604016,509789
1254.5,0.073828,612289,516569
1257.96,0.074106,619125,522002
1261.41,0.074763,624551,525781
1264.86,0.075484,629900,529405
1268.31,0.075647,634345,532940
1271.75,0.076715,638574,535176
1276.33,0.076963,642499,538158
1279.76,0.076879,645905,541115
1283.19,0.076064,648307,544148
1286.61,0.075748,650446,546340
1290.03,0.075606,652132,547935
1293.44,0.074974,653907,550227
1296.85,0.074862,655963,552100
1301.39,0.074776,657349,553375
1304.8,0.074525,657558,553872
1308.19,0.074909,658515,554188
1311.58,0.075279,658804,553958
1314.97,0.076074,659011,553119
1318.36,0.076658,658272,551756
1321.73,0.076867,658022,551282
1326.23,0.078101,657870,549590
1329.6,0.079345,656482,546862
1332.97,0.080938,654926,543569
1336.33,0.082160,653727,541049
1339.69,0.084021,652497,537722
1343.04,0.086025,649913,533127
1346.39,0.088345,647671,528457
1349.73,0.090881,645338,523488
1354.18,0.094232,641175,516113
1357.52,0.096809,638376,510820
1360.85,0.099474,635805,505650
1364.17,0.101457,633413,501453
1367.49,0.104714,631026,495831
1370.81,0.107026,628050,490872
1374.12,0.109571,625034,485660
1378.54,0.114124,620272,476934
1381.84,0.117790,616892,470348
1385.14,0.122902,613613,462373
1388.43,0.128504,611526,454895
1391.72,0.134699,610663,447819
1395.01,0.140243,610634,442118
1398.29,0.147353,611700,435698
1402.66,0.156615,614051,428144
1405.93,0.164340,616268,422114
1409.2,0.171302,617795,416430
1412.46,0.177615,618872,411136
1415.72,0.183789,619795,405937
1418.98,0.188987,620495,401561
1422.23,0.193490,621087,397798
1426.56,0.198739,621375,393201
1429.8,0.202524,621616,389940
1433.04,0.205462,622129,387631
1436.27,0.208608,621526,384460
1439.5,0.211249,621113,381875
1442.72,0.213428,620921,379847
1445.94,0.216674,620270,376623
1450.23,0.219906,618860,372981
1453.44,0.222601,617697,369977
1456.64,0.226075,616264,366178
1459.85,0.228639,614413,362929
1463.04,0.231193,612307,359564
1466.24,0.233269,610032,356520
1469.43,0.236767,607345,352102
1473.67,0.241103,603789,346563
1476.85,0.246269,601175,340982
1480.02,0.250450,597737,335784
1483.19,0.255727,594479,329921
1486.36,0.260994,591232,324163
1489.52,0.265915,587853,318679
1492.68,0.269407,583875,313988
1496.89,0.272140,578062,308912
1500.03,0.272929,574159,306269
1503.18,0.273203,570285,304011
1506.32,0.272683,565444,301791
1509.45,0.271867,560571,299753
1512.58,0.269752,555821,298664
1515.71,0.268368,550344,296665
1519.87,0.265710,543983,295036
1522.99,0.262570,538764,294326
1526.1,0.259714,533692,293479
1529.21,0.256466,527902,292474
1532.32,0.254032,521886,290766
1535.42,0.250883,515888,289516
1538.51,0.247000,509987,288775
1541.6,0.243911,503936,287385
1545.72,0.239071,494694,285276
1548.8,0.235738,488378,283804
1551.88,0.232368,481832,282181
1554.95,0.229982,474989,279706
1558.02,0.228641,467818,276335
1561.08,0.227340,460730,272965
1564.15,0.226020,454170,269897
1568.22,0.224281,444181,265020
1571.27,0.223807,436947,260989
1574.32,0.222526,429598,257357
1577.36,0.220899,422039,253778
1580.4,0.219972,414375,249702
1583.43,0.216917,406354,246597
1586.46,0.215870,398475,242399
1590.49,0.213057,388982,238162
1593.51,0.210508,380708,234468
1596.53,0.207580,372727,231106
1599.54,0.205765,365060,227300
1602.55,0.202832,357543,224128
1605.55,0.200584,349495,220220
1608.55,0.198913,341154,215793
1612.54,0.195759,330877,210818
1615.53,0.193221,322904,206944
1618.51,0.191368,315116,202816
1621.49,0.189381,307217,198639
1624.47,0.187651,299481,194410
1627.44,0.187082,292112,189875
1630.41,0.185358,284245,185496
1634.36,0.183773,274079,179516
1637.32,0.182296,266916,175420
1640.27,0.181131,259612,171078
1643.22,0.180575,251804,166145
1646.16,0.179441,244348,161647
1649.1,0.179149,236703,156695
1652.04,0.178126,228171,151403
1655.95,0.175687,215408,143739
1658.88,0.174048,204937,137269
1661.8,0.171648,193395,130256
1664.72,0.170454,179728,121384
1667.63,0.165232,163642,111857
1670.54,0.160348,146312,101142
1673.44,0.154505,128451,89998
1677.31,0.147932,105080,74746
1680.21,0.148159,88906,63208
1683.1,0.149520,75033,53178
1685.99,0.156399,63520,44311
1688.87,0.165717,53714,36675
1691.75,0.161241,45653,31494
1694.62,0.173309,39137,26259
1697.49,0.173138,33776,22671
1701.31,0.173333,28175,18903