File: samples/wool/wool-000811/Column 1_050579_20150331_121345.csv
Method:,Column 1,,
Host Date-Time:,31/3/15 @ 12:13:45,,
Header Version:,1,,
System Temp (C):,33.77,,
Detector Temp (C):,34.6,,
Humidity (%):,1.95,,
Lamp PD:,3819,,
Shift Vector Coefficients:,-10.5391,0.0761263,-0.000134223,,
Pixel to Wavelength Coefficients:,1775.68,-0.916766,-0.000235065,,
Serial Number:,5510004,,
Scan Config Name:,Column 1,,
Scan Config Type:,Slew,,
Section 1,,
Start wavelength (nm):,900,,
End wavelength (nm):,1700,,
Pattern Pixel Width (nm):,   7.03,,,,
Exposure (ms):,  0.635,,,,
Digital Resolution:,228,,
Num Repeats:,6,,
PGA Gain:,64,,
Total Measurement Time in sec:,  2.678,,
Wavelength (nm),Absorbance (AU),Reference Signal (unitless),Sample Signal (unitless)
901.51,0.072130,108485,91884
905.376,0.075648,121306,101914
909.237,0.079336,131909,109885
913.095,0.079920,143299,119213
916.948,0.082184,156982,129917
922.079,0.082360,179937,148854
925.923,0.085024,200504,164854
929.762,0.083767,222660,183601
933.597,0.084902,244426,201023
937.427,0.083085,263972,218008
941.254,0.082794,281845,232925
945.076,0.081725,297271,246279
950.165,0.081146,315605,261817
953.978,0.080347,328029,272625
957.786,0.080472,340470,282883
961.59,0.079956,352317,293074
965.389,0.080761,363056,301448
969.185,0.081168,373162,309549
972.976,0.081333,382632,317284
976.763,0.081837,391202,324014
981.806,0.081827,400190,331466
985.583,0.082868,406088,335546
989.355,0.083339,410162,338545
993.124,0.083504,412868,340649
996.888,0.084374,414263,341116
1000.65,0.085050,415476,341583
1004.4,0.085492,415479,341238
1009.41,0.087384,414358,338838
1013.15,0.087991,412923,337193
1016.89,0.087778,411526,336217
1020.63,0.087649,409066,334306
1024.36,0.088366,406777,331887
1028.09,0.087953,404427,330284
1031.82,0.087695,401911,328424
1036.78,0.087334,398410,325834
1040.49,0.087299,396204,324056
1044.2,0.087619,394236,322209
1047.91,0.086734,392042,321069
1051.61,0.086651,389823,319313
1055.31,0.086564,388234,318075
1059,0.085923,387599,318024
1063.92,0.084661,386688,318200
1067.61,0.084675,386598,318115
1071.29,0.084527,387377,318865
1074.96,0.083443,388536,320618
1078.63,0.083511,389855,321656
1082.3,0.082373,391215,323625
1085.96,0.081611,393215,325851
1090.84,0.080721,396270,329056
1094.49,0.080578,398760,331233
1098.14,0.079708,400987,333751
1101.79,0.079040,403477,336340
1105.43,0.079253,406116,338374
1109.06,0.078429,407701,340340
1112.7,0.077796,409859,342640
1117.53,0.077390,412494,345166
1121.15,0.078372,414909,346402
1124.77,0.078862,416559,347388
1128.38,0.078951,418532,348962
1131.99,0.080130,419956,349200
1135.6,0.081487,421946,349760
1139.2,0.082716,423881,350371
1143.99,0.085361,426786,350630
1147.58,0.085472,428617,352044
1151.17,0.086856,431169,353014
1154.75,0.088026,433579,354032
1158.33,0.089720,436264,354837
1161.91,0.091193,439132,355961
1165.48,0.093663,442389,356567
1169.04,0.095767,446101,357821
1173.79,0.098687,451929,360067
1177.34,0.101052,456026,361358
1180.9,0.103117,461306,363808
1184.44,0.104427,467657,367706
1187.99,0.105566,473969,371693
1191.52,0.105602,479856,376278
1195.06,0.105869,487372,381937
1199.76,0.104788,497347,390725
1203.29,0.104091,504311,396833
1206.81,0.103701,511507,402857
1210.33,0.102895,519078,409579
1213.84,0.102770,527163,416078
1217.35,0.102257,534208,422137
1220.85,0.101247,540472,428081
1225.51,0.100459,549929,436363
1229.01,0.100372,556888,441973
1232.5,0.099176,562180,447404
1235.98,0.099280,567975,451907
1239.46,0.097857,574815,458850
1242.94,0.097101,582782,466021
1246.41,0.096833,591476,473265
1251.03,0.096778,604016,483360
1254.5,0.096517,612289,490275
1257.96,0.096525,619125,495739
1261.41,0.097581,624551,498870
1264.86,0.098373,629900,502225
1268.31,0.098115,634345,506070
1271.75,0.098627,638574,508843
1276.33,0.099418,642499,511039
1279.76,0.099200,645905,514007
1283.19,0.098720,648307,516489
1286.61,0.098481,650446,518478
1290.03,0.098388,652132,519933
1293.44,0.097423,653907,522508
1296.85,0.097539,655963,524011
1301.39,0.097140,657349,525601
1304.8,0.097258,657558,525625
1308.19,0.097440,658515,526170
1311.58,0.097914,658804,525826
1314.97,0.098149,659011,525707
1318.36,0.098627,658272,524540
1321.73,0.099296,658022,523533
1326.23,0.099878,657870,522711
1329.6,0.101108,656482,520134
1332.97,0.101977,654926,517864
1336.33,0.103362,653727,515269
1339.69,0.104797,652497,512603
1343.04,0.106131,649913,509007
1346.39,0.108647,647671,504322
1349.73,0.110477,645338,500392
1354.18,0.113471,641175,493748
1357.52,0.115390,638376,489425
1360.85,0.117784,635805,484775
1364.17,0.119751,633413,480769
1367.49,0.121693,631026,476820
1370.81,0.124509,628050,471504
1374.12,0.126619,625034,466965
1378.54,0.129410,620272,460439
1381.84,0.132817,616892,454352
1385.14,0.136783,613613,447828
1388.43,0.140990,611526,442003
1391.72,0.145948,610663,436369
1395.01,0.150971,610634,431330
1398.29,0.156637,611700,426483
1402.66,0.164236,614051,420696
1405.93,0.170336,616268,416326
1409.2,0.175502,617795,412423
1412.46,0.180816,618872,408117
1415.72,0.185425,619795,404411
1418.98,0.189940,620495,400681
1422.23,0.193666,621087,397637
1426.56,0.198162,621375,393724
1429.8,0.200786,621616,391504
1433.04,0.203738,622129,389173
1436.27,0.205573,621526,387156
1439.5,0.207094,621113,385546
1442.72,0.209545,620921,383258
1445.94,0.211924,620270,380765
1450.23,0.215346,618860,376918
1453.44,0.217795,617697,374094
1456.64,0.220687,616264,370749
1459.85,0.223470,614413,367274
1463.04,0.225970,612307,363914
1466.24,0.228397,610032,360542
1469.43,0.231592,607345,356323
1473.67,0.236732,603789,350069
1476.85,0.241553,601175,344705
1480.02,0.246363,597737,338959
1483.19,0.251774,594479,332937
1486.36,0.256285,591232,327697
1489.52,0.261103,587853,322230
1492.68,0.263558,583875,318245
1496.89,0.265612,578062,313590
1500.03,0.266270,574159,311001
1503.18,0.266526,570285,308721
1506.32,0.264653,565444,307423
1509.45,0.263880,560571,305317
1512.58,0.261910,555821,304106
1515.71,0.259698,550344,302647
1519.87,0.257322,543983,300790
1522.99,0.254763,538764,299665
1526.1,0.252560,533692,298353
1529.21,0.249743,527902,297037
1532.32,0.246514,521886,295843
1535.42,0.243685,515888,294354
1538.51,0.240792,509987,292932
1541.6,0.238496,503936,290991
1545.72,0.235032,494694,287942
1548.8,0.231422,488378,286638
1551.88,0.228490,481832,284712
1554.95,0.227056,474989,281597
1558.02,0.225191,467818,278539
1561.08,0.224089,460730,275016
1564.15,0.223538,454170,271444
1568.22,0.222086,444181,266363
1571.27,0.221640,436947,262294
1574.32,0.220709,429598,258436
1577.36,0.219111,422039,254825
1580.4,0.218622,414375,250479
1583.43,0.216845,406354,246638
1586.46,0.214373,398475,243236
1590.49,0.212234,388982,238614
1593.51,0.210286,380708,234588
1596.53,0.208338,372727,230703
1599.54,0.206759,365060,226780
1602.55,0.204827,357543,223101
1605.55,0.203380,349495,218807
1608.55,0.200552,341154,214980
1612.54,0.198829,330877,209333
1615.53,0.196112,322904,205571
1618.51,0.195763,315116,200774
1621.49,0.194870,307217,196144
1624.47,0.193591,299481,191769
1627.44,0.192199,292112,187651
1630.41,0.191710,284245,182803
1634.36,0.190647,274079,176697
1637.32,0.190339,266916,172201
1640.27,0.189290,259612,167894
1643.22,0.187981,251804,163336
1646.16,0.188018,244348,158486
1649.1,0.186415,236703,154095
1652.04,0.184640,228171,149149
1655.95,0.181564,215408,141807
1658.88,0.178008,204937,136023
1661.8,0.173964,193395,129563
1664.72,0.165096,179728,122891
1667.63,0.152778,163642,115111
1670.54,0.139446,146312,106129
1673.44,0.124548,128451,96425
1677.31,0.105419,105080,82433
1680.21,0.093569,88906,71674
1683.1,0.104260,75033,59019
1685.99,0.089185,63520,51728
1688.87,0.091538,53714,43506
1691.75,0.094910,45653,36691
1694.62,0.096502,39137,31339
1697.49,0.100765,33776,26782
1701.31,0.114727,28175,21634