File: samples/wool/wool-000811/Column 1_050614_20150331_123008.csv
Method:,Column 1,,
Host Date-Time:,31/3/15 @ 12:30:8,,
Header Version:,1,,
System Temp (C):,34.09,,
Detector Temp (C):,34.97,,
Humidity (%):,1.66,,
Lamp PD:,3818,,
Shift Vector Coefficients:,-10.5391,0.0761263,-0.000134223,,
Pixel to Wavelength Coefficients:,1775.68,-0.916766,-0.000235065,,
Serial Number:,5510004,,
Scan Config Name:,Column 1,,
Scan Config Type:,Slew,,
Section 1,,
Start wavelength (nm):,900,,
End wavelength (nm):,1700,,
Pattern Pixel Width (nm):,   7.03,,,,
Exposure (ms):,  0.635,,,,
Digital Resolution:,228,,
Num Repeats:,6,,
PGA Gain:,64,,
Total Measurement Time in sec:,  2.674,,
Wavelength (nm),Absorbance (AU),Reference Signal (unitless),Sample Signal (unitless)
901.51,0.069435,108485,92456
905.376,0.074015,121306,102298
909.237,0.078527,131909,110090
913.095,0.079490,143299,119331
916.948,0.077691,156982,131268
922.079,0.080026,179937,149656
925.923,0.081583,200504,166165
929.762,0.081756,222660,184453
933.597,0.082426,244426,202172
937.427,0.081187,263972,218963
941.254,0.080086,281845,234382
945.076,0.078717,297271,247991
950.165,0.077098,315605,264269
953.978,0.077066,328029,274692
957.786,0.078183,340470,284378
961.59,0.077562,352317,294694
965.389,0.077459,363056,303749
969.185,0.077377,373162,312263
972.976,0.077783,382632,319888
976.763,0.077916,391202,326953
981.806,0.079044,400190,333597
985.583,0.078622,406088,338843
989.355,0.079565,410162,341500
993.124,0.079696,412868,343649
996.888,0.080604,414263,344090
1000.65,0.081822,415476,344131
1004.4,0.082787,415479,343370
1009.41,0.083557,414358,341837
1013.15,0.084031,412923,340281
1016.89,0.084851,411526,338490
1020.63,0.084111,409066,337041
1024.36,0.084400,406777,334932
1028.09,0.083841,404427,333426
1031.82,0.083923,401911,331289
1036.78,0.084198,398410,328195
1040.49,0.083771,396204,326699
1044.2,0.083746,394236,325095
1047.91,0.082853,392042,323951
1051.61,0.083191,389823,321867
1055.31,0.082720,388234,320903
1059,0.081878,387599,321000
1063.92,0.081438,386688,320570
1067.61,0.081329,386598,320576
1071.29,0.080080,387377,322147
1074.96,0.079034,388536,323890
1078.63,0.079179,389855,324881
1082.3,0.078270,391215,326697
1085.96,0.077368,393215,329050
1090.84,0.076620,396270,332178
1094.49,0.076280,398760,334527
1098.14,0.074710,400987,337614
1101.79,0.075158,403477,339360
1105.43,0.075011,406116,341695
1109.06,0.074080,407701,343765
1112.7,0.073202,409859,346284
1117.53,0.073303,412494,348429
1121.15,0.073851,414909,350027
1124.77,0.073966,416559,351326
1128.38,0.074381,418532,352653
1131.99,0.075465,419956,352971
1135.6,0.077758,421946,352776
1139.2,0.078452,423881,353828
1143.99,0.080553,426786,354533
1147.58,0.080933,428617,355743
1151.17,0.082316,431169,356723
1154.75,0.083236,433579,357958
1158.33,0.084124,436264,359439
1161.91,0.086255,439132,360031
1165.48,0.088448,442389,360875
1169.04,0.090878,446101,361872
1173.79,0.094007,451929,363968
1177.34,0.096175,456026,365439
1180.9,0.098291,461306,367873
1184.44,0.099855,467657,371597
1187.99,0.101034,473969,375592
1191.52,0.100885,479856,380387
1195.06,0.100599,487372,386600
1199.76,0.100313,497347,394772
1203.29,0.099352,504311,401187
1206.81,0.099000,511507,407241
1210.33,0.098170,519078,414059
1213.84,0.097921,527163,420750
1217.35,0.097034,534208,427244
1220.85,0.096531,540472,432755
1225.51,0.095575,549929,441298
1229.01,0.095232,556888,447235
1232.5,0.094414,562180,452336
1235.98,0.094306,567975,457113
1239.46,0.092837,574815,464185
1242.94,0.092070,582782,471450
1246.41,0.091640,591476,478958
1251.03,0.091376,604016,489410
1254.5,0.091773,612289,495659
1257.96,0.092304,619125,500581
1261.41,0.092460,624551,504787
1264.86,0.093174,629900,508274
1268.31,0.093533,634345,511437
1271.75,0.094651,638574,513523
1276.33,0.094112,642499,517321
1279.76,0.094306,645905,519832
1283.19,0.093638,648307,522568
1286.61,0.093747,650446,524161
1290.03,0.093229,652132,526146
1293.44,0.092561,653907,528390
1296.85,0.092585,655963,530022
1301.39,0.091991,657349,531869
1304.8,0.091978,657558,532054
1308.19,0.091887,658515,532941
1311.58,0.091952,658804,533094
1314.97,0.092921,659011,532074
1318.36,0.093062,658272,531304
1321.73,0.093242,658022,530883
1326.23,0.094332,657870,529429
1329.6,0.094933,656482,527582
1332.97,0.095743,654926,525351
1336.33,0.096812,653727,523100
1339.69,0.098052,652497,520627
1343.04,0.099467,649913,516878
1346.39,0.101267,647671,512965
1349.73,0.103262,645338,508774
1354.18,0.106172,641175,502117
1357.52,0.108023,638376,497798
1360.85,0.110497,635805,492977
1364.17,0.112356,633413,489025
1367.49,0.114935,631026,484298
1370.81,0.116738,628050,480017
1374.12,0.118601,625034,475667
1378.54,0.121280,620272,469140
1381.84,0.124317,616892,463332
1385.14,0.127623,613613,457374
1388.43,0.131346,611526,451928
1391.72,0.134707,610663,447811
1395.01,0.138773,610634,443617
1398.29,0.143090,611700,439996
1402.66,0.149029,614051,435688
1405.93,0.154362,616268,431924
1409.2,0.158776,617795,428616
1412.46,0.163032,618872,425176
1415.72,0.166889,619795,422045
1418.98,0.170337,620495,419181
1422.23,0.173816,621087,416233
1426.56,0.176919,621375,413461
1429.8,0.179535,621616,411138
1433.04,0.182260,622129,408903
1436.27,0.183966,621526,406905
1439.5,0.186396,621113,404366
1442.72,0.188957,620921,401864
1445.94,0.191151,620270,399420
1450.23,0.194743,618860,395230
1453.44,0.197764,617697,391752
1456.64,0.200827,616264,388097
1459.85,0.203198,614413,384824
1463.04,0.206627,612307,380489
1466.24,0.209753,610032,376357
1469.43,0.213984,607345,371066
1473.67,0.219953,603789,363858
1476.85,0.225854,601175,357394
1480.02,0.231605,597737,350675
1483.19,0.238178,594479,343525
1486.36,0.243685,591232,337344
1489.52,0.249081,587853,331274
1492.68,0.252721,583875,326286
1496.89,0.254369,578062,321814
1500.03,0.255013,574159,319168
1503.18,0.254800,570285,317170
1506.32,0.254650,565444,314586
1509.45,0.252857,560571,313165
1512.58,0.251087,555821,311780
1515.71,0.249079,550344,310138
1519.87,0.245637,543983,308993
1522.99,0.243556,538764,307498
1526.1,0.241276,533692,306207
1529.21,0.238839,527902,304589
1532.32,0.235147,521886,303689
1535.42,0.232472,515888,302053
1538.51,0.229827,509987,300422
1541.6,0.226289,503936,299286
1545.72,0.222794,494694,296171
1548.8,0.219758,488378,294441
1551.88,0.217177,481832,292226
1554.95,0.215093,474989,289461
1558.02,0.213545,467818,286109
1561.08,0.212440,460730,282492
1564.15,0.212150,454170,278656
1568.22,0.210709,444181,273433
1571.27,0.210426,436947,269155
1574.32,0.209173,429598,265393
1577.36,0.207803,422039,261547
1580.4,0.207188,414375,257161
1583.43,0.206181,406354,252769
1586.46,0.204603,398475,248770
1590.49,0.201750,388982,244444
1593.51,0.200690,380708,239829
1596.53,0.198289,372727,236103
1599.54,0.197078,365060,231892
1602.55,0.194710,357543,228359
1605.55,0.191573,349495,224837
1608.55,0.191294,341154,219612
1612.54,0.188906,330877,214171
1615.53,0.186974,322904,209942
1618.51,0.185986,315116,205345
1621.49,0.185892,307217,200241
1624.47,0.185003,299481,195599
1627.44,0.184071,292112,191196
1630.41,0.182183,284245,186857
1634.36,0.180507,274079,180871
1637.32,0.179755,266916,176449
1640.27,0.179221,259612,171832
1643.22,0.177995,251804,167135
1646.16,0.177950,244348,162203
1649.1,0.177439,236703,157313
1652.04,0.175740,228171,152237
1655.95,0.172811,215408,144694
1658.88,0.169231,204937,138800
1661.8,0.163781,193395,132637
1664.72,0.155346,179728,125681
1667.63,0.142993,163642,117734
1670.54,0.128049,146312,108951
1673.44,0.112572,128451,99121
1677.31,0.093355,105080,84755
1680.21,0.079999,88906,73949
1683.1,0.072130,75033,63551
1685.99,0.073049,63520,53686
1688.87,0.076065,53714,45084
1691.75,0.086574,45653,37402
1694.62,0.090488,39137,31776
1697.49,0.090874,33776,27399
1701.31,0.103687,28175,22191