File: samples/wool/wool-000811/Column 1_050545_20150331_115732.csv
Method:,Column 1,,
Host Date-Time:,31/3/15 @ 11:57:32,,
Header Version:,1,,
System Temp (C):,32.86,,
Detector Temp (C):,31.37,,
Humidity (%):,2.54,,
Lamp PD:,3823,,
Shift Vector Coefficients:,-10.5391,0.0761263,-0.000134223,,
Pixel to Wavelength Coefficients:,1775.68,-0.916766,-0.000235065,,
Serial Number:,5510004,,
Scan Config Name:,Column 1,,
Scan Config Type:,Slew,,
Section 1,,
Start wavelength (nm):,900,,
End wavelength (nm):,1700,,
Pattern Pixel Width (nm):,   7.03,,,,
Exposure (ms):,  0.635,,,,
Digital Resolution:,228,,
Num Repeats:,6,,
PGA Gain:,64,,
Total Measurement Time in sec:,  2.666,,
Wavelength (nm),Absorbance (AU),Reference Signal (unitless),Sample Signal (unitless)
901.51,0.045057,108485,97794
905.376,0.050358,121306,108025
909.237,0.053036,131909,116745
913.095,0.054338,143299,126446
916.948,0.053554,156982,138770
922.079,0.054546,179937,158699
925.923,0.053476,200504,177275
929.762,0.055601,222660,195903
933.597,0.055968,244426,214872
937.427,0.055559,263972,232273
941.254,0.055410,281845,248085
945.076,0.055774,297271,261444
950.165,0.055219,315605,277923
953.978,0.054214,328029,289533
957.786,0.055650,340470,299522
961.59,0.055669,352317,309931
965.389,0.056093,363056,319066
969.185,0.056337,373162,327763
972.976,0.056911,382632,335637
976.763,0.057405,391202,342765
981.806,0.058266,400190,349945
985.583,0.059024,406088,354484
989.355,0.059089,410162,357986
993.124,0.059703,412868,359839
996.888,0.060618,414263,360295
1000.65,0.061473,415476,360639
1004.4,0.062207,415479,360033
1009.41,0.064020,414358,357566
1013.15,0.063745,412923,356553
1016.89,0.064742,411526,354532
1020.63,0.064537,409066,352579
1024.36,0.064157,406777,350913
1028.09,0.063568,404427,349359
1031.82,0.063762,401911,347031
1036.78,0.062793,398410,344776
1040.49,0.063025,396204,342684
1044.2,0.062010,394236,341780
1047.91,0.061556,392042,340233
1051.61,0.060911,389823,338810
1055.31,0.059747,388234,338335
1059,0.058701,387599,338596
1063.92,0.058564,386688,337907
1067.61,0.057514,386598,338646
1071.29,0.056709,387377,339958
1074.96,0.055917,388536,341597
1078.63,0.055275,389855,343264
1082.3,0.054776,391215,344857
1085.96,0.053397,393215,347723
1090.84,0.052888,396270,350835
1094.49,0.052644,398760,353238
1098.14,0.051722,400987,355966
1101.79,0.051913,403477,358019
1105.43,0.051488,406116,360713
1109.06,0.051585,407701,362040
1112.7,0.051005,409859,364443
1117.53,0.051209,412494,366614
1121.15,0.052161,414909,367953
1124.77,0.052729,416559,368933
1128.38,0.054235,418532,369397
1131.99,0.055950,419956,369193
1135.6,0.057720,421946,369434
1139.2,0.059782,423881,369370
1143.99,0.061712,426786,370253
1147.58,0.063635,428617,370198
1151.17,0.065017,431169,371219
1154.75,0.066872,433579,371703
1158.33,0.068145,436264,372910
1161.91,0.071052,439132,372858
1165.48,0.073658,442389,373376
1169.04,0.076252,446101,374267
1173.79,0.080434,451929,375523
1177.34,0.083762,456026,376034
1180.9,0.086110,461306,378337
1184.44,0.087416,467657,382394
1187.99,0.088609,473969,386492
1191.52,0.088276,479856,391593
1195.06,0.087537,487372,398404
1199.76,0.086061,497347,407942
1203.29,0.084779,504311,414877
1206.81,0.083863,511507,421685
1210.33,0.083237,519078,428544
1213.84,0.081742,527163,436720
1217.35,0.080714,534208,443605
1220.85,0.079958,540472,449589
1225.51,0.078232,549929,459277
1229.01,0.077653,556888,465709
1232.5,0.076690,562180,471178
1235.98,0.075520,567975,477320
1239.46,0.074278,574815,484451
1242.94,0.073858,582782,491641
1246.41,0.072229,591476,500851
1251.03,0.072115,604016,511603
1254.5,0.072529,612289,518117
1257.96,0.072424,619125,524028
1261.41,0.073141,624551,527748
1264.86,0.073664,629900,531628
1268.31,0.074286,634345,534613
1271.75,0.075493,638574,536683
1276.33,0.075654,642499,539782
1279.76,0.075660,645905,542636
1283.19,0.074703,648307,545855
1286.61,0.074839,650446,547485
1290.03,0.074119,652132,549815
1293.44,0.073572,653907,552006
1296.85,0.072950,655963,554535
1301.39,0.072852,657349,555832
1304.8,0.073197,657558,555568
1308.19,0.073346,658515,556186
1311.58,0.073209,658804,556605
1314.97,0.073933,659011,555852
1318.36,0.074587,658272,554394
1321.73,0.075029,658022,553619
1326.23,0.076127,657870,552094
1329.6,0.076757,656482,550130
1332.97,0.078128,654926,547097
1336.33,0.079237,653727,544703
1339.69,0.081328,652497,541066
1343.04,0.083015,649913,536834
1346.39,0.085564,647671,531852
1349.73,0.087802,645338,527212
1354.18,0.091956,641175,518825
1357.52,0.093893,638376,514261
1360.85,0.096794,635805,508780
1364.17,0.098728,633413,504614
1367.49,0.101643,631026,499349
1370.81,0.103946,628050,494366
1374.12,0.107174,625034,488348
1378.54,0.111210,620272,480145
1381.84,0.114434,616892,473997
1385.14,0.119308,613613,466215
1388.43,0.124556,611526,459049
1391.72,0.129876,610663,452820
1395.01,0.135662,610634,446806
1398.29,0.141425,611700,441686
1402.66,0.150306,614051,434409
1405.93,0.157039,616268,429270
1409.2,0.163043,617795,424425
1412.46,0.168458,618872,419897
1415.72,0.173607,619795,415567
1418.98,0.178380,620495,411489
1422.23,0.182517,621087,407977
1426.56,0.187305,621375,403691
1429.8,0.190043,621616,401309
1433.04,0.193427,622129,398523
1436.27,0.195215,621526,396501
1439.5,0.197406,621113,394244
1442.72,0.200725,620921,391121
1445.94,0.202492,620270,389125
1450.23,0.206592,618860,384592
1453.44,0.209574,617697,381243
1456.64,0.212472,616264,377829
1459.85,0.215220,614413,374318
1463.04,0.217764,612307,370856
1466.24,0.221075,610032,366672
1469.43,0.224614,607345,362094
1473.67,0.229504,603789,355944
1476.85,0.235128,601175,349843
1480.02,0.240446,597737,343609
1483.19,0.247557,594479,336186
1486.36,0.253355,591232,329916
1489.52,0.258751,587853,323980
1492.68,0.262117,583875,319303
1496.89,0.264994,578062,314037
1500.03,0.266127,574159,311104
1503.18,0.266461,570285,308767
1506.32,0.265653,565444,306716
1509.45,0.264721,560571,304726
1512.58,0.263280,555821,303148
1515.71,0.260964,550344,301766
1519.87,0.258299,543983,300114
1522.99,0.254471,538764,299866
1526.1,0.252253,533692,298564
1529.21,0.249180,527902,297422
1532.32,0.245979,521886,296208
1535.42,0.242682,515888,295035
1538.51,0.239586,509987,293747
1541.6,0.236610,503936,292257
1545.72,0.230724,494694,290812
1548.8,0.228081,488378,288852
1551.88,0.225195,481832,286880
1554.95,0.222407,474989,284627
1558.02,0.220821,467818,281356
1561.08,0.219552,460730,277904
1564.15,0.218396,454170,274677
1568.22,0.217158,444181,269403
1571.27,0.216973,436947,265128
1574.32,0.215428,429598,261598
1577.36,0.213916,422039,257891
1580.4,0.212770,414375,253877
1583.43,0.211161,406354,249887
1586.46,0.208176,398475,246732
1590.49,0.206274,388982,241911
1593.51,0.203765,380708,238137
1596.53,0.200746,372727,234771
1599.54,0.198850,365060,230948
1602.55,0.196343,357543,227502
1605.55,0.193653,349495,223763
1608.55,0.191611,341154,219452
1612.54,0.189371,330877,213942
1615.53,0.187427,322904,209723
1618.51,0.185750,315116,205457
1621.49,0.183815,307217,201201
1624.47,0.183250,299481,196390
1627.44,0.181132,292112,192494
1630.41,0.180488,284245,187588
1634.36,0.178122,274079,181867
1637.32,0.177710,266916,177282
1640.27,0.175551,259612,173290
1643.22,0.174136,251804,168627
1646.16,0.173560,244348,163851
1649.1,0.173517,236703,158740
1652.04,0.171575,228171,153704
1655.95,0.169299,215408,145869
1658.88,0.168353,204937,139081
1661.8,0.163938,193395,132589
1664.72,0.161131,179728,124018
1667.63,0.154695,163642,114604
1670.54,0.147984,146312,104063
1673.44,0.138935,128451,93283
1677.31,0.131765,105080,77581
1680.21,0.131723,88906,65646
1683.1,0.131296,75033,55457
1685.99,0.141353,63520,45873
1688.87,0.139424,53714,38964
1691.75,0.145174,45653,32681
1694.62,0.151537,39137,27609
1697.49,0.147909,33776,24027
1701.31,0.158473,28175,19561