File: samples/wool/wool-000811/Column 1_050550_20150331_115940.csv
Method:,Column 1,,
Host Date-Time:,31/3/15 @ 11:59:40,,
Header Version:,1,,
System Temp (C):,33.29,,
Detector Temp (C):,32.09,,
Humidity (%):,2.15,,
Lamp PD:,3822,,
Shift Vector Coefficients:,-10.5391,0.0761263,-0.000134223,,
Pixel to Wavelength Coefficients:,1775.68,-0.916766,-0.000235065,,
Serial Number:,5510004,,
Scan Config Name:,Column 1,,
Scan Config Type:,Slew,,
Section 1,,
Start wavelength (nm):,900,,
End wavelength (nm):,1700,,
Pattern Pixel Width (nm):,   7.03,,,,
Exposure (ms):,  0.635,,,,
Digital Resolution:,228,,
Num Repeats:,6,,
PGA Gain:,64,,
Total Measurement Time in sec:,  2.671,,
Wavelength (nm),Absorbance (AU),Reference Signal (unitless),Sample Signal (unitless)
901.51,0.043980,108485,98037
905.376,0.050141,121306,108079
909.237,0.051084,131909,117271
913.095,0.051452,143299,127289
916.948,0.052923,156982,138972
922.079,0.053997,179937,158900
925.923,0.054879,200504,176703
929.762,0.055823,222660,195803
933.597,0.055858,244426,214926
937.427,0.054579,263972,232798
941.254,0.054352,281845,248690
945.076,0.054636,297271,262130
950.165,0.055324,315605,277856
953.978,0.053472,328029,290028
957.786,0.053686,340470,300880
961.59,0.054893,352317,310485
965.389,0.054892,363056,319950
969.185,0.055893,373162,328099
972.976,0.055818,382632,336483
976.763,0.056347,391202,343601
981.806,0.056868,400190,351074
985.583,0.057623,406088,355629
989.355,0.058434,410162,358527
993.124,0.059069,412868,360365
996.888,0.059183,414263,361487
1000.65,0.060189,415476,361707
1004.4,0.061478,415479,360638
1009.41,0.062677,414358,358673
1013.15,0.062502,412923,357575
1016.89,0.063663,411526,355414
1020.63,0.062806,409066,353987
1024.36,0.063595,406777,351367
1028.09,0.062633,404427,350112
1031.82,0.063046,401911,347603
1036.78,0.062044,398410,345371
1040.49,0.061461,396204,343920
1044.2,0.061155,394236,342453
1047.91,0.060285,392042,341230
1051.61,0.059635,389823,339807
1055.31,0.059486,388234,338538
1059,0.058045,387599,339108
1063.92,0.057028,386688,339104
1067.61,0.056064,386598,339778
1071.29,0.055539,387377,340875
1074.96,0.055525,388536,341906
1078.63,0.053832,389855,344406
1082.3,0.053242,391215,346078
1085.96,0.051699,393215,349085
1090.84,0.051703,396270,351794
1094.49,0.051968,398760,353788
1098.14,0.051149,400987,356436
1101.79,0.050478,403477,359204
1105.43,0.050779,406116,361303
1109.06,0.049608,407701,363692
1112.7,0.050505,409859,364863
1117.53,0.050435,412494,367268
1121.15,0.050761,414909,369141
1124.77,0.051391,416559,370071
1128.38,0.052732,418532,370678
1131.99,0.054664,419956,370288
1135.6,0.056663,421946,370334
1139.2,0.058458,423881,370498
1143.99,0.061234,426786,370660
1147.58,0.062051,428617,371551
1151.17,0.063209,431169,372768
1154.75,0.065559,433579,372829
1158.33,0.067327,436264,373613
1161.91,0.069751,439132,373976
1165.48,0.072474,442389,374395
1169.04,0.075236,446101,375143
1173.79,0.079418,451929,376402
1177.34,0.082548,456026,377087
1180.9,0.084888,461306,379403
1184.44,0.086857,467657,382887
1187.99,0.087799,473969,387214
1191.52,0.087468,479856,392322
1195.06,0.086629,487372,399238
1199.76,0.085261,497347,408694
1203.29,0.084224,504311,415408
1206.81,0.083510,511507,422028
1210.33,0.081115,519078,430643
1213.84,0.080678,527163,437791
1217.35,0.079745,534208,444596
1220.85,0.078469,540472,451133
1225.51,0.076746,549929,460851
1229.01,0.076171,556888,467301
1232.5,0.075992,562180,471936
1235.98,0.074582,567975,478352
1239.46,0.073473,574815,485350
1242.94,0.072404,582782,493290
1246.41,0.071193,591476,502047
1251.03,0.071177,604016,512710
1254.5,0.071208,612289,519695
1257.96,0.071670,619125,524938
1261.41,0.072623,624551,528378
1264.86,0.072867,629900,532604
1268.31,0.073757,634345,535265
1271.75,0.074454,638574,537969
1276.33,0.074640,642499,541044
1279.76,0.074357,645905,544266
1283.19,0.073866,648307,546909
1286.61,0.073830,650446,548758
1290.03,0.072900,652132,551360
1293.44,0.072618,653907,553220
1296.85,0.072418,655963,555215
1301.39,0.072023,657349,556894
1304.8,0.071976,657558,557132
1308.19,0.071803,658515,558165
1311.58,0.072609,658804,557375
1314.97,0.073324,659011,556632
1318.36,0.073603,658272,555651
1321.73,0.073949,658022,554998
1326.23,0.074986,657870,553546
1329.6,0.076135,656482,550919
1332.97,0.077115,654926,548375
1336.33,0.078073,653727,546164
1339.69,0.080192,652497,542484
1343.04,0.081926,649913,538182
1346.39,0.084683,647671,532932
1349.73,0.086974,645338,528218
1354.18,0.090272,641175,520840
1357.52,0.092415,638376,516014
1360.85,0.095767,635805,509984
1364.17,0.097895,633413,505583
1367.49,0.100099,631026,501128
1370.81,0.103140,628050,495284
1374.12,0.106116,625034,489539
1378.54,0.109183,620272,482391
1381.84,0.113388,616892,475140
1385.14,0.117847,613613,467786
1388.43,0.122614,611526,461106
1391.72,0.127778,610663,455013
1395.01,0.133462,610634,449075
1398.29,0.139424,611700,443726
1402.66,0.147349,614051,437377
1405.93,0.153609,616268,432674
1409.2,0.160060,617795,427351
1412.46,0.165447,618872,422818
1415.72,0.170287,619795,418756
1418.98,0.174917,620495,414783
1422.23,0.179126,621087,411175
1426.56,0.183428,621375,407311
1429.8,0.186553,621616,404547
1433.04,0.188795,622129,402796
1436.27,0.191589,621526,399825
1439.5,0.194028,621113,397322
1442.72,0.196655,620921,394804
1445.94,0.198744,620270,392497
1450.23,0.202564,618860,388176
1453.44,0.205897,617697,384484
1456.64,0.208849,616264,380994
1459.85,0.212070,614413,377043
1463.04,0.214469,612307,373680
1466.24,0.217437,610032,369756
1469.43,0.220824,607345,365268
1473.67,0.226735,603789,358220
1476.85,0.231690,601175,352623
1480.02,0.238200,597737,345390
1483.19,0.244506,594479,338556
1486.36,0.250916,591232,331774
1489.52,0.256455,587853,325697
1492.68,0.259508,583875,321227
1496.89,0.262594,578062,315777
1500.03,0.263913,574159,312694
1503.18,0.263679,570285,310751
1506.32,0.263080,565444,308539
1509.45,0.262367,560571,306382
1512.58,0.260699,555821,304955
1515.71,0.258970,550344,303155
1519.87,0.255688,543983,301924
1522.99,0.252826,538764,301004
1526.1,0.250366,533692,299864
1529.21,0.247274,527902,298730
1532.32,0.243825,521886,297681
1535.42,0.240056,515888,296824
1538.51,0.237409,509987,295223
1541.6,0.234152,503936,293916
1545.72,0.228871,494694,292056
1548.8,0.225776,488378,290389
1551.88,0.223069,481832,288288
1554.95,0.220576,474989,285830
1558.02,0.217962,467818,283214
1561.08,0.216555,460730,279828
1564.15,0.216917,454170,275614
1568.22,0.215077,444181,270697
1571.27,0.215359,436947,266115
1574.32,0.213141,429598,262979
1577.36,0.211553,422039,259298
1580.4,0.210101,414375,255442
1583.43,0.208325,406354,251524
1586.46,0.206505,398475,247683
1590.49,0.203279,388982,243585
1593.51,0.201695,380708,239275
1596.53,0.199348,372727,235528
1599.54,0.196078,365060,232427
1602.55,0.194282,357543,228584
1605.55,0.192492,349495,224362
1608.55,0.189897,341154,220320
1612.54,0.186671,330877,215276
1615.53,0.185273,322904,210766
1618.51,0.183868,315116,206349
1621.49,0.181263,307217,202387
1624.47,0.179752,299481,197978
1627.44,0.179340,292112,193290
1630.41,0.177654,284245,188816
1634.36,0.175907,274079,182797
1637.32,0.175179,266916,178318
1640.27,0.174180,259612,173838
1643.22,0.173086,251804,169035
1646.16,0.172271,244348,164338
1649.1,0.171492,236703,159482
1652.04,0.170325,228171,154147
1655.95,0.167181,215408,146582
1658.88,0.164854,204937,140206
1661.8,0.161045,193395,133475
1664.72,0.156308,179728,125403
1667.63,0.148028,163642,116377
1670.54,0.141871,146312,105538
1673.44,0.132755,128451,94620
1677.31,0.121738,105080,79393
1680.21,0.115319,88906,68173
1683.1,0.118396,75033,57129
1685.99,0.122403,63520,47919
1688.87,0.126391,53714,40151
1691.75,0.131260,45653,33745
1694.62,0.128978,39137,29081
1697.49,0.134524,33776,24779
1701.31,0.150487,28175,19924