File: samples/wool/wool-000811/Column 1_050570_20150331_120923.csv
Method:,Column 1,,
Host Date-Time:,31/3/15 @ 12:9:23,,
Header Version:,1,,
System Temp (C):,34.08,,
Detector Temp (C):,34.1,,
Humidity (%):,1.76,,
Lamp PD:,3818,,
Shift Vector Coefficients:,-10.5391,0.0761263,-0.000134223,,
Pixel to Wavelength Coefficients:,1775.68,-0.916766,-0.000235065,,
Serial Number:,5510004,,
Scan Config Name:,Column 1,,
Scan Config Type:,Slew,,
Section 1,,
Start wavelength (nm):,900,,
End wavelength (nm):,1700,,
Pattern Pixel Width (nm):,   7.03,,,,
Exposure (ms):,  0.635,,,,
Digital Resolution:,228,,
Num Repeats:,6,,
PGA Gain:,64,,
Total Measurement Time in sec:,  2.681,,
Wavelength (nm),Absorbance (AU),Reference Signal (unitless),Sample Signal (unitless)
901.51,0.034805,108485,100130
905.376,0.040579,121306,110485
909.237,0.044574,131909,119042
913.095,0.044047,143299,129478
916.948,0.045038,156982,141518
922.079,0.048179,179937,161043
925.923,0.049918,200504,178733
929.762,0.049025,222660,198892
933.597,0.049400,244426,218146
937.427,0.048401,263972,236133
941.254,0.048184,281845,252247
945.076,0.047605,297271,266408
950.165,0.046828,315605,283345
953.978,0.046662,328029,294612
957.786,0.046321,340470,306026
961.59,0.046906,352317,316248
965.389,0.046928,363056,325871
969.185,0.047618,373162,334410
972.976,0.047529,382632,342967
976.763,0.048314,391202,350015
981.806,0.048667,400190,357766
985.583,0.049141,406088,362643
989.355,0.050118,410162,365458
993.124,0.050643,412868,367425
996.888,0.050975,414263,368384
1000.65,0.052093,415476,368513
1004.4,0.053385,415479,367421
1009.41,0.054488,414358,365500
1013.15,0.054572,412923,364164
1016.89,0.055068,411526,362518
1020.63,0.055493,409066,359998
1024.36,0.054887,406777,358484
1028.09,0.055013,404427,356309
1031.82,0.054326,401911,354653
1036.78,0.054110,398410,351739
1040.49,0.053984,396204,349893
1044.2,0.054347,394236,347864
1047.91,0.053222,392042,346825
1051.61,0.052270,389823,345619
1055.31,0.052163,388234,344295
1059,0.051882,387599,343954
1063.92,0.050855,386688,343958
1067.61,0.049865,386598,344663
1071.29,0.049639,387377,345537
1074.96,0.048658,388536,347355
1078.63,0.048054,389855,349019
1082.3,0.047485,391215,350696
1085.96,0.046716,393215,353113
1090.84,0.045568,396270,356799
1094.49,0.045848,398760,358809
1098.14,0.045518,400987,361087
1101.79,0.044883,403477,363861
1105.43,0.045043,406116,366106
1109.06,0.044604,407701,367907
1112.7,0.044414,409859,370016
1117.53,0.044403,412494,372404
1121.15,0.045532,414909,373612
1124.77,0.045697,416559,374955
1128.38,0.046472,418532,376060
1131.99,0.047986,419956,376026
1135.6,0.050067,421946,376002
1139.2,0.052296,423881,375792
1143.99,0.054386,426786,376551
1147.58,0.054972,428617,377657
1151.17,0.056427,431169,378635
1154.75,0.057725,433579,379615
1158.33,0.059582,436264,380336
1161.91,0.061973,439132,380734
1165.48,0.063955,442389,381812
1169.04,0.066243,446101,382992
1173.79,0.070344,451929,384349
1177.34,0.072156,456026,386219
1180.9,0.074607,461306,388492
1184.44,0.076953,467657,391719
1187.99,0.077677,473969,396345
1191.52,0.077227,479856,401683
1195.06,0.077377,487372,407834
1199.76,0.075805,497347,417690
1203.29,0.075486,504311,423850
1206.81,0.074810,511507,430568
1210.33,0.073683,519078,438076
1213.84,0.073087,527163,445510
1217.35,0.072248,534208,452337
1220.85,0.071105,540472,458847
1225.51,0.070265,549929,467780
1229.01,0.069771,556888,474239
1232.5,0.069534,562180,479007
1235.98,0.068992,567975,484549
1239.46,0.067352,574815,492239
1242.94,0.066971,582782,499500
1246.41,0.065987,591476,508101
1251.03,0.065669,604016,519253
1254.5,0.066069,612289,525881
1257.96,0.066143,619125,531662
1261.41,0.067002,624551,535261
1264.86,0.067614,629900,539085
1268.31,0.068361,634345,541957
1271.75,0.069056,638574,544697
1276.33,0.069492,642499,547496
1279.76,0.069192,645905,550778
1283.19,0.068692,648307,553463
1286.61,0.068433,650446,555621
1290.03,0.067978,652132,557645
1293.44,0.067371,653907,559944
1296.85,0.067111,655963,562041
1301.39,0.067207,657349,563104
1304.8,0.066871,657558,563719
1308.19,0.067339,658515,563932
1311.58,0.067294,658804,564238
1314.97,0.067904,659011,563623
1318.36,0.068272,658272,562514
1321.73,0.068564,658022,561923
1326.23,0.069509,657870,560571
1329.6,0.070408,656482,558232
1332.97,0.071752,654926,555188
1336.33,0.072674,653727,552996
1339.69,0.074237,652497,549973
1343.04,0.075943,649913,545647
1346.39,0.077880,647671,541346
1349.73,0.080231,645338,536483
1354.18,0.083594,641175,528911
1357.52,0.086172,638376,523485
1360.85,0.087936,635805,519264
1364.17,0.090458,633413,514315
1367.49,0.092860,631026,509551
1370.81,0.095174,628050,504453
1374.12,0.097285,625034,499596
1378.54,0.101017,620272,491547
1381.84,0.104464,616892,485004
1385.14,0.107895,613613,478630
1388.43,0.112169,611526,472330
1391.72,0.116853,610663,466604
1395.01,0.121454,610634,461665
1398.29,0.126784,611700,456830
1402.66,0.133766,614051,451272
1405.93,0.139346,616268,447119
1409.2,0.144900,617795,442532
1412.46,0.150021,618872,438107
1415.72,0.153971,619795,434788
1418.98,0.158239,620495,431022
1422.23,0.162023,621087,427690
1426.56,0.165747,621375,424235
1429.8,0.168713,621616,421511
1433.04,0.171720,622129,418948
1436.27,0.173978,621526,416372
1439.5,0.176045,621113,414119
1442.72,0.178804,620921,411370
1445.94,0.181118,620270,408755
1450.23,0.184871,618860,404316
1453.44,0.188058,617697,400606
1456.64,0.191050,616264,396933
1459.85,0.193841,614413,393205
1463.04,0.196889,612307,389117
1466.24,0.200119,610032,384799
1469.43,0.203997,607345,379698
1473.67,0.209574,603789,372659
1476.85,0.215834,601175,365735
1480.02,0.222423,597737,358168
1483.19,0.229061,594479,350813
1486.36,0.235264,591232,343949
1489.52,0.240967,587853,337522
1492.68,0.243955,583875,332939
1496.89,0.246425,578062,327755
1500.03,0.247510,574159,324730
1503.18,0.247621,570285,322456
1506.32,0.247189,565444,320037
1509.45,0.245543,560571,318484
1512.58,0.243381,555821,317361
1515.71,0.241277,550344,315760
1519.87,0.238264,543983,314283
1522.99,0.235034,538764,313592
1526.1,0.232849,533692,312206
1529.21,0.229462,527902,311237
1532.32,0.226636,521886,309699
1535.42,0.222619,515888,308984
1538.51,0.219821,509987,307424
1541.6,0.217172,503936,305635
1545.72,0.212181,494694,303498
1548.8,0.209359,488378,301576
1551.88,0.206867,481832,299246
1554.95,0.204672,474989,296491
1558.02,0.202815,467818,293266
1561.08,0.202169,460730,289253
1564.15,0.201828,454170,285358
1568.22,0.199904,444181,280321
1571.27,0.199433,436947,276055
1574.32,0.197748,429598,272467
1577.36,0.196842,422039,268232
1580.4,0.194930,414375,264523
1583.43,0.193400,406354,260318
1586.46,0.192349,398475,255889
1590.49,0.189202,388982,251610
1593.51,0.187157,380708,247420
1596.53,0.185072,372727,243399
1599.54,0.183759,365060,239114
1602.55,0.180622,357543,235888
1605.55,0.179190,349495,231340
1608.55,0.176498,341154,227223
1612.54,0.174866,330877,221208
1615.53,0.171874,322904,217370
1618.51,0.171760,315116,212183
1621.49,0.169739,307217,207829
1624.47,0.167730,299481,203535
1627.44,0.167942,292112,198430
1630.41,0.165526,284245,194163
1634.36,0.165280,274079,187325
1637.32,0.163075,266916,183358
1640.27,0.163249,259612,178269
1643.22,0.160716,251804,173919
1646.16,0.161594,244348,168428
1649.1,0.159574,236703,163919
1652.04,0.159161,228171,158161
1655.95,0.156566,215408,150209
1658.88,0.151996,204937,144419
1661.8,0.148882,193395,137266
1664.72,0.139851,179728,130246
1667.63,0.130876,163642,121065
1670.54,0.120485,146312,110865
1673.44,0.105678,128451,100707
1677.31,0.089087,105080,85592
1680.21,0.083235,88906,73400
1683.1,0.076919,75033,62854
1685.99,0.079800,63520,52858
1688.87,0.082372,53714,44434
1691.75,0.087411,45653,37330
1694.62,0.091309,39137,31716
1697.49,0.099195,33776,26879
1701.31,0.104079,28175,22171