File: samples/wool/wool-000811/Column 1_050578_20150331_121300.csv
Method:,Column 1,,
Host Date-Time:,31/3/15 @ 12:13:0,,
Header Version:,1,,
System Temp (C):,33.83,,
Detector Temp (C):,34.65,,
Humidity (%):,2.15,,
Lamp PD:,3818,,
Shift Vector Coefficients:,-10.5391,0.0761263,-0.000134223,,
Pixel to Wavelength Coefficients:,1775.68,-0.916766,-0.000235065,,
Serial Number:,5510004,,
Scan Config Name:,Column 1,,
Scan Config Type:,Slew,,
Section 1,,
Start wavelength (nm):,900,,
End wavelength (nm):,1700,,
Pattern Pixel Width (nm):,   7.03,,,,
Exposure (ms):,  0.635,,,,
Digital Resolution:,228,,
Num Repeats:,6,,
PGA Gain:,64,,
Total Measurement Time in sec:,  2.730,,
Wavelength (nm),Absorbance (AU),Reference Signal (unitless),Sample Signal (unitless)
901.51,0.072920,108485,91717
905.376,0.077600,121306,101457
909.237,0.079229,131909,109912
913.095,0.080382,143299,119086
916.948,0.082535,156982,129812
922.079,0.084653,179937,148070
925.923,0.084100,200504,165205
929.762,0.084807,222660,183162
933.597,0.084824,244426,201059
937.427,0.084222,263972,217438
941.254,0.083419,281845,232590
945.076,0.082277,297271,245966
950.165,0.081916,315605,261353
953.978,0.080761,328029,272365
957.786,0.080933,340470,282583
961.59,0.081313,352317,292160
965.389,0.082220,363056,300437
969.185,0.081669,373162,309192
972.976,0.081944,382632,316838
976.763,0.082305,391202,323665
981.806,0.082975,400190,330591
985.583,0.083713,406088,334894
989.355,0.084118,410162,337938
993.124,0.084065,412868,340209
996.888,0.084566,414263,340965
1000.65,0.085965,415476,340864
1004.4,0.086751,415479,340250
1009.41,0.087799,414358,338514
1013.15,0.088733,412923,336617
1016.89,0.088557,411526,335614
1020.63,0.088883,409066,333358
1024.36,0.088619,406777,331694
1028.09,0.088512,404427,329859
1031.82,0.088092,401911,328124
1036.78,0.087950,398410,325372
1040.49,0.088089,396204,323467
1044.2,0.088093,394236,321857
1047.91,0.087557,392042,320461
1051.61,0.087436,389823,318736
1055.31,0.087231,388234,317587
1059,0.086402,387599,317673
1063.92,0.085558,386688,317543
1067.61,0.085588,386598,317447
1071.29,0.084960,387377,318547
1074.96,0.083949,388536,320245
1078.63,0.083740,389855,321487
1082.3,0.082980,391215,323173
1085.96,0.081843,393215,325677
1090.84,0.080956,396270,328878
1094.49,0.081199,398760,330760
1098.14,0.079600,400987,333834
1101.79,0.079614,403477,335896
1105.43,0.079425,406116,338240
1109.06,0.078651,407701,340166
1112.7,0.078809,409859,341842
1117.53,0.077653,412494,344957
1121.15,0.078594,414909,346225
1124.77,0.079224,416559,347098
1128.38,0.079050,418532,348882
1131.99,0.080822,419956,348644
1135.6,0.082327,421946,349084
1139.2,0.083538,423881,349708
1143.99,0.085854,426786,350232
1147.58,0.086994,428617,350813
1151.17,0.087535,431169,352462
1154.75,0.088684,433579,353496
1158.33,0.090126,436264,354506
1161.91,0.091949,439132,355342
1165.48,0.094123,442389,356190
1169.04,0.096004,446101,357626
1173.79,0.099481,451929,359409
1177.34,0.101688,456026,360829
1180.9,0.103925,461306,363132
1184.44,0.105673,467657,366652
1187.99,0.106175,473969,371172
1191.52,0.106232,479856,375733
1195.06,0.106170,487372,381672
1199.76,0.105415,497347,390162
1203.29,0.105055,504311,395953
1206.81,0.104602,511507,402022
1210.33,0.104075,519078,408468
1213.84,0.103209,527163,415658
1217.35,0.102672,534208,421734
1220.85,0.102021,540472,427319
1225.51,0.101214,549929,435605
1229.01,0.100745,556888,441594
1232.5,0.100117,562180,446435
1235.98,0.099799,567975,451367
1239.46,0.098292,574815,458391
1242.94,0.097760,582782,465314
1246.41,0.097415,591476,472631
1251.03,0.097076,604016,483028
1254.5,0.097220,612289,489482
1257.96,0.097556,619125,494564
1261.41,0.098166,624551,498198
1264.86,0.098845,629900,501680
1268.31,0.099022,634345,505014
1271.75,0.099687,638574,507603
1276.33,0.099939,642499,510427
1279.76,0.099814,645905,513280
1283.19,0.099170,648307,515954
1286.61,0.099153,650446,517676
1290.03,0.098854,652132,519376
1293.44,0.098098,653907,521696
1296.85,0.098235,655963,523172
1301.39,0.097829,657349,524767
1304.8,0.098170,657558,524523
1308.19,0.098344,658515,525076
1311.58,0.098519,658804,525094
1314.97,0.099117,659011,524537
1318.36,0.099568,658272,523404
1321.73,0.099578,658022,523193
1326.23,0.100902,657870,521480
1329.6,0.101535,656482,519622
1332.97,0.102710,654926,516990
1336.33,0.103996,653727,514518
1339.69,0.105531,652497,511738
1343.04,0.107524,649913,507378
1346.39,0.109194,647671,503687
1349.73,0.111313,645338,499429
1354.18,0.114658,641175,492401
1357.52,0.116488,638376,488190
1360.85,0.118113,635805,484408
1364.17,0.120060,633413,480426
1367.49,0.122925,631026,475469
1370.81,0.124486,628050,471529
1374.12,0.127413,625034,466112
1378.54,0.130760,620272,459010
1381.84,0.133834,616892,453289
1385.14,0.137297,613613,447299
1388.43,0.141971,611526,441005
1391.72,0.147543,610663,434769
1395.01,0.151814,610634,430494
1398.29,0.157747,611700,425394
1402.66,0.165227,614051,419737
1405.93,0.171550,616268,415164
1409.2,0.177093,617795,410914
1412.46,0.182563,618872,406479
1415.72,0.187191,619795,402770
1418.98,0.191849,620495,398923
1422.23,0.195860,621087,395633
1426.56,0.199355,621375,392644
1429.8,0.202823,621616,389672
1433.04,0.205185,622129,387878
1436.27,0.208012,621526,384988
1439.5,0.210186,621113,382811
1442.72,0.212113,620921,380999
1445.94,0.214562,620270,378459
1450.23,0.217903,618860,374705
1453.44,0.220404,617697,371853
1456.64,0.222792,616264,368956
1459.85,0.225482,614413,365577
1463.04,0.227697,612307,362470
1466.24,0.230579,610032,358735
1469.43,0.233769,607345,354541
1473.67,0.238837,603789,348376
1476.85,0.243681,601175,343020
1480.02,0.248135,597737,337579
1483.19,0.253441,594479,331662
1486.36,0.258616,591232,325943
1489.52,0.262253,587853,321378
1492.68,0.265043,583875,317159
1496.89,0.266354,578062,313055
1500.03,0.267362,574159,310220
1503.18,0.267397,570285,308102
1506.32,0.266945,565444,305805
1509.45,0.264918,560571,304588
1512.58,0.263563,555821,302951
1515.71,0.261117,550344,301660
1519.87,0.258822,543983,299753
1522.99,0.255825,538764,298933
1526.1,0.253810,533692,297496
1529.21,0.251510,527902,295831
1532.32,0.248592,521886,294431
1535.42,0.244882,515888,293544
1538.51,0.242514,509987,291773
1541.6,0.240058,503936,289946
1545.72,0.235986,494694,287310
1548.8,0.232779,488378,285744
1551.88,0.230828,481832,283183
1554.95,0.228780,474989,280481
1558.02,0.226745,467818,277544
1561.08,0.225625,460730,274045
1564.15,0.225101,454170,270469
1568.22,0.223159,444181,265706
1571.27,0.222623,436947,261701
1574.32,0.221897,429598,257730
1577.36,0.220587,422039,253960
1580.4,0.218775,414375,250391
1583.43,0.217639,406354,246187
1586.46,0.215734,398475,242475
1590.49,0.214304,388982,237479
1593.51,0.212506,380708,233392
1596.53,0.210707,372727,229448
1599.54,0.208217,365060,226020
1602.55,0.206490,357543,222248
1605.55,0.204405,349495,218291
1608.55,0.202734,341154,213903
1612.54,0.200190,330877,208678
1615.53,0.196932,322904,205183
1618.51,0.197362,315116,200036
1621.49,0.196219,307217,195536
1624.47,0.195315,299481,191009
1627.44,0.192743,292112,187416
1630.41,0.193006,284245,182258
1634.36,0.191833,274079,176215
1637.32,0.190185,266916,172262
1640.27,0.189675,259612,167745
1643.22,0.189123,251804,162907
1646.16,0.187276,244348,158757
1649.1,0.187762,236703,153618
1652.04,0.186367,228171,148557
1655.95,0.182039,215408,141652
1658.88,0.177919,204937,136051
1661.8,0.175748,193395,129032
1664.72,0.166423,179728,122516
1667.63,0.153091,163642,115028
1670.54,0.139025,146312,106232
1673.44,0.126819,128451,95922
1677.31,0.104761,105080,82558
1680.21,0.096909,88906,71125
1683.1,0.092021,75033,60706
1685.99,0.090716,63520,51546
1688.87,0.095550,53714,43106
1691.75,0.096356,45653,36569
1694.62,0.110658,39137,30334
1697.49,0.115610,33776,25882
1701.31,0.120364,28175,21355