File: samples/wool/wool-000811/Column 1_050534_20150331_115215.csv
Method:,Column 1,,
Host Date-Time:,31/3/15 @ 11:52:15,,
Header Version:,1,,
System Temp (C):,31.01,,
Detector Temp (C):,30.41,,
Humidity (%):,4.19,,
Lamp PD:,3829,,
Shift Vector Coefficients:,-10.5391,0.0761263,-0.000134223,,
Pixel to Wavelength Coefficients:,1775.68,-0.916766,-0.000235065,,
Serial Number:,5510004,,
Scan Config Name:,Column 1,,
Scan Config Type:,Slew,,
Section 1,,
Start wavelength (nm):,900,,
End wavelength (nm):,1700,,
Pattern Pixel Width (nm):,   7.03,,,,
Exposure (ms):,  0.635,,,,
Digital Resolution:,228,,
Num Repeats:,6,,
PGA Gain:,64,,
Total Measurement Time in sec:,  2.716,,
Wavelength (nm),Absorbance (AU),Reference Signal (unitless),Sample Signal (unitless)
901.51,0.043679,108485,98105
905.376,0.050008,121306,108112
909.237,0.050714,131909,117371
913.095,0.051551,143299,127260
916.948,0.050439,156982,139769
922.079,0.049732,179937,160468
925.923,0.050159,200504,178634
929.762,0.050850,222660,198058
933.597,0.052756,244426,216467
937.427,0.052385,263972,233977
941.254,0.052886,281845,249531
945.076,0.053410,297271,262871
950.165,0.053703,315605,278895
953.978,0.053923,328029,289727
957.786,0.054271,340470,300475
961.59,0.054122,352317,311037
965.389,0.054297,363056,320388
969.185,0.054555,373162,329111
972.976,0.055115,382632,337028
976.763,0.056216,391202,343704
981.806,0.056732,400190,351184
985.583,0.057574,406088,355669
989.355,0.058187,410162,358731
993.124,0.058655,412868,360708
996.888,0.058797,414263,361809
1000.65,0.059987,415476,361875
1004.4,0.061148,415479,360912
1009.41,0.062238,414358,359036
1013.15,0.063007,412923,357159
1016.89,0.063741,411526,355350
1020.63,0.063336,409066,353555
1024.36,0.064017,406777,351026
1028.09,0.062833,404427,349951
1031.82,0.063004,401911,347637
1036.78,0.061950,398410,345446
1040.49,0.061256,396204,344083
1044.2,0.061662,394236,342054
1047.91,0.060994,392042,340674
1051.61,0.059521,389823,339896
1055.31,0.058653,388234,339188
1059,0.058594,387599,338679
1063.92,0.056767,386688,339308
1067.61,0.056677,386598,339299
1071.29,0.055275,387377,341082
1074.96,0.054743,388536,342522
1078.63,0.053761,389855,344463
1082.3,0.053484,391215,345885
1085.96,0.052551,393215,348401
1090.84,0.052021,396270,351536
1094.49,0.051434,398760,354224
1098.14,0.050534,400987,356941
1101.79,0.050968,403477,358799
1105.43,0.050874,406116,361224
1109.06,0.050317,407701,363099
1112.7,0.050085,409859,365216
1117.53,0.050346,412494,367343
1121.15,0.051058,414909,368888
1124.77,0.051730,416559,369783
1128.38,0.053142,418532,370328
1131.99,0.055061,419956,369950
1135.6,0.057168,421946,369904
1139.2,0.059254,423881,369820
1143.99,0.061710,426786,370254
1147.58,0.062896,428617,370829
1151.17,0.064239,431169,371885
1154.75,0.066343,433579,372156
1158.33,0.068476,436264,372626
1161.91,0.070443,439132,373381
1165.48,0.073749,442389,373298
1169.04,0.076325,446101,374204
1173.79,0.081089,451929,374957
1177.34,0.083670,456026,376114
1180.9,0.085930,461306,378494
1184.44,0.087421,467657,382390
1187.99,0.088968,473969,386173
1191.52,0.088833,479856,391091
1195.06,0.087502,487372,398436
1199.76,0.085771,497347,408215
1203.29,0.084640,504311,415010
1206.81,0.083719,511507,421825
1210.33,0.082434,519078,429337
1213.84,0.081467,527163,436996
1217.35,0.080675,534208,443645
1220.85,0.079141,540472,450435
1225.51,0.077918,549929,459609
1229.01,0.077386,556888,465996
1232.5,0.075950,562180,471982
1235.98,0.075339,567975,477519
1239.46,0.074268,574815,484462
1242.94,0.073134,582782,492461
1246.41,0.072381,591476,500675
1251.03,0.071750,604016,512033
1254.5,0.071796,612289,518992
1257.96,0.072379,619125,524082
1261.41,0.072760,624551,528211
1264.86,0.073819,629900,531438
1268.31,0.073954,634345,535022
1271.75,0.074796,638574,537545
1276.33,0.075127,642499,540437
1279.76,0.075090,645905,543349
1283.19,0.074251,648307,546424
1286.61,0.074241,650446,548240
1290.03,0.073521,652132,550572
1293.44,0.073352,653907,552286
1296.85,0.072842,655963,554673
1301.39,0.073241,657349,555335
1304.8,0.072643,657558,556277
1308.19,0.073360,658515,556168
1311.58,0.073430,658804,556322
1314.97,0.074212,659011,555496
1318.36,0.074556,658272,554433
1321.73,0.075497,658022,553023
1326.23,0.076468,657870,551661
1329.6,0.077220,656482,549544
1332.97,0.078625,654926,546471
1336.33,0.080303,653727,543367
1339.69,0.082120,652497,540081
1343.04,0.084379,649913,535151
1346.39,0.086275,647671,530982
1349.73,0.088834,645338,525961
1354.18,0.092808,641175,517808
1357.52,0.094695,638376,513312
1360.85,0.097469,635805,507990
1364.17,0.099998,633413,503140
1367.49,0.102712,631026,498121
1370.81,0.105248,628050,492886
1374.12,0.108115,625034,487291
1378.54,0.111998,620272,479274
1381.84,0.116138,616892,472140
1385.14,0.121053,613613,464346
1388.43,0.126426,611526,457077
1391.72,0.132332,610663,450266
1395.01,0.138692,610634,443700
1398.29,0.145169,611700,437894
1402.66,0.154403,614051,430330
1405.93,0.161481,616268,424902
1409.2,0.168488,617795,419137
1412.46,0.174318,618872,414269
1415.72,0.179998,619795,409496
1418.98,0.184780,620495,405470
1422.23,0.189160,621087,401784
1426.56,0.194411,621375,397139
1429.8,0.197377,621616,394589
1433.04,0.200395,622129,392180
1436.27,0.203087,621526,389379
1439.5,0.206174,621113,386364
1442.72,0.208351,620921,384313
1445.94,0.210908,620270,381657
1450.23,0.214349,618860,377784
1453.44,0.217484,617697,374362
1456.64,0.220892,616264,370574
1459.85,0.222748,614413,367885
1463.04,0.225858,612307,364008
1466.24,0.228688,610032,360300
1469.43,0.231483,607345,356412
1473.67,0.236167,603789,350524
1476.85,0.240996,601175,345148
1480.02,0.245783,597737,339412
1483.19,0.251657,594479,333027
1486.36,0.257285,591232,326944
1489.52,0.262231,587853,321394
1492.68,0.265665,583875,316705
1496.89,0.269410,578062,310860
1500.03,0.269400,574159,308768
1503.18,0.270170,570285,306141
1506.32,0.269405,565444,304078
1509.45,0.268376,560571,302172
1512.58,0.267452,555821,300250
1515.71,0.265095,550344,298909
1519.87,0.261640,543983,297814
1522.99,0.259482,538764,296426
1526.1,0.256043,533692,295970
1529.21,0.253378,527902,294561
1532.32,0.249963,521886,293503
1535.42,0.246412,515888,292512
1538.51,0.243126,509987,291362
1541.6,0.239660,503936,290212
1545.72,0.235421,494694,287684
1548.8,0.232562,488378,285887
1551.88,0.229154,481832,284277
1554.95,0.227065,474989,281591
1558.02,0.225071,467818,278616
1561.08,0.223508,460730,275384
1564.15,0.222860,454170,271868
1568.22,0.221343,444181,266819
1571.27,0.220093,436947,263230
1574.32,0.219664,429598,259059
1577.36,0.218383,422039,255252
1580.4,0.215692,414375,252175
1583.43,0.214089,406354,248208
1586.46,0.212703,398475,244173
1590.49,0.209537,388982,240100
1593.51,0.207809,380708,235930
1596.53,0.205426,372727,232255
1599.54,0.203309,365060,228589
1602.55,0.199566,357543,225820
1605.55,0.198269,349495,221397
1608.55,0.196125,341154,217183
1612.54,0.194059,330877,211645
1615.53,0.190274,322904,208353
1618.51,0.189496,315116,203692
1621.49,0.186963,307217,199748
1624.47,0.186901,299481,194746
1627.44,0.185288,292112,190661
1630.41,0.183792,284245,186166
1634.36,0.182606,274079,179999
1637.32,0.181539,266916,175726
1640.27,0.180491,259612,171330
1643.22,0.176908,251804,167554
1646.16,0.177276,244348,162455
1649.1,0.176766,236703,157557
1652.04,0.176503,228171,151970
1655.95,0.175343,215408,143853
1658.88,0.175065,204937,136948
1661.8,0.174169,193395,129502
1664.72,0.171981,179728,120958
1667.63,0.169061,163642,110875
1670.54,0.165341,146312,99986
1673.44,0.163057,128451,88243
1677.31,0.162977,105080,72201
1680.21,0.161655,88906,61274
1683.1,0.163572,75033,51485
1685.99,0.172737,63520,42675
1688.87,0.179468,53714,35532
1691.75,0.184962,45653,29820
1694.62,0.189896,39137,25275
1697.49,0.184354,33776,22093
1701.31,0.195413,28175,17966