File: samples/wool/wool-000811/Column 1_050534_20150331_115224.csv
Method:,Column 1,,
Host Date-Time:,31/3/15 @ 11:52:24,,
Header Version:,1,,
System Temp (C):,31.1,,
Detector Temp (C):,30.26,,
Humidity (%):,4.1,,
Lamp PD:,3828,,
Shift Vector Coefficients:,-10.5391,0.0761263,-0.000134223,,
Pixel to Wavelength Coefficients:,1775.68,-0.916766,-0.000235065,,
Serial Number:,5510004,,
Scan Config Name:,Column 1,,
Scan Config Type:,Slew,,
Section 1,,
Start wavelength (nm):,900,,
End wavelength (nm):,1700,,
Pattern Pixel Width (nm):,   7.03,,,,
Exposure (ms):,  0.635,,,,
Digital Resolution:,228,,
Num Repeats:,6,,
PGA Gain:,64,,
Total Measurement Time in sec:,  2.730,,
Wavelength (nm),Absorbance (AU),Reference Signal (unitless),Sample Signal (unitless)
901.51,0.042781,108485,98308
905.376,0.047976,121306,108619
909.237,0.048893,131909,117864
913.095,0.049631,143299,127824
916.948,0.049111,156982,140197
922.079,0.050038,179937,160355
925.923,0.049758,200504,178799
929.762,0.050508,222660,198214
933.597,0.052160,244426,216764
937.427,0.051339,263972,234541
941.254,0.052950,281845,249494
945.076,0.052413,297271,263475
950.165,0.052656,315605,279568
953.978,0.051894,328029,291084
957.786,0.053220,340470,301203
961.59,0.053021,352317,311826
965.389,0.053892,363056,320687
969.185,0.054573,373162,329097
972.976,0.055306,382632,336880
976.763,0.055979,391202,343892
981.806,0.056136,400190,351666
985.583,0.056912,406088,356212
989.355,0.058053,410162,358841
993.124,0.058162,412868,361118
996.888,0.058965,414263,361669
1000.65,0.059938,415476,361916
1004.4,0.060895,415479,361122
1009.41,0.062430,414358,358877
1013.15,0.062634,412923,357466
1016.89,0.063140,411526,355842
1020.63,0.062466,409066,354264
1024.36,0.063090,406777,351776
1028.09,0.062714,404427,350047
1031.82,0.062387,401911,348131
1036.78,0.061119,398410,346108
1040.49,0.060885,396204,344377
1044.2,0.060861,394236,342685
1047.91,0.059341,392042,341973
1051.61,0.059519,389823,339898
1055.31,0.058777,388234,339091
1059,0.057977,387599,339161
1063.92,0.056634,386688,339412
1067.61,0.055677,386598,340081
1071.29,0.054949,387377,341338
1074.96,0.054449,388536,342754
1078.63,0.054128,389855,344172
1082.3,0.053101,391215,346190
1085.96,0.052153,393215,348720
1090.84,0.051530,396270,351934
1094.49,0.050768,398760,354767
1098.14,0.050231,400987,357190
1101.79,0.050219,403477,359418
1105.43,0.050622,406116,361433
1109.06,0.050375,407701,363050
1112.7,0.049786,409859,365467
1117.53,0.049856,412494,367758
1121.15,0.051037,414909,368906
1124.77,0.051504,416559,369975
1128.38,0.052944,418532,370497
1131.99,0.054233,419956,370656
1135.6,0.056585,421946,370401
1139.2,0.059057,423881,369987
1143.99,0.061374,426786,370541
1147.58,0.062550,428617,371124
1151.17,0.063904,431169,372172
1154.75,0.066133,433579,372336
1158.33,0.067864,436264,373152
1161.91,0.070634,439132,373217
1165.48,0.072873,442389,374051
1169.04,0.076318,446101,374210
1173.79,0.080361,451929,375586
1177.34,0.083222,456026,376502
1180.9,0.085513,461306,378858
1184.44,0.087479,467657,382339
1187.99,0.088170,473969,386883
1191.52,0.087836,479856,391990
1195.06,0.087159,487372,398751
1199.76,0.086306,497347,407712
1203.29,0.084381,504311,415257
1206.81,0.083444,511507,422092
1210.33,0.082002,519078,429765
1213.84,0.081285,527163,437180
1217.35,0.079663,534208,444680
1220.85,0.078965,540472,450618
1225.51,0.077188,549929,460382
1229.01,0.077290,556888,466099
1232.5,0.075859,562180,472081
1235.98,0.075114,567975,477766
1239.46,0.073757,574815,485033
1242.94,0.072613,582782,493052
1246.41,0.071939,591476,501185
1251.03,0.071632,604016,512173
1254.5,0.071655,612289,519160
1257.96,0.072241,619125,524249
1261.41,0.072870,624551,528078
1264.86,0.072992,629900,532451
1268.31,0.073889,634345,535102
1271.75,0.074419,638574,538012
1276.33,0.074635,642499,541050
1279.76,0.074539,645905,544038
1283.19,0.074204,648307,546483
1286.61,0.073684,650446,548943
1290.03,0.073380,652132,550751
1293.44,0.072762,653907,553037
1296.85,0.072757,655963,554782
1301.39,0.072576,657349,556186
1304.8,0.072388,657558,556604
1308.19,0.072795,658515,556891
1311.58,0.073073,658804,556779
1314.97,0.073787,659011,556040
1318.36,0.074373,658272,554667
1321.73,0.074857,658022,553839
1326.23,0.076118,657870,552106
1329.6,0.076807,656482,550067
1332.97,0.078070,654926,547170
1336.33,0.079786,653727,544015
1339.69,0.081457,652497,540906
1343.04,0.083870,649913,535779
1346.39,0.086136,647671,531152
1349.73,0.088538,645338,526319
1354.18,0.092178,641175,518559
1357.52,0.094747,638376,513251
1360.85,0.096921,635805,508631
1364.17,0.099590,633413,503613
1367.49,0.102023,631026,498912
1370.81,0.104759,628050,493441
1374.12,0.107746,625034,487705
1378.54,0.111526,620272,479795
1381.84,0.116050,616892,472236
1385.14,0.120279,613613,465174
1388.43,0.125695,611526,457847
1391.72,0.131700,610663,450922
1395.01,0.138184,610634,444219
1398.29,0.144586,611700,438483
1402.66,0.153580,614051,431146
1405.93,0.161190,616268,425187
1409.2,0.167475,617795,420116
1412.46,0.173852,618872,414714
1415.72,0.179868,619795,409619
1418.98,0.183961,620495,406235
1422.23,0.188733,621087,402179
1426.56,0.194007,621375,397509
1429.8,0.197080,621616,394859
1433.04,0.200375,622129,392198
1436.27,0.202689,621526,389736
1439.5,0.205232,621113,387203
1442.72,0.207635,620921,384947
1445.94,0.210707,620270,381833
1450.23,0.214065,618860,378031
1453.44,0.217128,617697,374669
1456.64,0.219524,616264,371743
1459.85,0.222178,614413,368368
1463.04,0.224861,612307,364845
1466.24,0.227720,610032,361104
1469.43,0.230472,607345,357243
1473.67,0.236123,603789,350560
1476.85,0.239875,601175,346040
1480.02,0.245243,597737,339834
1483.19,0.251339,594479,333271
1486.36,0.256792,591232,327315
1489.52,0.261673,587853,321807
1492.68,0.265007,583875,317185
1496.89,0.268008,578062,311865
1500.03,0.268859,574159,309153
1503.18,0.269582,570285,306556
1506.32,0.269209,565444,304215
1509.45,0.268092,560571,302370
1512.58,0.266168,555821,301139
1515.71,0.264282,550344,299469
1519.87,0.260599,543983,298529
1522.99,0.258084,538764,297382
1526.1,0.255763,533692,296161
1529.21,0.252038,527902,295471
1532.32,0.249249,521886,293986
1535.42,0.245820,515888,292911
1538.51,0.242876,509987,291530
1541.6,0.239807,503936,290114
1545.72,0.234995,494694,287966
1548.8,0.231260,488378,286745
1551.88,0.228199,481832,284903
1554.95,0.226747,474989,281797
1558.02,0.225012,467818,278654
1561.08,0.222712,460730,275889
1564.15,0.222507,454170,272089
1568.22,0.221104,444181,266966
1571.27,0.219942,436947,263322
1574.32,0.218751,429598,259604
1577.36,0.217135,422039,255987
1580.4,0.215332,414375,252384
1583.43,0.213096,406354,248776
1586.46,0.211829,398475,244665
1590.49,0.208381,388982,240740
1593.51,0.207323,380708,236194
1596.53,0.204565,372727,232716
1599.54,0.201866,365060,229350
1602.55,0.199226,357543,225997
1605.55,0.197164,349495,221961
1608.55,0.195467,341154,217512
1612.54,0.192120,330877,212592
1615.53,0.190595,322904,208199
1618.51,0.188664,315116,204083
1621.49,0.186072,307217,200158
1624.47,0.186061,299481,195123
1627.44,0.184230,292112,191126
1630.41,0.183105,284245,186461
1634.36,0.180872,274079,180719
1637.32,0.180216,266916,176262
1640.27,0.179501,259612,171721
1643.22,0.177079,251804,167488
1646.16,0.177273,244348,162456
1649.1,0.177417,236703,157321
1652.04,0.175033,228171,152485
1655.95,0.175714,215408,143730
1658.88,0.173656,204937,137393
1661.8,0.173874,193395,129590
1664.72,0.169500,179728,121651
1667.63,0.167692,163642,111225
1670.54,0.164720,146312,100129
1673.44,0.159797,128451,88908
1677.31,0.159556,105080,72772
1680.21,0.160756,88906,61401
1683.1,0.159826,75033,51931
1685.99,0.170575,63520,42888
1688.87,0.175150,53714,35887
1691.75,0.178873,45653,30241
1694.62,0.179858,39137,25866
1697.49,0.183627,33776,22130
1701.31,0.187745,28175,18286