File: samples/wool/wool-000811/Column 1_050611_20150331_122852.csv
Method:,Column 1,,
Host Date-Time:,31/3/15 @ 12:28:52,,
Header Version:,1,,
System Temp (C):,34.08,,
Detector Temp (C):,34.89,,
Humidity (%):,1.66,,
Lamp PD:,3817,,
Shift Vector Coefficients:,-10.5391,0.0761263,-0.000134223,,
Pixel to Wavelength Coefficients:,1775.68,-0.916766,-0.000235065,,
Serial Number:,5510004,,
Scan Config Name:,Column 1,,
Scan Config Type:,Slew,,
Section 1,,
Start wavelength (nm):,900,,
End wavelength (nm):,1700,,
Pattern Pixel Width (nm):,   7.03,,,,
Exposure (ms):,  0.635,,,,
Digital Resolution:,228,,
Num Repeats:,6,,
PGA Gain:,64,,
Total Measurement Time in sec:,  2.722,,
Wavelength (nm),Absorbance (AU),Reference Signal (unitless),Sample Signal (unitless)
901.51,0.069007,108485,92547
905.376,0.079307,121306,101059
909.237,0.078318,131909,110143
913.095,0.077094,143299,119991
916.948,0.079711,156982,130659
922.079,0.081224,179937,149244
925.923,0.081772,200504,166093
929.762,0.081907,222660,184389
933.597,0.081487,244426,202610
937.427,0.081187,263972,218963
941.254,0.080451,281845,234185
945.076,0.079121,297271,247760
950.165,0.078159,315605,263624
953.978,0.077515,328029,274408
957.786,0.077178,340470,285037
961.59,0.077814,352317,294523
965.389,0.077316,363056,303849
969.185,0.077313,373162,312309
972.976,0.077972,382632,319749
976.763,0.077819,391202,327026
981.806,0.078257,400190,334202
985.583,0.079355,406088,338271
989.355,0.079820,410162,341299
993.124,0.080660,412868,342887
996.888,0.080876,414263,343875
1000.65,0.081653,415476,344265
1004.4,0.082672,415479,343461
1009.41,0.084097,414358,341412
1013.15,0.084464,412923,339942
1016.89,0.084990,411526,338382
1020.63,0.084528,409066,336717
1024.36,0.084942,406777,334514
1028.09,0.084530,404427,332897
1031.82,0.084605,401911,330769
1036.78,0.083967,398410,328370
1040.49,0.084014,396204,326516
1044.2,0.083647,394236,325169
1047.91,0.083347,392042,323583
1051.61,0.083207,389823,321855
1055.31,0.082637,388234,320964
1059,0.082681,387599,320407
1063.92,0.081721,386688,320361
1067.61,0.081417,386598,320511
1071.29,0.080739,387377,321658
1074.96,0.080000,388536,323170
1078.63,0.079132,389855,324916
1082.3,0.078023,391215,326883
1085.96,0.077525,393215,328931
1090.84,0.076585,396270,332205
1094.49,0.075921,398760,334804
1098.14,0.075454,400987,337036
1101.79,0.075582,403477,339029
1105.43,0.074679,406116,341957
1109.06,0.074145,407701,343714
1112.7,0.073578,409859,345984
1117.53,0.073427,412494,348330
1121.15,0.074531,414909,349480
1124.77,0.074510,416559,350886
1128.38,0.075407,418532,351821
1131.99,0.075708,419956,352773
1135.6,0.077171,421946,353253
1139.2,0.079045,423881,353345
1143.99,0.080709,426786,354406
1147.58,0.081787,428617,355044
1151.17,0.082902,431169,356242
1154.75,0.083574,433579,357680
1158.33,0.084382,436264,359226
1161.91,0.086554,439132,359783
1165.48,0.088888,442389,360509
1169.04,0.090926,446101,361832
1173.79,0.093982,451929,363989
1177.34,0.095909,456026,365663
1180.9,0.098374,461306,367803
1184.44,0.100160,467657,371336
1187.99,0.101186,473969,375460
1191.52,0.101695,479856,379678
1195.06,0.100903,487372,386329
1199.76,0.100282,497347,394800
1203.29,0.099709,504311,400857
1206.81,0.099105,511507,407143
1210.33,0.098844,519078,413417
1213.84,0.098235,527163,420446
1217.35,0.097535,534208,426752
1220.85,0.096963,540472,432325
1225.51,0.095876,549929,440992
1229.01,0.095851,556888,446598
1232.5,0.094553,562180,452191
1235.98,0.093979,567975,457457
1239.46,0.093306,574815,463684
1242.94,0.092392,582782,471101
1246.41,0.091932,591476,478636
1251.03,0.091414,604016,489367
1254.5,0.091903,612289,495511
1257.96,0.092451,619125,500411
1261.41,0.093105,624551,504038
1264.86,0.093365,629900,508050
1268.31,0.093763,634345,511167
1271.75,0.094057,638574,514226
1276.33,0.094752,642499,516560
1279.76,0.094642,645905,519430
1283.19,0.093728,648307,522459
1286.61,0.093607,650446,524329
1290.03,0.093331,652132,526023
1293.44,0.092827,653907,528067
1296.85,0.092334,655963,530329
1301.39,0.092341,657349,531441
1304.8,0.092325,657558,531629
1308.19,0.092440,658515,532262
1311.58,0.092503,658804,532419
1314.97,0.092907,659011,532091
1318.36,0.093186,658272,531153
1321.73,0.093643,658022,530392
1326.23,0.094369,657870,529384
1329.6,0.095296,656482,527141
1332.97,0.096227,654926,524765
1336.33,0.097021,653727,522848
1339.69,0.098376,652497,520239
1343.04,0.099868,649913,516401
1346.39,0.101751,647671,512393
1349.73,0.103629,645338,508345
1354.18,0.106577,641175,501648
1357.52,0.108656,638376,497074
1360.85,0.110294,635805,493208
1364.17,0.112766,633413,488564
1367.49,0.114716,631026,484542
1370.81,0.117056,628050,479665
1374.12,0.118689,625034,475570
1378.54,0.121823,620272,468554
1381.84,0.124581,616892,463050
1385.14,0.127654,613613,457341
1388.43,0.131217,611526,452062
1391.72,0.135233,610663,447269
1395.01,0.139026,610634,443358
1398.29,0.144080,611700,438994
1402.66,0.150080,614051,434635
1405.93,0.154717,616268,431571
1409.2,0.159371,617795,428029
1412.46,0.163601,618872,424619
1415.72,0.167503,619795,421449
1418.98,0.170835,620495,418700
1422.23,0.174692,621087,415394
1426.56,0.177898,621375,412530
1429.8,0.180537,621616,410190
1433.04,0.182883,622129,408317
1436.27,0.185519,621526,405453
1439.5,0.187230,621113,403590
1442.72,0.189966,620921,400932
1445.94,0.192230,620270,398429
1450.23,0.195771,618860,394295
1453.44,0.198399,617697,391180
1456.64,0.201146,616264,387812
1459.85,0.203801,614413,384290
1463.04,0.207363,612307,379845
1466.24,0.211185,610032,375118
1469.43,0.214271,607345,370821
1473.67,0.220309,603789,363560
1476.85,0.226652,601175,356738
1480.02,0.232138,597737,350245
1483.19,0.238755,594479,343069
1486.36,0.244742,591232,336524
1489.52,0.249724,587853,330784
1492.68,0.252944,583875,326119
1496.89,0.254576,578062,321661
1500.03,0.255939,574159,318488
1503.18,0.255456,570285,316691
1506.32,0.254606,565444,314618
1509.45,0.253458,560571,312732
1512.58,0.251788,555821,311277
1515.71,0.249151,550344,310087
1519.87,0.246164,543983,308618
1522.99,0.243852,538764,307289
1526.1,0.241171,533692,306281
1529.21,0.238698,527902,304688
1532.32,0.235952,521886,303126
1535.42,0.233007,515888,301681
1538.51,0.229924,509987,300355
1541.6,0.226916,503936,298854
1545.72,0.222799,494694,296168
1548.8,0.220062,488378,294235
1551.88,0.218265,481832,291495
1554.95,0.216101,474989,288790
1558.02,0.214079,467818,285758
1561.08,0.212370,460730,282538
1564.15,0.212637,454170,278344
1568.22,0.211617,444181,272862
1571.27,0.210969,436947,268819
1574.32,0.209938,429598,264926
1577.36,0.208677,422039,261021
1580.4,0.207711,414375,256852
1583.43,0.206411,406354,252635
1586.46,0.204224,398475,248987
1590.49,0.202964,388982,243762
1593.51,0.201471,380708,239398
1596.53,0.199431,372727,235483
1599.54,0.197290,365060,231779
1602.55,0.195508,357543,227940
1605.55,0.193166,349495,224014
1608.55,0.191241,341154,219639
1612.54,0.188977,330877,214136
1615.53,0.188464,322904,209223
1618.51,0.187138,315116,204801
1621.49,0.186437,307217,199990
1624.47,0.184468,299481,195840
1627.44,0.183279,292112,191545
1630.41,0.183072,284245,186475
1634.36,0.182446,274079,180065
1637.32,0.181131,266916,175891
1640.27,0.180210,259612,171441
1643.22,0.178154,251804,167074
1646.16,0.179065,244348,161787
1649.1,0.177945,236703,157130
1652.04,0.176471,228171,151981
1655.95,0.174263,215408,144211
1658.88,0.171068,204937,138214
1661.8,0.163869,193395,132610
1664.72,0.155816,179728,125545
1667.63,0.142543,163642,117856
1670.54,0.129790,146312,108515
1673.44,0.115478,128451,98460
1677.31,0.095924,105080,84255
1680.21,0.080934,88906,73790
1683.1,0.079046,75033,62547
1685.99,0.077056,63520,53193
1688.87,0.079518,53714,44727
1691.75,0.083681,45653,37652
1694.62,0.091460,39137,31705
1697.49,0.093640,33776,27225
1701.31,0.106101,28175,22068