File: samples/wool/wool-000811/Column 1_050599_20150331_122258.csv
Method:,Column 1,,
Host Date-Time:,31/3/15 @ 12:22:58,,
Header Version:,1,,
System Temp (C):,34.01,,
Detector Temp (C):,34.79,,
Humidity (%):,1.76,,
Lamp PD:,3818,,
Shift Vector Coefficients:,-10.5391,0.0761263,-0.000134223,,
Pixel to Wavelength Coefficients:,1775.68,-0.916766,-0.000235065,,
Serial Number:,5510004,,
Scan Config Name:,Column 1,,
Scan Config Type:,Slew,,
Section 1,,
Start wavelength (nm):,900,,
End wavelength (nm):,1700,,
Pattern Pixel Width (nm):,   7.03,,,,
Exposure (ms):,  0.635,,,,
Digital Resolution:,228,,
Num Repeats:,6,,
PGA Gain:,64,,
Total Measurement Time in sec:,  2.669,,
Wavelength (nm),Absorbance (AU),Reference Signal (unitless),Sample Signal (unitless)
901.51,0.069125,108485,92522
905.376,0.076997,121306,101598
909.237,0.077482,131909,110355
913.095,0.077062,143299,120000
916.948,0.080892,156982,130304
922.079,0.079797,179937,149735
925.923,0.082504,200504,165813
929.762,0.083146,222660,183864
933.597,0.082448,244426,202162
937.427,0.081749,263972,218680
941.254,0.081283,281845,233737
945.076,0.079497,297271,247546
950.165,0.079330,315605,262914
953.978,0.078206,328029,273972
957.786,0.078603,340470,284103
961.59,0.078829,352317,293836
965.389,0.078908,363056,302737
969.185,0.078865,373162,311195
972.976,0.079076,382632,318937
976.763,0.079562,391202,325716
981.806,0.080174,400190,332730
985.583,0.080116,406088,337679
989.355,0.081249,410162,340178
993.124,0.081269,412868,342407
996.888,0.081831,414263,343119
1000.65,0.082799,415476,343358
1004.4,0.083401,415479,342885
1009.41,0.085233,414358,340520
1013.15,0.085418,412923,339196
1016.89,0.085626,411526,337887
1020.63,0.085653,409066,335846
1024.36,0.085320,406777,334223
1028.09,0.085774,404427,331945
1031.82,0.084994,401911,330473
1036.78,0.084444,398410,328009
1040.49,0.084712,396204,325992
1044.2,0.084816,394236,324295
1047.91,0.084117,392042,323010
1051.61,0.084341,389823,321016
1055.31,0.083701,388234,320179
1059,0.083068,387599,320121
1063.92,0.082064,386688,320108
1067.61,0.081281,386598,320611
1071.29,0.081068,387377,321415
1074.96,0.081023,388536,322410
1078.63,0.080515,389855,323883
1082.3,0.079410,391215,325841
1085.96,0.078290,393215,328352
1090.84,0.077831,396270,331253
1094.49,0.076979,398760,333989
1098.14,0.076614,400987,336137
1101.79,0.076188,403477,338556
1105.43,0.076096,406116,340843
1109.06,0.075459,407701,342675
1112.7,0.075006,409859,344849
1117.53,0.074723,412494,347292
1121.15,0.075677,414909,348559
1124.77,0.074958,416559,350525
1128.38,0.076477,418532,350955
1131.99,0.077334,419956,351455
1135.6,0.078465,421946,352202
1139.2,0.080340,423881,352293
1143.99,0.082030,426786,353330
1147.58,0.083110,428617,353964
1151.17,0.084088,431169,355271
1154.75,0.084604,433579,356832
1158.33,0.086561,436264,357428
1161.91,0.087980,439132,358604
1165.48,0.090317,442389,359325
1169.04,0.092564,446101,360470
1173.79,0.095633,451929,362608
1177.34,0.097982,456026,363921
1180.9,0.099465,461306,366880
1184.44,0.101479,467657,370210
1187.99,0.102302,473969,374497
1191.52,0.102750,479856,378757
1195.06,0.102401,487372,384999
1199.76,0.101606,497347,393599
1203.29,0.100891,504311,399767
1206.81,0.100882,511507,405480
1210.33,0.099432,519078,412858
1213.84,0.099299,527163,419417
1217.35,0.098748,534208,425562
1220.85,0.097809,540472,431484
1225.51,0.096982,549929,439870
1229.01,0.097092,556888,445324
1232.5,0.095955,562180,450734
1235.98,0.095508,567975,455849
1239.46,0.094864,574815,462024
1242.94,0.093802,582782,469574
1246.41,0.093022,591476,477436
1251.03,0.093090,604016,487482
1254.5,0.092424,612289,494917
1257.96,0.093343,619125,499385
1261.41,0.093964,624551,503042
1264.86,0.094798,629900,506376
1268.31,0.094853,634345,509885
1271.75,0.095700,638574,512285
1276.33,0.095780,642499,515338
1279.76,0.096041,645905,517759
1283.19,0.095277,648307,520600
1286.61,0.094936,650446,522727
1290.03,0.094676,652132,524396
1293.44,0.094024,653907,526614
1296.85,0.094122,655963,528150
1301.39,0.093468,657349,530064
1304.8,0.093611,657558,530058
1308.19,0.094018,658515,530332
1311.58,0.093955,658804,530642
1314.97,0.094258,659011,530438
1318.36,0.094740,658272,529255
1321.73,0.095287,658022,528389
1326.23,0.096087,657870,527294
1329.6,0.096948,656482,525140
1332.97,0.097474,654926,523261
1336.33,0.098791,653727,520721
1339.69,0.100293,652497,517947
1343.04,0.101461,649913,514510
1346.39,0.103805,647671,509976
1349.73,0.105414,645338,506259
1354.18,0.108358,641175,499596
1357.52,0.110279,638376,495219
1360.85,0.112290,635805,490946
1364.17,0.114448,633413,486675
1367.49,0.116574,631026,482473
1370.81,0.119102,628050,477411
1374.12,0.121233,625034,472793
1378.54,0.123790,620272,466436
1381.84,0.127303,616892,460157
1385.14,0.130048,613613,454827
1388.43,0.133662,611526,449524
1391.72,0.137971,610663,444458
1395.01,0.142480,610634,439846
1398.29,0.147191,611700,435860
1402.66,0.153538,614051,431188
1405.93,0.158287,616268,428038
1409.2,0.163552,617795,423928
1412.46,0.167904,618872,420433
1415.72,0.171882,619795,417221
1418.98,0.175443,620495,414281
1422.23,0.179115,621087,411185
1426.56,0.182958,621375,407752
1429.8,0.186017,621616,405047
1433.04,0.188288,622129,403267
1436.27,0.190555,621526,400778
1439.5,0.192881,621113,398373
1442.72,0.194727,620921,396560
1445.94,0.197467,620270,393653
1450.23,0.200352,618860,390158
1453.44,0.203039,617697,387023
1456.64,0.206166,616264,383355
1459.85,0.208453,614413,380196
1463.04,0.211393,612307,376336
1466.24,0.214548,610032,372224
1469.43,0.218805,607345,366970
1473.67,0.224243,603789,360282
1476.85,0.229989,601175,354007
1480.02,0.235954,597737,347181
1483.19,0.242035,594479,340488
1486.36,0.247711,591232,334231
1489.52,0.252237,587853,328876
1492.68,0.255447,583875,324245
1496.89,0.257691,578062,319362
1500.03,0.257983,574159,316993
1503.18,0.258228,570285,314676
1506.32,0.257617,565444,312444
1509.45,0.255694,560571,311126
1512.58,0.254986,555821,308993
1515.71,0.251585,550344,308354
1519.87,0.249260,543983,306426
1522.99,0.246790,538764,305217
1526.1,0.244421,533692,303997
1529.21,0.241382,527902,302811
1532.32,0.238523,521886,301337
1535.42,0.235404,515888,300021
1538.51,0.233529,509987,297872
1541.6,0.229663,503936,296970
1545.72,0.226118,494694,293913
1548.8,0.223235,488378,292093
1551.88,0.221126,481832,289581
1554.95,0.218266,474989,287354
1558.02,0.216384,467818,284245
1561.08,0.215766,460730,280337
1564.15,0.215244,454170,276678
1568.22,0.214422,444181,271105
1571.27,0.215074,436947,266290
1574.32,0.213107,429598,263000
1577.36,0.210718,422039,259797
1580.4,0.210576,414375,255163
1583.43,0.208662,406354,251329
1586.46,0.207460,398475,247139
1590.49,0.205499,388982,242343
1593.51,0.203333,380708,238374
1596.53,0.201526,372727,234350
1599.54,0.199573,365060,230564
1602.55,0.197676,357543,226805
1605.55,0.195805,349495,222657
1608.55,0.194259,341154,218118
1612.54,0.192003,330877,212649
1615.53,0.190169,322904,208403
1618.51,0.189134,315116,203862
1621.49,0.188867,307217,198874
1624.47,0.186725,299481,194825
1627.44,0.185693,292112,190483
1630.41,0.184832,284245,185721
1634.36,0.182806,274079,179916
1637.32,0.182355,266916,175396
1640.27,0.182521,259612,170531
1643.22,0.180500,251804,166174
1646.16,0.180665,244348,161192
1649.1,0.179814,236703,156455
1652.04,0.177553,228171,151603
1655.95,0.175835,215408,143690
1658.88,0.171241,204937,138159
1661.8,0.166546,193395,131795
1664.72,0.158189,179728,124861
1667.63,0.146192,163642,116870
1670.54,0.131173,146312,108170
1673.44,0.116016,128451,98338
1677.31,0.097132,105080,84021
1680.21,0.086806,88906,72799
1683.1,0.081595,75033,62181
1685.99,0.082338,63520,52550
1688.87,0.084272,53714,44240
1691.75,0.089850,45653,37121
1694.62,0.092571,39137,31624
1697.49,0.101252,33776,26752
1701.31,0.110532,28175,21844