File: samples/wool/wool-000811/Column 1_050571_20150331_121003.csv
Method:,Column 1,,
Host Date-Time:,31/3/15 @ 12:10:3,,
Header Version:,1,,
System Temp (C):,34.1,,
Detector Temp (C):,34.23,,
Humidity (%):,1.76,,
Lamp PD:,3818,,
Shift Vector Coefficients:,-10.5391,0.0761263,-0.000134223,,
Pixel to Wavelength Coefficients:,1775.68,-0.916766,-0.000235065,,
Serial Number:,5510004,,
Scan Config Name:,Column 1,,
Scan Config Type:,Slew,,
Section 1,,
Start wavelength (nm):,900,,
End wavelength (nm):,1700,,
Pattern Pixel Width (nm):,   7.03,,,,
Exposure (ms):,  0.635,,,,
Digital Resolution:,228,,
Num Repeats:,6,,
PGA Gain:,64,,
Total Measurement Time in sec:,  2.675,,
Wavelength (nm),Absorbance (AU),Reference Signal (unitless),Sample Signal (unitless)
901.51,0.031853,108485,100813
905.376,0.037574,121306,111252
909.237,0.040139,131909,120264
913.095,0.041846,143299,130136
916.948,0.042886,156982,142221
922.079,0.045037,179937,162212
925.923,0.046812,200504,180016
929.762,0.048052,222660,199338
933.597,0.048682,244426,218507
937.427,0.047385,263972,236686
941.254,0.048159,281845,252262
945.076,0.046869,297271,266860
950.165,0.046579,315605,283508
953.978,0.045434,328029,295446
957.786,0.046169,340470,306133
961.59,0.046066,352317,316860
965.389,0.046141,363056,326462
969.185,0.046785,373162,335052
972.976,0.046468,382632,343806
976.763,0.047833,391202,350403
981.806,0.047753,400190,358520
985.583,0.048179,406088,363447
989.355,0.049025,410162,366379
993.124,0.049477,412868,368412
996.888,0.050107,414263,369121
1000.65,0.050761,415476,369645
1004.4,0.052062,415479,368542
1009.41,0.053882,414358,366011
1013.15,0.053383,412923,365162
1016.89,0.054901,411526,362657
1020.63,0.054273,409066,361011
1024.36,0.053693,406777,359471
1028.09,0.053834,404427,357278
1031.82,0.053513,401911,355318
1036.78,0.053609,398410,352145
1040.49,0.053279,396204,350461
1044.2,0.052742,394236,349152
1047.91,0.052249,392042,347603
1051.61,0.052039,389823,345803
1055.31,0.051174,388234,345080
1059,0.050805,387599,344808
1063.92,0.049980,386688,344652
1067.61,0.049050,386598,345310
1071.29,0.048091,387377,346771
1074.96,0.047903,388536,347959
1078.63,0.047729,389855,349280
1082.3,0.046143,391215,351781
1085.96,0.045512,393215,354094
1090.84,0.045132,396270,357157
1094.49,0.045140,398760,359395
1098.14,0.044114,400987,362257
1101.79,0.044172,403477,364457
1105.43,0.043967,406116,367014
1109.06,0.043448,407701,368887
1112.7,0.043958,409859,370405
1117.53,0.043547,412494,373139
1121.15,0.044607,414909,374409
1124.77,0.044832,416559,375703
1128.38,0.046345,418532,376170
1131.99,0.047151,419956,376750
1135.6,0.049337,421946,376634
1139.2,0.050728,423881,377152
1143.99,0.053185,426786,377594
1147.58,0.053573,428617,378875
1151.17,0.055534,431169,379414
1154.75,0.056835,433579,380394
1158.33,0.058519,436264,381268
1161.91,0.060644,439132,381901
1165.48,0.063435,442389,382269
1169.04,0.065314,446101,383813
1173.79,0.069284,451929,385289
1177.34,0.071155,456026,387110
1180.9,0.074394,461306,388683
1184.44,0.076514,467657,392115
1187.99,0.076875,473969,397077
1191.52,0.076970,479856,401921
1195.06,0.076331,487372,408818
1199.76,0.075506,497347,417978
1203.29,0.074422,504311,424890
1206.81,0.073950,511507,431421
1210.33,0.073164,519078,438600
1213.84,0.072320,527163,446298
1217.35,0.071408,534208,453213
1220.85,0.070705,540472,459270
1225.51,0.069780,549929,468303
1229.01,0.069590,556888,474436
1232.5,0.068673,562180,479957
1235.98,0.068103,567975,485541
1239.46,0.066710,574815,492967
1242.94,0.066158,582782,500435
1246.41,0.065192,591476,509032
1251.03,0.065264,604016,519738
1254.5,0.065350,612289,526752
1257.96,0.065736,619125,532160
1261.41,0.066432,624551,535964
1264.86,0.067420,629900,539326
1268.31,0.067923,634345,542504
1271.75,0.068318,638574,545624
1276.33,0.068625,642499,548589
1279.76,0.068702,645905,551400
1283.19,0.068171,648307,554127
1286.61,0.067748,650446,556498
1290.03,0.067251,652132,558579
1293.44,0.066748,653907,560748
1296.85,0.066538,655963,562784
1301.39,0.066644,657349,563835
1304.8,0.066335,657558,564416
1308.19,0.066569,658515,564933
1311.58,0.066385,658804,565420
1314.97,0.067059,659011,564720
1318.36,0.067698,658272,563258
1321.73,0.068301,658022,562263
1326.23,0.069039,657870,561178
1329.6,0.070060,656482,558679
1332.97,0.070641,654926,556610
1336.33,0.071720,653727,554212
1339.69,0.073618,652497,550757
1343.04,0.075248,649913,546521
1346.39,0.077567,647671,541736
1349.73,0.079393,645338,537519
1354.18,0.082602,641175,530121
1357.52,0.084950,638376,524961
1360.85,0.087281,635805,520047
1364.17,0.089369,633413,515606
1367.49,0.091999,631026,510562
1370.81,0.094332,628050,505431
1374.12,0.097085,625034,499826
1378.54,0.099555,620272,493205
1381.84,0.103108,616892,486521
1385.14,0.106672,613613,479979
1388.43,0.111104,611526,473490
1391.72,0.116379,610663,467114
1395.01,0.120601,610634,462573
1398.29,0.125564,611700,458115
1402.66,0.132927,614051,452145
1405.93,0.138167,616268,448335
1409.2,0.143763,617795,443692
1412.46,0.148702,618872,439439
1415.72,0.153105,619795,435655
1418.98,0.157098,620495,432156
1422.23,0.161078,621087,428622
1426.56,0.164798,621375,425163
1429.8,0.167754,621616,422443
1433.04,0.170214,622129,420404
1436.27,0.172535,621526,417758
1439.5,0.174544,621113,415553
1442.72,0.177338,620921,412761
1445.94,0.180106,620270,409708
1450.23,0.183719,618860,405390
1453.44,0.186736,617697,401827
1456.64,0.189456,616264,398392
1459.85,0.192336,614413,394570
1463.04,0.195452,612307,390407
1466.24,0.199007,610032,385785
1469.43,0.202753,607345,380787
1473.67,0.209523,603789,372702
1476.85,0.215119,601175,366338
1480.02,0.220812,597737,359499
1483.19,0.228137,594479,351560
1486.36,0.234453,591232,344592
1489.52,0.239611,587853,338577
1492.68,0.243333,583875,333416
1496.89,0.245311,578062,328597
1500.03,0.246156,574159,325744
1503.18,0.246904,570285,322989
1506.32,0.245414,565444,321348
1509.45,0.244668,560571,319126
1512.58,0.242640,555821,317903
1515.71,0.240311,550344,316463
1519.87,0.237025,543983,315181
1522.99,0.234074,538764,314286
1526.1,0.230794,533692,313687
1529.21,0.228143,527902,312184
1532.32,0.224983,521886,310880
1535.42,0.222176,515888,309300
1538.51,0.218832,509987,308125
1541.6,0.216098,503936,306392
1545.72,0.211110,494694,304247
1548.8,0.208250,488378,302347
1551.88,0.204946,481832,300573
1554.95,0.203500,474989,297292
1558.02,0.201337,467818,294266
1561.08,0.200357,460730,290462
1564.15,0.199880,454170,286641
1568.22,0.198627,444181,281147
1571.27,0.198010,436947,276961
1574.32,0.196467,429598,273272
1577.36,0.195505,422039,269059
1580.4,0.193805,414375,265209
1583.43,0.192705,406354,260735
1586.46,0.190142,398475,257193
1590.49,0.188788,388982,251850
1593.51,0.186803,380708,247622
1596.53,0.183307,372727,244390
1599.54,0.181732,365060,240233
1602.55,0.179018,357543,236761
1605.55,0.178178,349495,231880
1608.55,0.176359,341154,227296
1612.54,0.173005,330877,222158
1615.53,0.170944,322904,217836
1618.51,0.169410,315116,213334
1621.49,0.169334,307217,208023
1624.47,0.167587,299481,203602
1627.44,0.165417,292112,199587
1630.41,0.164959,284245,194417
1634.36,0.162597,274079,188486
1637.32,0.162474,266916,183612
1640.27,0.162028,259612,178771
1643.22,0.161233,251804,173712
1646.16,0.159426,244348,169271
1649.1,0.158815,236703,164206
1652.04,0.157552,228171,158748
1655.95,0.153862,215408,151147
1658.88,0.150321,204937,144977
1661.8,0.146982,193395,137868
1664.72,0.139921,179728,130225
1667.63,0.127563,163642,121992
1670.54,0.116264,146312,111948
1673.44,0.102622,128451,101418
1677.31,0.083762,105080,86648
1680.21,0.073598,88906,75047
1683.1,0.070500,75033,63790
1685.99,0.071426,63520,53887
1688.87,0.076287,53714,45061
1691.75,0.075908,45653,38332
1694.62,0.082794,39137,32344
1697.49,0.086379,33776,27684
1701.31,0.085482,28175,23141