File: samples/wool/wool-000811/Column 1_050565_20150331_120647.csv
Method:,Column 1,,
Host Date-Time:,31/3/15 @ 12:6:47,,
Header Version:,1,,
System Temp (C):,33.87,,
Detector Temp (C):,33.66,,
Humidity (%):,1.95,,
Lamp PD:,3818,,
Shift Vector Coefficients:,-10.5391,0.0761263,-0.000134223,,
Pixel to Wavelength Coefficients:,1775.68,-0.916766,-0.000235065,,
Serial Number:,5510004,,
Scan Config Name:,Column 1,,
Scan Config Type:,Slew,,
Section 1,,
Start wavelength (nm):,900,,
End wavelength (nm):,1700,,
Pattern Pixel Width (nm):,   7.03,,,,
Exposure (ms):,  0.635,,,,
Digital Resolution:,228,,
Num Repeats:,6,,
PGA Gain:,64,,
Total Measurement Time in sec:,  2.722,,
Wavelength (nm),Absorbance (AU),Reference Signal (unitless),Sample Signal (unitless)
901.51,0.032776,108485,100599
905.376,0.039770,121306,110691
909.237,0.042463,131909,119622
913.095,0.044259,143299,129415
916.948,0.042746,156982,142267
922.079,0.045839,179937,161913
925.923,0.046269,200504,180241
929.762,0.047349,222660,199661
933.597,0.047828,244426,218937
937.427,0.046804,263972,237003
941.254,0.046379,281845,253298
945.076,0.046630,297271,267007
950.165,0.046586,315605,283503
953.978,0.045297,328029,295539
957.786,0.045790,340470,306400
961.59,0.046139,352317,316807
965.389,0.045794,363056,326723
969.185,0.046347,373162,335390
972.976,0.047190,382632,343235
976.763,0.047445,391202,350716
981.806,0.048097,400190,358236
985.583,0.048473,406088,363201
989.355,0.049260,410162,366181
993.124,0.049357,412868,368514
996.888,0.049838,414263,369350
1000.65,0.050862,415476,369559
1004.4,0.052171,415479,368450
1009.41,0.053256,414358,366539
1013.15,0.053869,412923,364754
1016.89,0.054285,411526,363172
1020.63,0.054447,409066,360866
1024.36,0.054747,406777,358599
1028.09,0.054557,404427,356684
1031.82,0.053980,401911,354936
1036.78,0.053548,398410,352194
1040.49,0.053363,396204,350393
1044.2,0.052948,394236,348986
1047.91,0.052054,392042,347759
1051.61,0.051872,389823,345936
1055.31,0.052130,388234,344321
1059,0.051143,387599,344540
1063.92,0.050161,386688,344508
1067.61,0.048867,386598,345456
1071.29,0.048705,387377,346281
1074.96,0.047901,388536,347961
1078.63,0.047013,389855,349857
1082.3,0.046745,391215,351294
1085.96,0.045673,393215,353962
1090.84,0.045055,396270,357220
1094.49,0.045473,398760,359119
1098.14,0.044861,400987,361634
1101.79,0.044399,403477,364267
1105.43,0.044353,406116,366688
1109.06,0.043832,407701,368561
1112.7,0.043908,409859,370447
1117.53,0.044128,412494,372640
1121.15,0.044993,414909,374076
1124.77,0.044978,416559,375577
1128.38,0.045966,418532,376498
1131.99,0.048121,419956,375909
1135.6,0.049822,421946,376214
1139.2,0.051550,423881,376438
1143.99,0.054325,426786,376604
1147.58,0.054373,428617,378178
1151.17,0.055456,431169,379482
1154.75,0.057297,433579,379989
1158.33,0.058999,436264,380847
1161.91,0.060876,439132,381697
1165.48,0.063048,442389,382610
1169.04,0.066085,446101,383132
1173.79,0.069915,451929,384729
1177.34,0.072369,456026,386030
1180.9,0.074510,461306,388579
1184.44,0.076701,467657,391946
1187.99,0.077405,473969,396593
1191.52,0.076791,479856,402087
1195.06,0.076717,487372,408454
1199.76,0.075925,497347,417575
1203.29,0.074827,504311,424494
1206.81,0.074230,511507,431143
1210.33,0.073640,519078,438120
1213.84,0.072574,527163,446037
1217.35,0.071941,534208,452657
1220.85,0.070727,540472,459247
1225.51,0.069887,549929,468187
1229.01,0.069531,556888,474501
1232.5,0.069035,562180,479557
1235.98,0.068408,567975,485200
1239.46,0.067282,574815,492318
1242.94,0.066056,582782,500553
1246.41,0.065566,591476,508594
1251.03,0.065327,604016,519662
1254.5,0.065721,612289,526303
1257.96,0.066221,619125,531566
1261.41,0.066393,624551,536013
1264.86,0.067536,629900,539182
1268.31,0.067923,634345,542503
1271.75,0.068608,638574,545259
1276.33,0.069235,642499,547819
1279.76,0.068941,645905,551096
1283.19,0.068469,648307,553748
1286.61,0.067887,650446,556319
1290.03,0.067680,652132,558027
1293.44,0.066904,653907,560547
1296.85,0.066914,655963,562297
1301.39,0.066758,657349,563687
1304.8,0.066656,657558,563999
1308.19,0.066841,658515,564579
1311.58,0.067265,658804,564276
1314.97,0.067595,659011,564024
1318.36,0.067959,658272,562919
1321.73,0.068557,658022,561932
1326.23,0.069329,657870,560804
1329.6,0.070376,656482,558273
1332.97,0.071147,654926,555962
1336.33,0.072848,653727,552775
1339.69,0.074385,652497,549786
1343.04,0.075918,649913,545679
1346.39,0.078353,647671,540756
1349.73,0.080469,645338,536189
1354.18,0.083639,641175,528856
1357.52,0.085483,638376,524316
1360.85,0.088076,635805,519096
1364.17,0.090346,633413,514447
1367.49,0.092686,631026,509755
1370.81,0.095074,628050,504569
1374.12,0.097519,625034,499327
1378.54,0.100923,620272,491653
1381.84,0.104522,616892,484939
1385.14,0.108410,613613,478062
1388.43,0.112549,611526,471917
1391.72,0.117397,610663,466020
1395.01,0.122746,610634,460294
1398.29,0.127231,611700,456360
1402.66,0.135151,614051,449835
1405.93,0.141328,616268,445084
1409.2,0.146155,617795,441255
1412.46,0.151500,618872,436617
1415.72,0.156254,619795,432508
1418.98,0.159754,620495,429521
1422.23,0.164004,621087,425744
1426.56,0.167923,621375,422115
1429.8,0.171011,621616,419287
1433.04,0.173230,622129,417494
1436.27,0.176101,621526,414341
1439.5,0.178782,621113,411518
1442.72,0.181122,620921,409180
1445.94,0.183256,620270,406747
1450.23,0.186779,618860,402544
1453.44,0.189972,617697,398844
1456.64,0.193062,616264,395098
1459.85,0.196301,614413,390984
1463.04,0.199102,612307,387139
1466.24,0.202253,610032,382913
1469.43,0.205562,607345,378332
1473.67,0.211912,603789,370658
1476.85,0.216925,601175,364818
1480.02,0.223302,597737,357444
1483.19,0.230339,594479,349782
1486.36,0.236604,591232,342889
1489.52,0.241478,587853,337125
1492.68,0.244793,583875,332297
1496.89,0.247170,578062,327193
1500.03,0.248136,574159,324262
1503.18,0.248077,570285,322118
1506.32,0.247020,565444,320162
1509.45,0.245750,560571,318332
1512.58,0.244126,555821,316817
1515.71,0.241690,550344,315460
1519.87,0.238605,543983,314037
1522.99,0.235947,538764,312933
1526.1,0.233663,533692,311622
1529.21,0.230167,527902,310732
1532.32,0.227464,521886,309109
1535.42,0.223940,515888,308046
1538.51,0.220558,509987,306903
1541.6,0.217595,503936,305338
1545.72,0.213440,494694,302619
1548.8,0.209998,488378,301133
1551.88,0.207166,481832,299040
1554.95,0.204939,474989,296309
1558.02,0.204138,467818,292374
1561.08,0.202016,460730,289355
1564.15,0.201716,454170,285432
1568.22,0.200168,444181,280151
1571.27,0.199301,436947,276139
1574.32,0.198851,429598,271776
1577.36,0.197581,422039,267776
1580.4,0.195742,414375,264029
1583.43,0.194316,406354,259770
1586.46,0.192276,398475,255932
1590.49,0.189988,388982,251155
1593.51,0.187899,380708,246998
1596.53,0.186081,372727,242834
1599.54,0.183732,365060,239129
1602.55,0.181734,357543,235285
1605.55,0.178789,349495,231554
1608.55,0.177118,341154,226899
1612.54,0.175062,330877,221108
1615.53,0.172540,322904,217037
1618.51,0.171013,315116,212548
1621.49,0.170289,307217,207566
1624.47,0.168546,299481,203153
1627.44,0.168547,292112,198154
1630.41,0.167589,284245,193243
1634.36,0.164907,274079,187486
1637.32,0.165074,266916,182516
1640.27,0.163351,259612,178227
1643.22,0.161130,251804,173753
1646.16,0.161821,244348,168340
1649.1,0.161156,236703,163323
1652.04,0.160927,228171,157519
1655.95,0.157507,215408,149884
1658.88,0.153831,204937,143810
1661.8,0.149427,193395,137094
1664.72,0.143642,179728,129114
1667.63,0.133416,163642,120359
1670.54,0.122323,146312,110397
1673.44,0.109081,128451,99921
1677.31,0.092183,105080,84984
1680.21,0.084942,88906,73112
1683.1,0.084257,75033,61801
1685.99,0.084475,63520,52292
1688.87,0.089030,53714,43758
1691.75,0.099335,45653,36319
1694.62,0.096031,39137,31373
1697.49,0.108322,33776,26320
1701.31,0.112045,28175,21768