File: samples/wool/wool-000811/Column 1_050616_20150331_123117.csv
Method:,Column 1,,
Host Date-Time:,31/3/15 @ 12:31:17,,
Header Version:,1,,
System Temp (C):,34.12,,
Detector Temp (C):,35.01,,
Humidity (%):,1.66,,
Lamp PD:,3818,,
Shift Vector Coefficients:,-10.5391,0.0761263,-0.000134223,,
Pixel to Wavelength Coefficients:,1775.68,-0.916766,-0.000235065,,
Serial Number:,5510004,,
Scan Config Name:,Column 1,,
Scan Config Type:,Slew,,
Section 1,,
Start wavelength (nm):,900,,
End wavelength (nm):,1700,,
Pattern Pixel Width (nm):,   7.03,,,,
Exposure (ms):,  0.635,,,,
Digital Resolution:,228,,
Num Repeats:,6,,
PGA Gain:,64,,
Total Measurement Time in sec:,  2.670,,
Wavelength (nm),Absorbance (AU),Reference Signal (unitless),Sample Signal (unitless)
901.51,0.070323,108485,92267
905.376,0.075670,121306,101909
909.237,0.076696,131909,110555
913.095,0.078672,143299,119556
916.948,0.078472,156982,131032
922.079,0.080044,179937,149650
925.923,0.082455,200504,165832
929.762,0.082782,222660,184018
933.597,0.082444,244426,202164
937.427,0.081074,263972,219020
941.254,0.080598,281845,234106
945.076,0.078654,297271,248027
950.165,0.078342,315605,263513
953.978,0.077506,328029,274414
957.786,0.077749,340470,284662
961.59,0.078053,352317,294361
965.389,0.077156,363056,303961
969.185,0.077284,373162,312330
972.976,0.077941,382632,319772
976.763,0.078281,391202,326678
981.806,0.078996,400190,333634
985.583,0.079585,406088,338092
989.355,0.080113,410162,341069
993.124,0.080544,412868,342979
996.888,0.080586,414263,344104
1000.65,0.081523,415476,344368
1004.4,0.082674,415479,343459
1009.41,0.083804,414358,341642
1013.15,0.084385,412923,340004
1016.89,0.084896,411526,338455
1020.63,0.085006,409066,336347
1024.36,0.084868,406777,334571
1028.09,0.084387,404427,333007
1031.82,0.084396,401911,330928
1036.78,0.084399,398410,328043
1040.49,0.083542,396204,326871
1044.2,0.083811,394236,325046
1047.91,0.083538,392042,323441
1051.61,0.083468,389823,321662
1055.31,0.082835,388234,320818
1059,0.082063,387599,320863
1063.92,0.081507,386688,320519
1067.61,0.080575,386598,321133
1071.29,0.080677,387377,321704
1074.96,0.080424,388536,322855
1078.63,0.078937,389855,325062
1082.3,0.078712,391215,326365
1085.96,0.077529,393215,328928
1090.84,0.076731,396270,332093
1094.49,0.076206,398760,334584
1098.14,0.075046,400987,337353
1101.79,0.075216,403477,339315
1105.43,0.074844,406116,341827
1109.06,0.074037,407701,343799
1112.7,0.074215,409859,345477
1117.53,0.072724,412494,348894
1121.15,0.074023,414909,349889
1124.77,0.074186,416559,351148
1128.38,0.075308,418532,351901
1131.99,0.075844,419956,352663
1135.6,0.077529,421946,352962
1139.2,0.078430,423881,353846
1143.99,0.080817,426786,354318
1147.58,0.081359,428617,355394
1151.17,0.082693,431169,356414
1154.75,0.083417,433579,357809
1158.33,0.084415,436264,359198
1161.91,0.086238,439132,360045
1165.48,0.088541,442389,360797
1169.04,0.090807,446101,361931
1173.79,0.093771,451929,364166
1177.34,0.096017,456026,365572
1180.9,0.098392,461306,367788
1184.44,0.099859,467657,371594
1187.99,0.101263,473969,375394
1191.52,0.100900,479856,380374
1195.06,0.100953,487372,386285
1199.76,0.100592,497347,394519
1203.29,0.099305,504311,401230
1206.81,0.099042,511507,407202
1210.33,0.098405,519078,413835
1213.84,0.098023,527163,420651
1217.35,0.097455,534208,426830
1220.85,0.096724,540472,432563
1225.51,0.095747,549929,441123
1229.01,0.095399,556888,447063
1232.5,0.094486,562180,452261
1235.98,0.094100,567975,457330
1239.46,0.093004,574815,464006
1242.94,0.092651,582782,470820
1246.41,0.091713,591476,478877
1251.03,0.091660,604016,489090
1254.5,0.091266,612289,496239
1257.96,0.092164,619125,500742
1261.41,0.092609,624551,504613
1264.86,0.093313,629900,508111
1268.31,0.093565,634345,511400
1271.75,0.094190,638574,514069
1276.33,0.094490,642499,516871
1279.76,0.094440,645905,519671
1283.19,0.093855,648307,522307
1286.61,0.093370,650446,524616
1290.03,0.093043,652132,526372
1293.44,0.092578,653907,528370
1296.85,0.092786,655963,529777
1301.39,0.092004,657349,531854
1304.8,0.092404,657558,531533
1308.19,0.092152,658515,532615
1311.58,0.092093,658804,532921
1314.97,0.092572,659011,532501
1318.36,0.092788,658272,531640
1321.73,0.093734,658022,530281
1326.23,0.094189,657870,529604
1329.6,0.094826,656482,527712
1332.97,0.095669,654926,525440
1336.33,0.096630,653727,523319
1339.69,0.098059,652497,520618
1343.04,0.099513,649913,516823
1346.39,0.101405,647671,512802
1349.73,0.103438,645338,508568
1354.18,0.106266,641175,502008
1357.52,0.108352,638376,497422
1360.85,0.110152,635805,493369
1364.17,0.112304,633413,489083
1367.49,0.114149,631026,485175
1370.81,0.116671,628050,480091
1374.12,0.118479,625034,475800
1378.54,0.121363,620272,469050
1381.84,0.123999,616892,463671
1385.14,0.127293,613613,457722
1388.43,0.130749,611526,452549
1391.72,0.134730,610663,447787
1395.01,0.138908,610634,443479
1398.29,0.143139,611700,439946
1402.66,0.148819,614051,435899
1405.93,0.153381,616268,432901
1409.2,0.158289,617795,429097
1412.46,0.162841,618872,425363
1415.72,0.166175,619795,422740
1418.98,0.170079,620495,419430
1422.23,0.172799,621087,417209
1426.56,0.177254,621375,413142
1429.8,0.179681,621616,410999
1433.04,0.182169,622129,408989
1436.27,0.184253,621526,406636
1439.5,0.186526,621113,404245
1442.72,0.188720,620921,402084
1445.94,0.191141,620270,399429
1450.23,0.195151,618860,394858
1453.44,0.196916,617697,392518
1456.64,0.200406,616264,388473
1459.85,0.203186,614413,384835
1463.04,0.205677,612307,381322
1466.24,0.209212,610032,376826
1469.43,0.212965,607345,371938
1473.67,0.219755,603789,364024
1476.85,0.225024,601175,358077
1480.02,0.231618,597737,350665
1483.19,0.238076,594479,343606
1486.36,0.244207,591232,336939
1489.52,0.248898,587853,331414
1492.68,0.253052,583875,326038
1496.89,0.254082,578062,322027
1500.03,0.254589,574159,319480
1503.18,0.255208,570285,316872
1506.32,0.254471,565444,314716
1509.45,0.252921,560571,313119
1512.58,0.250875,555821,311932
1515.71,0.248668,550344,310432
1519.87,0.245810,543983,308870
1522.99,0.243311,538764,307672
1526.1,0.240772,533692,306562
1529.21,0.237716,527902,305378
1532.32,0.234442,521886,304182
1535.42,0.232353,515888,302136
1538.51,0.229437,509987,300692
1541.6,0.226286,503936,299288
1545.72,0.221981,494694,296726
1548.8,0.219310,488378,294745
1551.88,0.217317,481832,292132
1554.95,0.215340,474989,289297
1558.02,0.213397,467818,286207
1561.08,0.212433,460730,282497
1564.15,0.211771,454170,278899
1568.22,0.211394,444181,273002
1571.27,0.210912,436947,268854
1574.32,0.209833,429598,264990
1577.36,0.208627,422039,261051
1580.4,0.207690,414375,256864
1583.43,0.205882,406354,252943
1586.46,0.204523,398475,248816
1590.49,0.202915,388982,243789
1593.51,0.200021,380708,240199
1596.53,0.198762,372727,235846
1599.54,0.196588,365060,232154
1602.55,0.194149,357543,228654
1605.55,0.193294,349495,223948
1608.55,0.190352,341154,220089
1612.54,0.188861,330877,214193
1615.53,0.187367,322904,209752
1618.51,0.186615,315116,205048
1621.49,0.185543,307217,200402
1624.47,0.184548,299481,195804
1627.44,0.184243,292112,191120
1630.41,0.183597,284245,186250
1634.36,0.179869,274079,181137
1637.32,0.180608,266916,176103
1640.27,0.180900,259612,171169
1643.22,0.178367,251804,166992
1646.16,0.178036,244348,162171
1649.1,0.177196,236703,157401
1652.04,0.177178,228171,151734
1655.95,0.173668,215408,144409
1658.88,0.169074,204937,138850
1661.8,0.162630,193395,132989
1664.72,0.154932,179728,125801
1667.63,0.143827,163642,117508
1670.54,0.131117,146312,108184
1673.44,0.112905,128451,99045
1677.31,0.093914,105080,84646
1680.21,0.081440,88906,73704
1683.1,0.072438,75033,63506
1685.99,0.074224,63520,53541
1688.87,0.079673,53714,44711
1691.75,0.084154,45653,37611
1694.62,0.089928,39137,31817
1697.49,0.090667,33776,27412
1701.31,0.092482,28175,22771