File: samples/wool/wool-000811/Column 1_050607_20150331_122655.csv
Method:,Column 1,,
Host Date-Time:,31/3/15 @ 12:26:55,,
Header Version:,1,,
System Temp (C):,34.04,,
Detector Temp (C):,34.87,,
Humidity (%):,1.66,,
Lamp PD:,3818,,
Shift Vector Coefficients:,-10.5391,0.0761263,-0.000134223,,
Pixel to Wavelength Coefficients:,1775.68,-0.916766,-0.000235065,,
Serial Number:,5510004,,
Scan Config Name:,Column 1,,
Scan Config Type:,Slew,,
Section 1,,
Start wavelength (nm):,900,,
End wavelength (nm):,1700,,
Pattern Pixel Width (nm):,   7.03,,,,
Exposure (ms):,  0.635,,,,
Digital Resolution:,228,,
Num Repeats:,6,,
PGA Gain:,64,,
Total Measurement Time in sec:,  2.673,,
Wavelength (nm),Absorbance (AU),Reference Signal (unitless),Sample Signal (unitless)
901.51,0.069980,108485,92340
905.376,0.073862,121306,102334
909.237,0.077305,131909,110400
913.095,0.078548,143299,119590
916.948,0.080772,156982,130340
922.079,0.080625,179937,149450
925.923,0.082394,200504,165855
929.762,0.082150,222660,184286
933.597,0.081785,244426,202471
937.427,0.080927,263972,219094
941.254,0.080750,281845,234024
945.076,0.079813,297271,247366
950.165,0.078205,315605,263596
953.978,0.077628,328029,274337
957.786,0.076942,340470,285192
961.59,0.077274,352317,294890
965.389,0.077279,363056,303875
969.185,0.077594,373162,312107
972.976,0.077721,382632,319934
976.763,0.078276,391202,326682
981.806,0.078980,400190,333646
985.583,0.079049,406088,338510
989.355,0.079978,410162,341175
993.124,0.080396,412868,343096
996.888,0.080489,414263,344181
1000.65,0.081834,415476,344122
1004.4,0.082880,415479,343296
1009.41,0.084289,414358,341261
1013.15,0.084298,412923,340072
1016.89,0.084337,411526,338891
1020.63,0.084375,409066,336836
1024.36,0.084580,406777,334793
1028.09,0.084438,404427,332968
1031.82,0.084356,401911,330959
1036.78,0.084128,398410,328248
1040.49,0.083840,396204,326647
1044.2,0.084352,394236,324642
1047.91,0.082633,392042,324115
1051.61,0.083110,389823,321927
1055.31,0.082633,388234,320967
1059,0.082193,387599,320767
1063.92,0.081424,386688,320580
1067.61,0.081139,386598,320716
1071.29,0.080816,387377,321601
1074.96,0.079624,388536,323450
1078.63,0.079248,389855,324829
1082.3,0.078091,391215,326832
1085.96,0.077541,393215,328919
1090.84,0.076426,396270,332327
1094.49,0.075924,398760,334802
1098.14,0.075784,400987,336780
1101.79,0.074863,403477,339591
1105.43,0.075111,406116,341617
1109.06,0.073756,407701,344022
1112.7,0.074149,409859,345530
1117.53,0.073439,412494,348320
1121.15,0.073381,414909,350406
1124.77,0.073555,416559,351659
1128.38,0.074876,418532,352251
1131.99,0.075856,419956,352653
1135.6,0.077223,421946,353211
1139.2,0.078975,423881,353402
1143.99,0.080558,426786,354529
1147.58,0.081683,428617,355129
1151.17,0.082520,431169,356556
1154.75,0.083110,433579,358062
1158.33,0.084496,436264,359131
1161.91,0.086410,439132,359903
1165.48,0.089011,442389,360407
1169.04,0.091028,446101,361747
1173.79,0.094295,451929,363727
1177.34,0.096015,456026,365573
1180.9,0.098410,461306,367772
1184.44,0.100321,467657,371199
1187.99,0.100414,473969,376128
1191.52,0.101028,479856,380262
1195.06,0.101215,487372,386052
1199.76,0.100965,497347,394180
1203.29,0.100121,504311,400477
1206.81,0.099382,511507,406883
1210.33,0.098896,519078,413368
1213.84,0.097918,527163,420753
1217.35,0.097333,534208,426950
1220.85,0.096633,540472,432653
1225.51,0.096018,549929,440848
1229.01,0.095359,556888,447104
1232.5,0.095088,562180,451635
1235.98,0.094497,567975,456912
1239.46,0.093193,574815,463805
1242.94,0.092435,582782,471055
1246.41,0.091995,591476,478566
1251.03,0.091923,604016,488793
1254.5,0.091830,612289,495595
1257.96,0.092135,619125,500776
1261.41,0.092721,624551,504484
1264.86,0.093247,629900,508188
1268.31,0.093887,634345,511021
1271.75,0.094658,638574,513515
1276.33,0.095072,642499,516179
1279.76,0.094612,645905,519465
1283.19,0.094163,648307,521936
1286.61,0.093910,650446,523964
1290.03,0.093532,652132,525779
1293.44,0.092552,653907,528401
1296.85,0.092708,655963,529872
1301.39,0.091911,657349,531967
1304.8,0.092458,657558,531467
1308.19,0.092656,658515,531998
1311.58,0.092837,658804,532009
1314.97,0.092850,659011,532160
1318.36,0.093019,658272,531357
1321.73,0.093517,658022,530547
1326.23,0.094480,657870,529249
1329.6,0.095255,656482,527191
1332.97,0.096037,654926,524995
1336.33,0.097239,653727,522585
1339.69,0.098396,652497,520215
1343.04,0.100132,649913,516087
1346.39,0.101861,647671,512263
1349.73,0.103741,645338,508213
1354.18,0.106847,641175,501337
1357.52,0.108822,638376,496883
1360.85,0.110691,635805,492757
1364.17,0.112892,633413,488422
1367.49,0.114680,631026,484582
1370.81,0.116868,628050,479873
1374.12,0.119022,625034,475206
1378.54,0.122078,620272,468278
1381.84,0.124800,616892,462817
1385.14,0.128139,613613,456831
1388.43,0.131783,611526,451473
1391.72,0.135793,610663,446692
1395.01,0.139573,610634,442800
1398.29,0.144511,611700,438558
1402.66,0.150312,614051,434403
1405.93,0.155509,616268,430785
1409.2,0.160435,617795,426982
1412.46,0.164579,618872,423664
1415.72,0.168501,619795,420482
1418.98,0.172429,620495,417166
1422.23,0.175235,621087,414875
1426.56,0.178739,621375,411732
1429.8,0.181719,621616,409075
1433.04,0.183829,622129,407429
1436.27,0.186503,621526,404535
1439.5,0.188700,621113,402226
1442.72,0.191106,620921,399881
1445.94,0.193024,620270,397701
1450.23,0.197308,618860,392902
1453.44,0.199959,617697,389777
1456.64,0.202890,616264,386257
1459.85,0.205151,614413,383098
1463.04,0.208284,612307,379040
1466.24,0.211530,610032,374820
1469.43,0.214933,607345,370256
1473.67,0.221284,603789,362745
1476.85,0.226876,601175,356554
1480.02,0.233160,597737,349422
1483.19,0.239713,594479,342313
1486.36,0.244885,591232,336413
1489.52,0.249925,587853,330631
1492.68,0.253929,583875,325380
1496.89,0.255371,578062,321073
1500.03,0.256324,574159,318206
1503.18,0.255812,570285,316432
1506.32,0.255385,565444,314054
1509.45,0.253997,560571,312344
1512.58,0.252453,555821,310801
1515.71,0.249999,550344,309482
1519.87,0.246619,543983,308295
1522.99,0.243945,538764,307223
1526.1,0.241786,533692,305847
1529.21,0.238882,527902,304559
1532.32,0.236162,521886,302980
1535.42,0.233179,515888,301562
1538.51,0.230154,509987,300196
1541.6,0.227338,503936,298564
1545.72,0.223233,494694,295872
1548.8,0.220762,488378,293761
1551.88,0.218199,481832,291539
1554.95,0.216434,474989,288569
1558.02,0.214905,467818,285215
1561.08,0.213119,460730,282051
1564.15,0.213206,454170,277979
1568.22,0.212088,444181,272566
1571.27,0.211151,436947,268706
1574.32,0.210431,429598,264625
1577.36,0.209870,422039,260305
1580.4,0.208543,414375,256360
1583.43,0.207294,406354,252122
1586.46,0.204979,398475,248555
1590.49,0.203704,388982,243347
1593.51,0.201323,380708,239480
1596.53,0.199697,372727,235339
1599.54,0.197174,365060,231841
1602.55,0.195876,357543,227747
1605.55,0.193864,349495,223654
1608.55,0.192029,341154,219241
1612.54,0.188861,330877,214193
1615.53,0.187233,322904,209817
1618.51,0.187885,315116,204449
1621.49,0.186361,307217,200025
1624.47,0.184781,299481,195699
1627.44,0.182529,292112,191876
1630.41,0.184094,284245,186037
1634.36,0.182374,274079,180095
1637.32,0.181519,266916,175734
1640.27,0.180142,259612,171468
1643.22,0.179020,251804,166741
1646.16,0.179471,244348,161636
1649.1,0.178285,236703,157007
1652.04,0.176645,228171,151920
1655.95,0.173947,215408,144316
1658.88,0.170146,204937,138508
1661.8,0.165109,193395,132232
1664.72,0.156221,179728,125428
1667.63,0.144001,163642,117461
1670.54,0.129014,146312,108709
1673.44,0.114500,128451,98682
1677.31,0.093796,105080,84669
1680.21,0.084088,88906,73256
1683.1,0.074652,75033,63183
1685.99,0.076999,63520,53200
1688.87,0.079071,53714,44773
1691.75,0.080361,45653,37941
1694.62,0.084529,39137,32215
1697.49,0.099147,33776,26882
1701.31,0.104902,28175,22129