File: samples/wool/wool-000811/Column 1_050594_20150331_122047.csv
Method:,Column 1,,
Host Date-Time:,31/3/15 @ 12:20:47,,
Header Version:,1,,
System Temp (C):,33.92,,
Detector Temp (C):,34.67,,
Humidity (%):,1.76,,
Lamp PD:,3819,,
Shift Vector Coefficients:,-10.5391,0.0761263,-0.000134223,,
Pixel to Wavelength Coefficients:,1775.68,-0.916766,-0.000235065,,
Serial Number:,5510004,,
Scan Config Name:,Column 1,,
Scan Config Type:,Slew,,
Section 1,,
Start wavelength (nm):,900,,
End wavelength (nm):,1700,,
Pattern Pixel Width (nm):,   7.03,,,,
Exposure (ms):,  0.635,,,,
Digital Resolution:,228,,
Num Repeats:,6,,
PGA Gain:,64,,
Total Measurement Time in sec:,  2.675,,
Wavelength (nm),Absorbance (AU),Reference Signal (unitless),Sample Signal (unitless)
901.51,0.070130,108485,92308
905.376,0.075329,121306,101989
909.237,0.077593,131909,110327
913.095,0.078763,143299,119531
916.948,0.079405,156982,130751
922.079,0.081480,179937,149156
925.923,0.082216,200504,165923
929.762,0.084013,222660,183497
933.597,0.083706,244426,201577
937.427,0.081342,263972,218885
941.254,0.081164,281845,233801
945.076,0.080178,297271,247158
950.165,0.078896,315605,263177
953.978,0.078664,328029,273683
957.786,0.079572,340470,283470
961.59,0.079439,352317,293423
965.389,0.079554,363056,302287
969.185,0.079481,373162,310754
972.976,0.079041,382632,318963
976.763,0.080060,391202,325343
981.806,0.080215,400190,332699
985.583,0.080936,406088,337042
989.355,0.081492,410162,339988
993.124,0.082532,412868,341412
996.888,0.082301,414263,342748
1000.65,0.082671,415476,343459
1004.4,0.084293,415479,342181
1009.41,0.085356,414358,340424
1013.15,0.085840,412923,338867
1016.89,0.086012,411526,337587
1020.63,0.085814,409066,335722
1024.36,0.085888,406777,333786
1028.09,0.085659,404427,332033
1031.82,0.085708,401911,329930
1036.78,0.084982,398410,327603
1040.49,0.085246,396204,325591
1044.2,0.084978,394236,324174
1047.91,0.084935,392042,322402
1051.61,0.083546,389823,321604
1055.31,0.084630,388234,319495
1059,0.083476,387599,319821
1063.92,0.083080,386688,319360
1067.61,0.082452,386598,319748
1071.29,0.081657,387377,320979
1074.96,0.081527,388536,322036
1078.63,0.080813,389855,323661
1082.3,0.079898,391215,325475
1085.96,0.079054,393215,327775
1090.84,0.077782,396270,331291
1094.49,0.077359,398760,333697
1098.14,0.077285,400987,335618
1101.79,0.076542,403477,338280
1105.43,0.076655,406116,340404
1109.06,0.075290,407701,342809
1112.7,0.075333,409859,344589
1117.53,0.074959,412494,347103
1121.15,0.075294,414909,348866
1124.77,0.075674,416559,349947
1128.38,0.076711,418532,350766
1131.99,0.077657,419956,351194
1135.6,0.079713,421946,351191
1139.2,0.080801,423881,351919
1143.99,0.082875,426786,352643
1147.58,0.083072,428617,353995
1151.17,0.084435,431169,354987
1154.75,0.084723,433579,356735
1158.33,0.086438,436264,357529
1161.91,0.088312,439132,358330
1165.48,0.090132,442389,359478
1169.04,0.092273,446101,360712
1173.79,0.095616,451929,362622
1177.34,0.097916,456026,363977
1180.9,0.100111,461306,366335
1184.44,0.102035,467657,369737
1187.99,0.102958,473969,373931
1191.52,0.102841,479856,378678
1195.06,0.102331,487372,385061
1199.76,0.102693,497347,392615
1203.29,0.101617,504311,399100
1206.81,0.100937,511507,405429
1210.33,0.100553,519078,411794
1213.84,0.099525,527163,419199
1217.35,0.099288,534208,425033
1220.85,0.098262,540472,431034
1225.51,0.097894,549929,438948
1229.01,0.097313,556888,445097
1232.5,0.097048,562180,449601
1235.98,0.095778,567975,455566
1239.46,0.094956,574815,461926
1242.94,0.094166,582782,469181
1246.41,0.093490,591476,476922
1251.03,0.093404,604016,487130
1254.5,0.093617,612289,493559
1257.96,0.094260,619125,498332
1261.41,0.094630,624551,502271
1264.86,0.095290,629900,505803
1268.31,0.095679,634345,508917
1271.75,0.096311,638574,511564
1276.33,0.096487,642499,514500
1279.76,0.096267,645905,517490
1283.19,0.095756,648307,520026
1286.61,0.095264,650446,522333
1290.03,0.095240,652132,523716
1293.44,0.094710,653907,525782
1296.85,0.094382,655963,527834
1301.39,0.094333,657349,529009
1304.8,0.094110,657558,529449
1308.19,0.094137,658515,530187
1311.58,0.094657,658804,529785
1314.97,0.095130,659011,529374
1318.36,0.095433,658272,528412
1321.73,0.096076,658022,527429
1326.23,0.096315,657870,527017
1329.6,0.097604,656482,524347
1332.97,0.098301,654926,522265
1336.33,0.099639,653727,519706
1339.69,0.100798,652497,517345
1343.04,0.102523,649913,513254
1346.39,0.104525,647671,509131
1349.73,0.106559,645338,504927
1354.18,0.109102,641175,498740
1357.52,0.111276,638376,494084
1360.85,0.113436,635805,489653
1364.17,0.115382,633413,485629
1367.49,0.117701,631026,481223
1370.81,0.119548,628050,476921
1374.12,0.121856,625034,472115
1378.54,0.124574,620272,465595
1381.84,0.127861,616892,459566
1385.14,0.131222,613613,453599
1388.43,0.134919,611526,448225
1391.72,0.139208,610663,443194
1395.01,0.143709,610634,438603
1398.29,0.148579,611700,434470
1402.66,0.155483,614051,429261
1405.93,0.160059,616268,426295
1409.2,0.165397,617795,422131
1412.46,0.170132,618872,418282
1415.72,0.174267,619795,414936
1418.98,0.177946,620495,411900
1422.23,0.181534,621087,408901
1426.56,0.185409,621375,405457
1429.8,0.187932,621616,403265
1433.04,0.190459,622129,401256
1436.27,0.192620,621526,398877
1439.5,0.194939,621113,396489
1442.72,0.197106,620921,394394
1445.94,0.199625,620270,391702
1450.23,0.203230,618860,387581
1453.44,0.205135,617697,385159
1456.64,0.208206,616264,381558
1459.85,0.210641,614413,378285
1463.04,0.214023,612307,374064
1466.24,0.216960,610032,370163
1469.43,0.220497,607345,365543
1473.67,0.226663,603789,358280
1476.85,0.231251,601175,352980
1480.02,0.237674,597737,345809
1483.19,0.243409,594479,339412
1486.36,0.248667,591232,333496
1489.52,0.253554,587853,327880
1492.68,0.257124,583875,322995
1496.89,0.258772,578062,318568
1500.03,0.259707,574159,315737
1503.18,0.259924,570285,313450
1506.32,0.258519,565444,311796
1509.45,0.257158,560571,310079
1512.58,0.255297,555821,308772
1515.71,0.253285,550344,307149
1519.87,0.250044,543983,305873
1522.99,0.248155,538764,304259
1526.1,0.245159,533692,303481
1529.21,0.242239,527902,302214
1532.32,0.239968,521886,300336
1535.42,0.236903,515888,298987
1538.51,0.233666,509987,297778
1541.6,0.231530,503936,295696
1545.72,0.226727,494694,293501
1548.8,0.224999,488378,290909
1551.88,0.221995,481832,289002
1554.95,0.219573,474989,286491
1558.02,0.218326,467818,282977
1561.08,0.217335,460730,279326
1564.15,0.216638,454170,275791
1568.22,0.215186,444181,270629
1571.27,0.215353,436947,266119
1574.32,0.214597,429598,262099
1577.36,0.212679,422039,258627
1580.4,0.211644,414375,254536
1583.43,0.210534,406354,250248
1586.46,0.207651,398475,247030
1590.49,0.206770,388982,241635
1593.51,0.204859,380708,237538
1596.53,0.203143,372727,233479
1599.54,0.200803,365060,229912
1602.55,0.198628,357543,226308
1605.55,0.197209,349495,221938
1608.55,0.195142,341154,217675
1612.54,0.193452,330877,211941
1615.53,0.191206,322904,207906
1618.51,0.191238,315116,202877
1621.49,0.188983,307217,198821
1624.47,0.186796,299481,194793
1627.44,0.187331,292112,189766
1630.41,0.186777,284245,184891
1634.36,0.184501,274079,179215
1637.32,0.183885,266916,174779
1640.27,0.183947,259612,169972
1643.22,0.182905,251804,165256
1646.16,0.181707,244348,160806
1649.1,0.180767,236703,156112
1652.04,0.179094,228171,151066
1655.95,0.177361,215408,143186
1658.88,0.173656,204937,137393
1661.8,0.165766,193395,132032
1664.72,0.159478,179728,124491
1667.63,0.147725,163642,116458
1670.54,0.133779,146312,107523
1673.44,0.117547,128451,97992
1677.31,0.098281,105080,83799
1680.21,0.089661,88906,72322
1683.1,0.082840,75033,62003
1685.99,0.085964,63520,52113
1688.87,0.088039,53714,43858
1691.75,0.090540,45653,37062
1694.62,0.099953,39137,31091
1697.49,0.098517,33776,26921
1701.31,0.111906,28175,21775