File: samples/wool/wool-000811/Column 1_050573_20150331_121049.csv
Method:,Column 1,,
Host Date-Time:,31/3/15 @ 12:10:49,,
Header Version:,1,,
System Temp (C):,34.16,,
Detector Temp (C):,34.28,,
Humidity (%):,1.76,,
Lamp PD:,3818,,
Shift Vector Coefficients:,-10.5391,0.0761263,-0.000134223,,
Pixel to Wavelength Coefficients:,1775.68,-0.916766,-0.000235065,,
Serial Number:,5510004,,
Scan Config Name:,Column 1,,
Scan Config Type:,Slew,,
Section 1,,
Start wavelength (nm):,900,,
End wavelength (nm):,1700,,
Pattern Pixel Width (nm):,   7.03,,,,
Exposure (ms):,  0.635,,,,
Digital Resolution:,228,,
Num Repeats:,6,,
PGA Gain:,64,,
Total Measurement Time in sec:,  2.721,,
Wavelength (nm),Absorbance (AU),Reference Signal (unitless),Sample Signal (unitless)
901.51,0.034346,108485,100236
905.376,0.040202,121306,110581
909.237,0.042482,131909,119617
913.095,0.044178,143299,129439
916.948,0.044738,156982,141616
922.079,0.047125,179937,161434
925.923,0.048497,200504,179319
929.762,0.049484,222660,198682
933.597,0.049538,244426,218077
937.427,0.049161,263972,235720
941.254,0.048465,281845,252084
945.076,0.047209,297271,266651
950.165,0.046585,315605,283504
953.978,0.046625,328029,294637
957.786,0.047046,340470,305515
961.59,0.046774,352317,316344
965.389,0.046960,363056,325847
969.185,0.047222,373162,334715
972.976,0.047452,382632,343028
976.763,0.047913,391202,350339
981.806,0.048155,400190,358188
985.583,0.049427,406088,362404
989.355,0.049535,410162,365949
993.124,0.050527,412868,367523
996.888,0.050892,414263,368455
1000.65,0.051941,415476,368642
1004.4,0.052672,415479,368025
1009.41,0.053687,414358,366175
1013.15,0.054454,412923,364263
1016.89,0.055126,411526,362469
1020.63,0.054555,409066,360777
1024.36,0.055146,406777,358270
1028.09,0.054350,404427,356854
1031.82,0.054212,401911,354746
1036.78,0.053772,398410,352013
1040.49,0.053434,396204,350336
1044.2,0.053804,394236,348299
1047.91,0.053226,392042,346822
1051.61,0.052045,389823,345798
1055.31,0.052406,388234,344102
1059,0.051877,387599,343958
1063.92,0.050343,386688,344364
1067.61,0.049242,386598,345158
1071.29,0.049136,387377,345938
1074.96,0.048681,388536,347336
1078.63,0.048371,389855,348764
1082.3,0.046648,391215,351372
1085.96,0.046726,393215,353105
1090.84,0.045767,396270,356635
1094.49,0.045743,398760,358896
1098.14,0.045446,400987,361147
1101.79,0.044674,403477,364036
1105.43,0.044640,406116,366446
1109.06,0.044433,407701,368052
1112.7,0.044060,409859,370318
1117.53,0.044525,412494,372300
1121.15,0.045208,414909,373891
1124.77,0.045122,416559,375452
1128.38,0.046597,418532,375951
1131.99,0.048061,419956,375961
1135.6,0.049783,421946,376248
1139.2,0.051814,423881,376210
1143.99,0.053846,426786,377020
1147.58,0.054788,428617,377817
1151.17,0.056034,431169,378978
1154.75,0.056781,433579,380441
1158.33,0.059091,436264,380766
1161.91,0.060917,439132,381661
1165.48,0.063719,442389,382019
1169.04,0.066101,446101,383118
1173.79,0.069721,451929,384901
1177.34,0.072109,456026,386261
1180.9,0.074382,461306,388693
1184.44,0.076392,467657,392225
1187.99,0.077312,473969,396678
1191.52,0.077021,479856,401874
1195.06,0.076801,487372,408375
1199.76,0.075503,497347,417981
1203.29,0.074967,504311,424357
1206.81,0.074133,511507,431240
1210.33,0.073421,519078,438341
1213.84,0.073137,527163,445459
1217.35,0.071969,534208,452628
1220.85,0.071361,540472,458577
1225.51,0.069741,549929,468345
1229.01,0.069549,556888,474481
1232.5,0.068966,562180,479633
1235.98,0.068599,567975,484987
1239.46,0.067482,574815,492092
1242.94,0.066295,582782,500278
1246.41,0.065750,591476,508378
1251.03,0.065520,604016,519432
1254.5,0.065812,612289,526192
1257.96,0.066393,619125,531356
1261.41,0.066655,624551,535689
1264.86,0.067811,629900,538841
1268.31,0.067819,634345,542634
1271.75,0.068930,638574,544855
1276.33,0.069067,642499,548031
1279.76,0.068842,645905,551222
1283.19,0.068240,648307,554039
1286.61,0.068024,650446,556144
1290.03,0.067832,652132,557832
1293.44,0.067093,653907,560303
1296.85,0.067014,655963,562167
1301.39,0.066679,657349,563790
1304.8,0.066376,657558,564363
1308.19,0.066869,658515,564542
1311.58,0.066780,658804,564906
1314.97,0.067672,659011,563924
1318.36,0.067948,658272,562934
1321.73,0.068047,658022,562592
1326.23,0.069142,657870,561046
1329.6,0.069927,656482,558851
1332.97,0.071434,654926,555595
1336.33,0.072371,653727,553383
1339.69,0.073775,652497,550559
1343.04,0.075278,649913,546484
1346.39,0.078203,647671,540943
1349.73,0.080001,645338,536768
1354.18,0.082981,641175,529658
1357.52,0.085027,638376,524867
1360.85,0.087698,635805,519548
1364.17,0.089919,633413,514954
1367.49,0.092274,631026,510239
1370.81,0.094554,628050,505173
1374.12,0.096794,625034,500161
1378.54,0.100566,620272,492058
1381.84,0.103510,616892,486070
1385.14,0.107394,613613,479182
1388.43,0.111363,611526,473208
1391.72,0.115907,610663,467622
1395.01,0.120660,610634,462510
1398.29,0.125735,611700,457935
1402.66,0.132386,614051,452708
1405.93,0.138861,616268,447619
1409.2,0.143686,617795,443770
1412.46,0.148454,618872,439690
1415.72,0.153080,619795,435680
1418.98,0.156979,620495,432274
1422.23,0.160717,621087,428978
1426.56,0.164884,621375,425079
1429.8,0.167503,621616,422687
1433.04,0.170384,622129,420239
1436.27,0.172543,621526,417750
1439.5,0.175211,621113,414915
1442.72,0.177410,620921,412692
1445.94,0.179877,620270,409924
1450.23,0.183403,618860,405685
1453.44,0.186201,617697,402323
1456.64,0.189389,616264,398454
1459.85,0.192758,614413,394187
1463.04,0.195448,612307,390410
1466.24,0.198849,610032,385926
1469.43,0.202997,607345,380573
1473.67,0.209277,603789,372914
1476.85,0.215200,601175,366270
1480.02,0.220763,597737,359540
1483.19,0.228499,594479,351267
1486.36,0.234957,591232,344192
1489.52,0.239833,587853,338404
1492.68,0.243027,583875,333651
1496.89,0.245442,578062,328498
1500.03,0.246597,574159,325413
1503.18,0.246173,570285,323533
1506.32,0.246636,565444,320445
1509.45,0.244821,560571,319014
1512.58,0.242804,555821,317783
1515.71,0.241085,550344,315900
1519.87,0.237083,543983,315139
1522.99,0.234456,538764,314009
1526.1,0.231774,533692,312980
1529.21,0.229014,527902,311558
1532.32,0.225979,521886,310168
1535.42,0.223186,515888,308581
1538.51,0.219214,509987,307854
1541.6,0.216621,503936,306023
1545.72,0.211483,494694,303986
1548.8,0.208549,488378,302139
1551.88,0.205960,481832,299872
1554.95,0.203522,474989,297277
1558.02,0.201696,467818,294023
1561.08,0.201216,460730,289888
1564.15,0.201038,454170,285878
1568.22,0.198622,444181,281150
1571.27,0.198457,436947,276676
1574.32,0.196976,429598,272952
1577.36,0.196431,422039,268486
1580.4,0.194681,414375,264675
1583.43,0.193230,406354,260420
1586.46,0.191031,398475,256667
1590.49,0.188819,388982,251832
1593.51,0.186205,380708,247963
1596.53,0.184206,372727,243885
1599.54,0.182247,365060,239948
1602.55,0.180333,357543,236045
1605.55,0.178155,349495,231892
1608.55,0.175530,341154,227730
1612.54,0.172991,330877,222165
1615.53,0.172506,322904,217054
1618.51,0.170989,315116,212560
1621.49,0.169376,307217,208003
1624.47,0.167882,299481,203464
1627.44,0.167131,292112,198801
1630.41,0.165873,284245,194008
1634.36,0.163556,274079,188070
1637.32,0.163122,266916,183338
1640.27,0.162193,259612,178703
1643.22,0.162989,251804,173011
1646.16,0.160708,244348,168772
1649.1,0.160272,236703,163656
1652.04,0.158598,228171,158366
1655.95,0.155823,215408,150466
1658.88,0.152562,204937,144231
1661.8,0.146607,193395,137987
1664.72,0.140960,179728,129914
1667.63,0.129408,163642,121475
1670.54,0.117308,146312,111679
1673.44,0.102160,128451,101526
1677.31,0.085927,105080,86217
1680.21,0.075965,88906,74639
1683.1,0.074233,75033,63244
1685.99,0.079521,63520,52892
1688.87,0.075670,53714,45125
1691.75,0.083924,45653,37631
1694.62,0.089478,39137,31850
1697.49,0.098178,33776,26942
1701.31,0.103628,28175,22194