File: samples/wool/wool-000811/Column 1_050589_20150331_121836.csv
Method:,Column 1,,
Host Date-Time:,31/3/15 @ 12:18:36,,
Header Version:,1,,
System Temp (C):,33.84,,
Detector Temp (C):,34.54,,
Humidity (%):,1.86,,
Lamp PD:,3819,,
Shift Vector Coefficients:,-10.5391,0.0761263,-0.000134223,,
Pixel to Wavelength Coefficients:,1775.68,-0.916766,-0.000235065,,
Serial Number:,5510004,,
Scan Config Name:,Column 1,,
Scan Config Type:,Slew,,
Section 1,,
Start wavelength (nm):,900,,
End wavelength (nm):,1700,,
Pattern Pixel Width (nm):,   7.03,,,,
Exposure (ms):,  0.635,,,,
Digital Resolution:,228,,
Num Repeats:,6,,
PGA Gain:,64,,
Total Measurement Time in sec:,  2.673,,
Wavelength (nm),Absorbance (AU),Reference Signal (unitless),Sample Signal (unitless)
901.51,0.071950,108485,91922
905.376,0.076617,121306,101687
909.237,0.080626,131909,109559
913.095,0.078875,143299,119500
916.948,0.080596,156982,130393
922.079,0.081928,179937,149002
925.923,0.083750,200504,165338
929.762,0.084139,222660,183444
933.597,0.083599,244426,201627
937.427,0.082775,263972,218164
941.254,0.081895,281845,233408
945.076,0.080517,297271,246965
950.165,0.079281,315605,262944
953.978,0.079063,328029,273432
957.786,0.079059,340470,283805
961.59,0.079576,352317,293331
965.389,0.079474,363056,302343
969.185,0.079675,373162,310615
972.976,0.079958,382632,318290
976.763,0.080054,391202,325347
981.806,0.080467,400190,332506
985.583,0.081738,406088,336420
989.355,0.081631,410162,339879
993.124,0.082039,412868,341800
996.888,0.082857,414263,342310
1000.65,0.084106,415476,342326
1004.4,0.084682,415479,341875
1009.41,0.085976,414358,339938
1013.15,0.085774,412923,338918
1016.89,0.086587,411526,337140
1020.63,0.086496,409066,335195
1024.36,0.086676,406777,333181
1028.09,0.086724,404427,331220
1031.82,0.085825,401911,329841
1036.78,0.086229,398410,326664
1040.49,0.085707,396204,325246
1044.2,0.086226,394236,323244
1047.91,0.085447,392042,322022
1051.61,0.085080,389823,320470
1055.31,0.084725,388234,319425
1059,0.083891,387599,319515
1063.92,0.083234,386688,319247
1067.61,0.082536,386598,319686
1071.29,0.082627,387377,320263
1074.96,0.081987,388536,321695
1078.63,0.081449,389855,323187
1082.3,0.080184,391215,325261
1085.96,0.079681,393215,327302
1090.84,0.078993,396270,330368
1094.49,0.078805,398760,332588
1098.14,0.077460,400987,335483
1101.79,0.077189,403477,337777
1105.43,0.076597,406116,340450
1109.06,0.076825,407701,341599
1112.7,0.076031,409859,344036
1117.53,0.075444,412494,346716
1121.15,0.075840,414909,348428
1124.77,0.075873,416559,349787
1128.38,0.077435,418532,350182
1131.99,0.078559,419956,350465
1135.6,0.079854,421946,351077
1139.2,0.081099,423881,351678
1143.99,0.083445,426786,352180
1147.58,0.083859,428617,353354
1151.17,0.085131,431169,354419
1154.75,0.085881,433579,355785
1158.33,0.087197,436264,356905
1161.91,0.088803,439132,357925
1165.48,0.091196,442389,358598
1169.04,0.093543,446101,359658
1173.79,0.096542,451929,361850
1177.34,0.098482,456026,363503
1180.9,0.100545,461306,365969
1184.44,0.102172,467657,369620
1187.99,0.103514,473969,373453
1191.52,0.103785,479856,377856
1195.06,0.103724,487372,383828
1199.76,0.102370,497347,392907
1203.29,0.102075,504311,398679
1206.81,0.101630,511507,404782
1210.33,0.100794,519078,411565
1213.84,0.100537,527163,418223
1217.35,0.100168,534208,424172
1220.85,0.099118,540472,430185
1225.51,0.098432,549929,438404
1229.01,0.098010,556888,444383
1232.5,0.097343,562180,449296
1235.98,0.096878,567975,454413
1239.46,0.095859,574815,460966
1242.94,0.094924,582782,468363
1246.41,0.094212,591476,476130
1251.03,0.094075,604016,486378
1254.5,0.094301,612289,492783
1257.96,0.094823,619125,497686
1261.41,0.095100,624551,501727
1264.86,0.095977,629900,505004
1268.31,0.096293,634345,508198
1271.75,0.096853,638574,510926
1276.33,0.096670,642499,514283
1279.76,0.096887,645905,516751
1283.19,0.096677,648307,518924
1286.61,0.096285,650446,521106
1290.03,0.095661,652132,523208
1293.44,0.095339,653907,525021
1296.85,0.095303,655963,526716
1301.39,0.095122,657349,528049
1304.8,0.095105,657558,528237
1308.19,0.095109,658515,529001
1311.58,0.095306,658804,528993
1314.97,0.095671,659011,528715
1318.36,0.095967,658272,527762
1321.73,0.096445,658022,526981
1326.23,0.097655,657870,525394
1329.6,0.098068,656482,523787
1332.97,0.099458,654926,520876
1336.33,0.100508,653727,518667
1339.69,0.102070,652497,515832
1343.04,0.103886,649913,511646
1346.39,0.105581,647671,507895
1349.73,0.107340,645338,504019
1354.18,0.110259,641175,497413
1357.52,0.112493,638376,492701
1360.85,0.114306,635805,488673
1364.17,0.116531,633413,484346
1367.49,0.118897,631026,479900
1370.81,0.121244,628050,475062
1374.12,0.123249,625034,470603
1378.54,0.126400,620272,463641
1381.84,0.129176,616892,458177
1385.14,0.132845,613613,451907
1388.43,0.136364,611526,446736
1391.72,0.141185,610663,441181
1395.01,0.145600,610634,436698
1398.29,0.150455,611700,432597
1402.66,0.157541,614051,427232
1405.93,0.163259,616268,423166
1409.2,0.168281,617795,419337
1412.46,0.172844,618872,415678
1415.72,0.177317,619795,412032
1418.98,0.180198,620495,409770
1422.23,0.184284,621087,406320
1426.56,0.188380,621375,402693
1429.8,0.190775,621616,400633
1433.04,0.193468,622129,398485
1436.27,0.195708,621526,396051
1439.5,0.197608,621113,394060
1442.72,0.200291,620921,391512
1445.94,0.202763,620270,388882
1450.23,0.206078,618860,385048
1453.44,0.208645,617697,382059
1456.64,0.211296,616264,378853
1459.85,0.213699,614413,375631
1463.04,0.216327,612307,372085
1466.24,0.220138,610032,367464
1469.43,0.223671,607345,362881
1473.67,0.228592,603789,356692
1476.85,0.233526,601175,351136
1480.02,0.238973,597737,344776
1483.19,0.245870,594479,337494
1486.36,0.250752,591232,331899
1489.52,0.254945,587853,326831
1492.68,0.258397,583875,322050
1496.89,0.260169,578062,317545
1500.03,0.260908,574159,314865
1503.18,0.261075,570285,312620
1506.32,0.260044,565444,310703
1509.45,0.258972,560571,308787
1512.58,0.256967,555821,307587
1515.71,0.255008,550344,305933
1519.87,0.251984,543983,304510
1522.99,0.249263,538764,303484
1526.1,0.247323,533692,301973
1529.21,0.244580,527902,300589
1532.32,0.241993,521886,298939
1535.42,0.238459,515888,297918
1538.51,0.235688,509987,296395
1541.6,0.232595,503936,294972
1545.72,0.228368,494694,292394
1548.8,0.225597,488378,290509
1551.88,0.223717,481832,287858
1554.95,0.221233,474989,285398
1558.02,0.219755,467818,282047
1561.08,0.218819,460730,278373
1564.15,0.218249,454170,274770
1568.22,0.217867,444181,268963
1571.27,0.216350,436947,265509
1574.32,0.215355,429598,261642
1577.36,0.213425,422039,258183
1580.4,0.212613,414375,253969
1583.43,0.211850,406354,249491
1586.46,0.210311,398475,245522
1590.49,0.207925,388982,240993
1593.51,0.207003,380708,236368
1596.53,0.204628,372727,232682
1599.54,0.202804,365060,228855
1602.55,0.200966,357543,225093
1605.55,0.198001,349495,221534
1608.55,0.196113,341154,217189
1612.54,0.194307,330877,211524
1615.53,0.193017,322904,207041
1618.51,0.191178,315116,202905
1621.49,0.190635,307217,198066
1624.47,0.189917,299481,193398
1627.44,0.188493,292112,189259
1630.41,0.188290,284245,184248
1634.36,0.186113,274079,178551
1637.32,0.186290,266916,173814
1640.27,0.184535,259612,169742
1643.22,0.183813,251804,164911
1646.16,0.182407,244348,160547
1649.1,0.182979,236703,155319
1652.04,0.182326,228171,149946
1655.95,0.177604,215408,143106
1658.88,0.173318,204937,137500
1661.8,0.168601,193395,131173
1664.72,0.160882,179728,124089
1667.63,0.150336,163642,115760
1670.54,0.135819,146312,107019
1673.44,0.119199,128451,97620
1677.31,0.100016,105080,83465
1680.21,0.089751,88906,72307
1683.1,0.084229,75033,61805
1685.99,0.087016,63520,51987
1688.87,0.091079,53714,43552
1691.75,0.101013,45653,36179
1694.62,0.101478,39137,30982
1697.49,0.100927,33776,26772
1701.31,0.120283,28175,21359