File: samples/wool/wool-000811/Column 1_050532_20150331_115130.csv
Method:,Column 1,,
Host Date-Time:,31/3/15 @ 11:51:30,,
Header Version:,1,,
System Temp (C):,30.53,,
Detector Temp (C):,31.1,,
Humidity (%):,4.68,,
Lamp PD:,3830,,
Shift Vector Coefficients:,-10.5391,0.0761263,-0.000134223,,
Pixel to Wavelength Coefficients:,1775.68,-0.916766,-0.000235065,,
Serial Number:,5510004,,
Scan Config Name:,Column 1,,
Scan Config Type:,Slew,,
Section 1,,
Start wavelength (nm):,900,,
End wavelength (nm):,1700,,
Pattern Pixel Width (nm):,   7.03,,,,
Exposure (ms):,  0.635,,,,
Digital Resolution:,228,,
Num Repeats:,6,,
PGA Gain:,64,,
Total Measurement Time in sec:,  2.694,,
Wavelength (nm),Absorbance (AU),Reference Signal (unitless),Sample Signal (unitless)
901.51,0.044880,108485,97834
905.376,0.048961,121306,108373
909.237,0.051907,131909,117049
913.095,0.051452,143299,127289
916.948,0.052869,156982,138989
922.079,0.051960,179937,159647
925.923,0.051806,200504,177958
929.762,0.051704,222660,197669
933.597,0.053686,244426,216004
937.427,0.052333,263972,234005
941.254,0.054506,281845,248602
945.076,0.053871,297271,262592
950.165,0.053672,315605,278915
953.978,0.054216,328029,289532
957.786,0.055311,340470,299756
961.59,0.055454,352317,310084
965.389,0.055760,363056,319311
969.185,0.055687,373162,328254
972.976,0.056698,382632,335802
976.763,0.057088,391202,343015
981.806,0.057712,400190,350392
985.583,0.058894,406088,354590
989.355,0.059480,410162,357664
993.124,0.059877,412868,359695
996.888,0.060677,414263,360246
1000.65,0.061211,415476,360857
1004.4,0.062237,415479,360008
1009.41,0.063530,414358,357969
1013.15,0.064053,412923,356300
1016.89,0.064472,411526,354752
1020.63,0.064093,409066,352940
1024.36,0.064435,406777,350688
1028.09,0.063439,404427,349463
1031.82,0.063762,401911,347031
1036.78,0.062319,398410,345153
1040.49,0.062722,396204,342923
1044.2,0.062052,394236,341747
1047.91,0.061633,392042,340173
1051.61,0.060134,389823,339417
1055.31,0.060018,388234,338124
1059,0.058760,387599,338550
1063.92,0.058450,386688,337995
1067.61,0.057097,386598,338971
1071.29,0.056505,387377,340117
1074.96,0.056164,388536,341403
1078.63,0.055189,389855,343332
1082.3,0.054104,391215,345391
1085.96,0.053765,393215,347428
1090.84,0.052605,396270,351064
1094.49,0.052652,398760,353232
1098.14,0.051955,400987,355775
1101.79,0.051596,403477,358280
1105.43,0.051418,406116,360771
1109.06,0.051317,407701,362264
1112.7,0.050820,409859,364598
1117.53,0.051434,412494,366424
1121.15,0.052301,414909,367834
1124.77,0.053279,416559,368466
1128.38,0.054178,418532,369446
1131.99,0.055699,419956,369407
1135.6,0.057786,421946,369378
1139.2,0.060061,423881,369133
1143.99,0.062394,426786,369672
1147.58,0.064173,428617,369740
1151.17,0.066130,431169,370269
1154.75,0.066876,433579,371700
1158.33,0.068821,436264,372330
1161.91,0.071366,439132,372588
1165.48,0.074457,442389,372690
1169.04,0.077528,446101,373169
1173.79,0.081506,451929,374597
1177.34,0.084679,456026,375241
1180.9,0.086618,461306,377895
1184.44,0.089114,467657,380902
1187.99,0.089602,473969,385610
1191.52,0.089495,479856,390495
1195.06,0.088682,487372,397355
1199.76,0.087298,497347,406782
1203.29,0.085659,504311,414037
1206.81,0.084486,511507,421081
1210.33,0.083634,519078,428153
1213.84,0.082327,527163,436132
1217.35,0.080782,534208,443536
1220.85,0.080266,540472,449270
1225.51,0.078740,549929,458740
1229.01,0.078112,556888,465217
1232.5,0.077077,562180,470759
1235.98,0.076376,567975,476380
1239.46,0.074710,574815,483970
1242.94,0.073915,582782,491576
1246.41,0.073192,591476,499741
1251.03,0.072707,604016,510907
1254.5,0.072647,612289,517976
1257.96,0.073244,619125,523039
1261.41,0.073789,624551,526961
1264.86,0.074427,629900,530694
1268.31,0.075014,634345,533717
1271.75,0.075779,638574,536330
1276.33,0.076189,642499,539117
1279.76,0.076406,645905,541705
1283.19,0.075504,648307,544850
1286.61,0.075085,650446,547175
1290.03,0.075156,652132,548504
1293.44,0.073947,653907,551530
1296.85,0.074060,655963,553120
1301.39,0.073674,657349,554782
1304.8,0.073665,657558,554970
1308.19,0.073854,658515,555535
1311.58,0.074434,658804,555037
1314.97,0.075275,659011,554138
1318.36,0.075432,658272,553316
1321.73,0.076067,658022,552298
1326.23,0.077290,657870,550617
1329.6,0.078570,656482,547839
1332.97,0.079457,654926,545425
1336.33,0.081008,653727,542486
1339.69,0.082922,652497,539084
1343.04,0.084653,649913,534813
1346.39,0.087279,647671,529755
1349.73,0.089966,645338,524592
1354.18,0.093483,641175,517004
1357.52,0.096357,638376,511351
1360.85,0.098292,635805,507028
1364.17,0.100922,633413,502071
1367.49,0.103657,631026,497039
1370.81,0.105997,628050,492036
1374.12,0.109257,625034,486012
1378.54,0.113235,620272,477911
1381.84,0.117092,616892,471104
1385.14,0.121797,613613,463551
1388.43,0.127198,611526,456265
1391.72,0.133480,610663,449078
1395.01,0.139712,610634,442659
1398.29,0.146456,611700,436599
1402.66,0.155504,614051,429240
1405.93,0.163023,616268,423396
1409.2,0.169420,617795,418239
1412.46,0.175797,618872,412861
1415.72,0.181298,619795,408272
1418.98,0.186609,620495,403766
1422.23,0.191642,621087,399494
1426.56,0.196430,621375,395297
1429.8,0.199826,621616,392370
1433.04,0.202578,622129,390214
1436.27,0.205274,621526,387423
1439.5,0.207678,621113,385028
1442.72,0.210319,620921,382576
1445.94,0.213314,620270,379548
1450.23,0.216885,618860,375584
1453.44,0.219809,617697,372363
1456.64,0.222655,616264,369073
1459.85,0.224957,614413,366019
1463.04,0.227749,612307,362427
1466.24,0.230707,610032,358629
1469.43,0.233194,607345,355011
1473.67,0.238466,603789,348674
1476.85,0.242843,601175,343683
1480.02,0.247681,597737,337932
1483.19,0.253846,594479,331353
1486.36,0.258782,591232,325819
1489.52,0.263381,587853,320544
1492.68,0.267468,583875,315393
1496.89,0.269692,578062,310658
1500.03,0.271170,574159,307512
1503.18,0.271310,570285,305339
1506.32,0.270721,565444,303158
1509.45,0.269130,560571,301648
1512.58,0.268374,555821,299613
1515.71,0.265591,550344,298568
1519.87,0.263303,543983,296676
1522.99,0.259402,538764,296481
1526.1,0.258472,533692,294319
1529.21,0.254504,527902,293798
1532.32,0.251600,521886,292399
1535.42,0.248276,515888,291259
1538.51,0.244963,509987,290132
1541.6,0.241889,503936,288726
1545.72,0.236394,494694,287040
1548.8,0.233317,488378,285390
1551.88,0.230724,481832,283251
1554.95,0.228249,474989,280824
1558.02,0.226720,467818,277560
1561.08,0.225257,460730,274277
1564.15,0.223500,454170,271468
1568.22,0.222562,444181,266071
1571.27,0.222280,436947,261908
1574.32,0.220493,429598,258565
1577.36,0.218385,422039,255251
1580.4,0.217251,414375,251271
1583.43,0.215005,406354,247685
1586.46,0.213175,398475,243908
1590.49,0.211283,388982,239137
1593.51,0.208415,380708,235601
1596.53,0.205852,372727,232027
1599.54,0.203689,365060,228389
1602.55,0.201362,357543,224888
1605.55,0.198458,349495,221301
1608.55,0.196363,341154,217064
1612.54,0.194291,330877,211532
1615.53,0.191718,322904,207661
1618.51,0.190463,315116,203239
1621.49,0.188998,307217,198814
1624.47,0.187097,299481,194658
1627.44,0.184575,292112,190974
1630.41,0.183503,284245,186290
1634.36,0.181707,274079,180372
1637.32,0.180425,266916,176177
1640.27,0.180139,259612,171469
1643.22,0.177959,251804,167149
1646.16,0.178105,244348,162145
1649.1,0.177983,236703,157116
1652.04,0.177335,228171,151679
1655.95,0.174715,215408,144061
1658.88,0.174729,204937,137054
1661.8,0.173700,193395,129642
1664.72,0.171285,179728,121152
1667.63,0.168294,163642,111071
1670.54,0.163261,146312,100466
1673.44,0.160388,128451,88787
1677.31,0.157205,105080,73167
1680.21,0.160635,88906,61418
1683.1,0.160512,75033,51849
1685.99,0.169846,63520,42960
1688.87,0.172376,53714,36117
1691.75,0.173805,45653,30596
1694.62,0.177213,39137,26024
1697.49,0.178205,33776,22408
1701.31,0.182974,28175,18488