File: samples/wool/wool-000811/Column 1_050553_20150331_120111.csv
Method:,Column 1,,
Host Date-Time:,31/3/15 @ 12:1:11,,
Header Version:,1,,
System Temp (C):,33.36,,
Detector Temp (C):,32.4,,
Humidity (%):,2.69,,
Lamp PD:,3820,,
Shift Vector Coefficients:,-10.5391,0.0761263,-0.000134223,,
Pixel to Wavelength Coefficients:,1775.68,-0.916766,-0.000235065,,
Serial Number:,5510004,,
Scan Config Name:,Column 1,,
Scan Config Type:,Slew,,
Section 1,,
Start wavelength (nm):,900,,
End wavelength (nm):,1700,,
Pattern Pixel Width (nm):,   7.03,,,,
Exposure (ms):,  0.635,,,,
Digital Resolution:,228,,
Num Repeats:,6,,
PGA Gain:,64,,
Total Measurement Time in sec:,  2.680,,
Wavelength (nm),Absorbance (AU),Reference Signal (unitless),Sample Signal (unitless)
901.51,0.032884,108485,100574
905.376,0.040434,121306,110522
909.237,0.039908,131909,120328
913.095,0.042343,143299,129987
916.948,0.042297,156982,142414
922.079,0.043754,179937,162692
925.923,0.045052,200504,180747
929.762,0.046352,222660,200120
933.597,0.046495,244426,219610
937.427,0.045909,263972,237492
941.254,0.046818,281845,253042
945.076,0.045449,297271,267734
950.165,0.045176,315605,284425
953.978,0.044830,328029,295857
957.786,0.045054,340470,306920
961.59,0.046340,352317,316660
965.389,0.046279,363056,326358
969.185,0.046121,373162,335565
972.976,0.047150,382632,343266
976.763,0.047256,391202,350869
981.806,0.047949,400190,358358
985.583,0.048955,406088,362798
989.355,0.049832,410162,365699
993.124,0.050418,412868,367615
996.888,0.050803,414263,368530
1000.65,0.051646,415476,368893
1004.4,0.052681,415479,368017
1009.41,0.054147,414358,365787
1013.15,0.053696,412923,364899
1016.89,0.054749,411526,362784
1020.63,0.054756,409066,360610
1024.36,0.054426,406777,358864
1028.09,0.054128,404427,357036
1031.82,0.054467,401911,354538
1036.78,0.053773,398410,352012
1040.49,0.053398,396204,350365
1044.2,0.053272,394236,348726
1047.91,0.053011,392042,346994
1051.61,0.052281,389823,345610
1055.31,0.051633,388234,344715
1059,0.050865,387599,344761
1063.92,0.050079,386688,344573
1067.61,0.049401,386598,345031
1071.29,0.049208,387377,345880
1074.96,0.048418,388536,347547
1078.63,0.047821,389855,349206
1082.3,0.047713,391215,350512
1085.96,0.046399,393215,353371
1090.84,0.045272,396270,357042
1094.49,0.045877,398760,358785
1098.14,0.045392,400987,361192
1101.79,0.044898,403477,363849
1105.43,0.044613,406116,366469
1109.06,0.043992,407701,368426
1112.7,0.044021,409859,370351
1117.53,0.044897,412494,371981
1121.15,0.045180,414909,373915
1124.77,0.045403,416559,375209
1128.38,0.047030,418532,375577
1131.99,0.048467,419956,375610
1135.6,0.050807,421946,375362
1139.2,0.052019,423881,376032
1143.99,0.054597,426786,376368
1147.58,0.055398,428617,377287
1151.17,0.057022,431169,378116
1154.75,0.058021,433579,379356
1158.33,0.059596,436264,380324
1161.91,0.061590,439132,381070
1165.48,0.064879,442389,381000
1169.04,0.066966,446101,382355
1173.79,0.071177,451929,383613
1177.34,0.073493,456026,385032
1180.9,0.075253,461306,387915
1184.44,0.077055,467657,391627
1187.99,0.078079,473969,395978
1191.52,0.077844,479856,401113
1195.06,0.077609,487372,407616
1199.76,0.076317,497347,417198
1203.29,0.076131,504311,423221
1206.81,0.074909,511507,430470
1210.33,0.074223,519078,437532
1213.84,0.073583,527163,445002
1217.35,0.072501,534208,452074
1220.85,0.071711,540472,458208
1225.51,0.070953,549929,467040
1229.01,0.070612,556888,473321
1232.5,0.069538,562180,479002
1235.98,0.069198,567975,484319
1239.46,0.068161,574815,491323
1242.94,0.066900,582782,499581
1246.41,0.066570,591476,507419
1251.03,0.066388,604016,518395
1254.5,0.066405,612289,525474
1257.96,0.066930,619125,530699
1261.41,0.067142,624551,535089
1264.86,0.068222,629900,538331
1268.31,0.068584,634345,541679
1271.75,0.069595,638574,544022
1276.33,0.069741,642499,547182
1279.76,0.069705,645905,550128
1283.19,0.069282,648307,552712
1286.61,0.068749,650446,555216
1290.03,0.068193,652132,557369
1293.44,0.067777,653907,559421
1296.85,0.067816,655963,561130
1301.39,0.067985,657349,562097
1304.8,0.067666,657558,562688
1308.19,0.067989,658515,563088
1311.58,0.067841,658804,563527
1314.97,0.068970,659011,562241
1318.36,0.069479,658272,560953
1321.73,0.069643,658022,560528
1326.23,0.071011,657870,558636
1329.6,0.071649,656482,556639
1332.97,0.073040,654926,553544
1336.33,0.074126,653727,551151
1339.69,0.075783,652497,548019
1343.04,0.077748,649913,543385
1346.39,0.080239,647671,538413
1349.73,0.082245,645338,534001
1354.18,0.085473,641175,526628
1357.52,0.087835,638376,521485
1360.85,0.090320,635805,516421
1364.17,0.092325,633413,512108
1367.49,0.094716,631026,507378
1370.81,0.097241,628050,502057
1374.12,0.099732,625034,496789
1378.54,0.103673,620272,488550
1381.84,0.106875,616892,482319
1385.14,0.111237,613613,474961
1388.43,0.116054,611526,468124
1391.72,0.121819,610663,461299
1395.01,0.126967,610634,455842
1398.29,0.132469,611700,450889
1402.66,0.140527,614051,444301
1405.93,0.147156,616268,439151
1409.2,0.152819,617795,434536
1412.46,0.158641,618872,429497
1415.72,0.163838,619795,425021
1418.98,0.167869,620495,421570
1422.23,0.172309,621087,417680
1426.56,0.176405,621375,413951
1429.8,0.179942,621616,410752
1433.04,0.183263,622129,407960
1436.27,0.185448,621526,405519
1439.5,0.187456,621113,403380
1442.72,0.189983,620921,400916
1445.94,0.193121,620270,397612
1450.23,0.196256,618860,393855
1453.44,0.198743,617697,390870
1456.64,0.202096,616264,386964
1459.85,0.205021,614413,383212
1463.04,0.207149,612307,380032
1466.24,0.210302,610032,375881
1469.43,0.213831,607345,371197
1473.67,0.218995,603789,364662
1476.85,0.223672,601175,359194
1480.02,0.228706,597737,353024
1483.19,0.235636,594479,345542
1486.36,0.241442,591232,339091
1489.52,0.245620,587853,333925
1492.68,0.248772,583875,329267
1496.89,0.250982,578062,324334
1500.03,0.252280,574159,321183
1503.18,0.251537,570285,319562
1506.32,0.251076,565444,317186
1509.45,0.250721,560571,314709
1512.58,0.248243,555821,313828
1515.71,0.245891,550344,312423
1519.87,0.242699,543983,311090
1522.99,0.240110,538764,309948
1526.1,0.237432,533692,308929
1529.21,0.234677,527902,307522
1532.32,0.232008,521886,305892
1535.42,0.228940,515888,304520
1538.51,0.225036,509987,303755
1541.6,0.221739,503936,302438
1545.72,0.218377,494694,299199
1548.8,0.215266,488378,297502
1551.88,0.212600,481832,295322
1554.95,0.209743,474989,293049
1558.02,0.207734,467818,289963
1561.08,0.206393,460730,286453
1564.15,0.206155,454170,282529
1568.22,0.204475,444181,277386
1571.27,0.203137,436947,273711
1574.32,0.203412,429598,268937
1577.36,0.201301,422039,265492
1580.4,0.199786,414375,261582
1583.43,0.198488,406354,257286
1586.46,0.196106,398475,253685
1590.49,0.194565,388982,248522
1593.51,0.192406,380708,244448
1596.53,0.189642,372727,240851
1599.54,0.188140,365060,236714
1602.55,0.185652,357543,233172
1605.55,0.182770,349495,229441
1608.55,0.180421,341154,225180
1612.54,0.179774,330877,218722
1615.53,0.176643,322904,214996
1618.51,0.176305,315116,209974
1621.49,0.174521,307217,205553
1624.47,0.173143,299481,201014
1627.44,0.171606,292112,196763
1630.41,0.170584,284245,191915
1634.36,0.168737,274079,185840
1637.32,0.167668,266916,181429
1640.27,0.167568,259612,176505
1643.22,0.166512,251804,171613
1646.16,0.165542,244348,166904
1649.1,0.165623,236703,161652
1652.04,0.163009,228171,156766
1655.95,0.161562,215408,148491
1658.88,0.158696,204937,142208
1661.8,0.154913,193395,135373
1664.72,0.150357,179728,127133
1667.63,0.142267,163642,117931
1670.54,0.132444,146312,107854
1673.44,0.123024,128451,96764
1677.31,0.112928,105080,81020
1680.21,0.106091,88906,69637
1683.1,0.103430,75033,59132
1685.99,0.109412,63520,49374
1688.87,0.113549,53714,41356
1691.75,0.118340,45653,34764
1694.62,0.121149,39137,29610
1697.49,0.128018,33776,25153
1701.31,0.132281,28175,20777