File: samples/wool/wool-000811/Column 1_050556_20150331_120237.csv
Method:,Column 1,,
Host Date-Time:,31/3/15 @ 12:2:37,,
Header Version:,1,,
System Temp (C):,33.5,,
Detector Temp (C):,32.66,,
Humidity (%):,2.44,,
Lamp PD:,3820,,
Shift Vector Coefficients:,-10.5391,0.0761263,-0.000134223,,
Pixel to Wavelength Coefficients:,1775.68,-0.916766,-0.000235065,,
Serial Number:,5510004,,
Scan Config Name:,Column 1,,
Scan Config Type:,Slew,,
Section 1,,
Start wavelength (nm):,900,,
End wavelength (nm):,1700,,
Pattern Pixel Width (nm):,   7.03,,,,
Exposure (ms):,  0.635,,,,
Digital Resolution:,228,,
Num Repeats:,6,,
PGA Gain:,64,,
Total Measurement Time in sec:,  2.718,,
Wavelength (nm),Absorbance (AU),Reference Signal (unitless),Sample Signal (unitless)
901.51,0.035135,108485,100054
905.376,0.039021,121306,110882
909.237,0.042184,131909,119699
913.095,0.043588,143299,129615
916.948,0.043809,156982,141919
922.079,0.045407,179937,162074
925.923,0.046373,200504,180198
929.762,0.046942,222660,199848
933.597,0.047511,244426,219097
937.427,0.046352,263972,237250
941.254,0.046830,281845,253035
945.076,0.045990,297271,267401
950.165,0.045858,315605,283979
953.978,0.045350,328029,295503
957.786,0.046181,340470,306124
961.59,0.046150,352317,316799
965.389,0.045957,363056,326600
969.185,0.046911,373162,334955
972.976,0.047242,382632,343194
976.763,0.047563,391202,350621
981.806,0.048797,400190,357659
985.583,0.049394,406088,362432
989.355,0.050098,410162,365475
993.124,0.050406,412868,367625
996.888,0.050618,414263,368687
1000.65,0.051551,415476,368973
1004.4,0.052831,415479,367890
1009.41,0.053934,414358,365967
1013.15,0.054879,412923,363907
1016.89,0.055025,411526,362554
1020.63,0.055163,409066,360272
1024.36,0.054919,406777,358457
1028.09,0.054798,404427,356486
1031.82,0.054309,401911,354667
1036.78,0.054218,398410,351651
1040.49,0.053961,396204,349911
1044.2,0.054075,394236,348082
1047.91,0.053380,392042,346699
1051.61,0.052572,389823,345379
1055.31,0.051627,388234,344720
1059,0.051741,387599,344066
1063.92,0.050860,386688,343954
1067.61,0.049852,386598,344673
1071.29,0.049148,387377,345928
1074.96,0.048318,388536,347627
1078.63,0.048253,389855,348859
1082.3,0.046813,391215,351239
1085.96,0.046853,393215,353002
1090.84,0.046191,396270,356287
1094.49,0.045647,398760,358975
1098.14,0.045606,400987,361014
1101.79,0.044800,403477,363931
1105.43,0.045061,406116,366091
1109.06,0.044872,407701,367680
1112.7,0.044077,409859,370303
1117.53,0.044224,412494,372558
1121.15,0.045616,414909,373540
1124.77,0.045894,416559,374785
1128.38,0.046513,418532,376024
1131.99,0.048464,419956,375612
1135.6,0.050684,421946,375468
1139.2,0.051954,423881,376088
1143.99,0.054713,426786,376268
1147.58,0.057848,428617,375164
1151.17,0.057000,431169,378136
1154.75,0.058397,433579,379028
1158.33,0.060198,436264,379797
1161.91,0.062056,439132,380662
1165.48,0.064583,442389,381260
1169.04,0.066873,446101,382437
1173.79,0.070943,451929,383820
1177.34,0.073292,456026,385210
1180.9,0.075626,461306,387582
1184.44,0.076850,467657,391812
1187.99,0.077778,473969,396252
1191.52,0.077700,479856,401246
1195.06,0.077474,487372,407743
1199.76,0.077164,497347,416385
1203.29,0.075688,504311,423653
1206.81,0.074537,511507,430839
1210.33,0.074283,519078,437471
1213.84,0.073016,527163,445583
1217.35,0.072010,534208,452585
1220.85,0.071774,540472,458141
1225.51,0.071395,549929,466564
1229.01,0.070308,556888,473652
1232.5,0.069881,562180,478624
1235.98,0.069089,567975,484440
1239.46,0.068063,574815,491434
1242.94,0.067219,582782,499214
1246.41,0.066648,591476,507328
1251.03,0.066070,604016,518774
1254.5,0.066396,612289,525485
1257.96,0.067097,619125,530495
1261.41,0.067464,624551,534692
1264.86,0.068029,629900,538570
1268.31,0.068648,634345,541598
1271.75,0.069503,638574,544137
1276.33,0.069642,642499,547306
1279.76,0.069997,645905,549758
1283.19,0.069214,648307,552798
1286.61,0.068502,650446,555532
1290.03,0.068352,652132,557164
1293.44,0.067921,653907,559236
1296.85,0.067783,655963,561172
1301.39,0.067545,657349,562667
1304.8,0.067474,657558,562937
1308.19,0.068060,658515,562997
1311.58,0.068061,658804,563242
1314.97,0.068763,659011,562509
1318.36,0.069247,658272,561252
1321.73,0.069058,658022,561284
1326.23,0.070555,657870,559223
1329.6,0.071336,656482,557040
1332.97,0.072367,654926,554402
1336.33,0.074149,653727,551121
1339.69,0.075914,652497,547854
1343.04,0.077635,649913,543526
1346.39,0.080022,647671,538682
1349.73,0.081677,645338,534700
1354.18,0.085292,641175,526847
1357.52,0.087519,638376,521864
1360.85,0.089346,635805,517581
1364.17,0.092352,633413,512077
1367.49,0.094675,631026,507425
1370.81,0.096843,628050,502518
1374.12,0.099068,625034,497549
1378.54,0.102869,620272,489455
1381.84,0.106519,616892,482714
1385.14,0.110406,613613,475870
1388.43,0.115204,611526,469041
1391.72,0.120266,610663,462952
1395.01,0.125933,610634,456928
1398.29,0.131290,611700,452115
1402.66,0.139298,614051,445560
1405.93,0.145381,616268,440949
1409.2,0.151176,617795,436183
1412.46,0.156654,618872,431466
1415.72,0.161427,619795,427387
1418.98,0.166020,620495,423368
1422.23,0.169570,621087,420322
1426.56,0.174547,621375,415726
1429.8,0.177023,621616,413523
1433.04,0.179932,622129,411101
1436.27,0.182477,621526,408303
1439.5,0.184722,621113,405928
1442.72,0.186986,620921,403692
1445.94,0.189482,620270,400958
1450.23,0.193091,618860,396736
1453.44,0.196188,617697,393176
1456.64,0.199265,616264,389495
1459.85,0.202068,614413,385827
1463.04,0.204700,612307,382181
1466.24,0.208009,610032,377871
1469.43,0.210968,607345,373652
1473.67,0.216491,603789,366770
1476.85,0.221699,601175,360829
1480.02,0.227573,597737,353946
1483.19,0.233926,594479,346905
1486.36,0.239637,591232,340503
1489.52,0.244524,587853,334769
1492.68,0.247990,583875,329860
1496.89,0.249764,578062,325245
1500.03,0.250931,574159,322182
1503.18,0.251269,570285,319759
1506.32,0.250296,565444,317756
1509.45,0.248780,560571,316119
1512.58,0.247499,555821,314366
1515.71,0.245359,550344,312806
1519.87,0.242193,543983,311453
1522.99,0.238948,538764,310778
1526.1,0.236928,533692,309288
1529.21,0.233972,527902,308022
1532.32,0.230594,521886,306889
1535.42,0.227702,515888,305389
1538.51,0.224130,509987,304389
1541.6,0.220880,503936,303037
1545.72,0.216317,494694,300621
1548.8,0.213703,488378,298575
1551.88,0.210473,481832,296772
1554.95,0.208786,474989,293696
1558.02,0.208718,467818,289307
1561.08,0.205356,460730,287138
1564.15,0.204911,454170,283340
1568.22,0.203704,444181,277879
1571.27,0.203652,436947,273386
1574.32,0.201337,429598,270225
1577.36,0.200687,422039,265868
1580.4,0.198905,414375,262113
1583.43,0.196647,406354,258379
1586.46,0.195207,398475,254211
1590.49,0.192956,388982,249444
1593.51,0.191291,380708,245076
1596.53,0.188769,372727,241336
1599.54,0.186105,365060,237826
1602.55,0.185058,357543,233491
1605.55,0.182356,349495,229660
1608.55,0.180345,341154,225219
1612.54,0.177783,330877,219727
1615.53,0.175475,322904,215575
1618.51,0.173696,315116,211239
1621.49,0.173629,307217,205976
1624.47,0.172379,299481,201368
1627.44,0.170576,292112,197230
1630.41,0.169851,284245,192239
1634.36,0.167989,274079,186160
1637.32,0.168296,266916,181167
1640.27,0.166143,259612,177085
1643.22,0.164818,251804,172284
1646.16,0.164801,244348,167189
1649.1,0.163505,236703,162442
1652.04,0.163713,228171,156512
1655.95,0.160183,215408,148963
1658.88,0.156026,204937,143085
1661.8,0.153955,193395,135672
1664.72,0.148837,179728,127579
1667.63,0.140360,163642,118450
1670.54,0.130183,146312,108417
1673.44,0.117893,128451,97914
1677.31,0.106273,105080,82271
1680.21,0.100188,88906,70590
1683.1,0.101561,75033,59387
1685.99,0.108814,63520,49442
1688.87,0.109358,53714,41757
1691.75,0.114397,45653,35081
1694.62,0.123163,39137,29473
1697.49,0.126330,33776,25251
1701.31,0.132867,28175,20749