File: samples/wool/wool-000811/Column 1_050608_20150331_122726.csv
Method:,Column 1,,
Host Date-Time:,31/3/15 @ 12:27:26,,
Header Version:,1,,
System Temp (C):,34.04,,
Detector Temp (C):,34.85,,
Humidity (%):,1.66,,
Lamp PD:,3818,,
Shift Vector Coefficients:,-10.5391,0.0761263,-0.000134223,,
Pixel to Wavelength Coefficients:,1775.68,-0.916766,-0.000235065,,
Serial Number:,5510004,,
Scan Config Name:,Column 1,,
Scan Config Type:,Slew,,
Section 1,,
Start wavelength (nm):,900,,
End wavelength (nm):,1700,,
Pattern Pixel Width (nm):,   7.03,,,,
Exposure (ms):,  0.635,,,,
Digital Resolution:,228,,
Num Repeats:,6,,
PGA Gain:,64,,
Total Measurement Time in sec:,  2.670,,
Wavelength (nm),Absorbance (AU),Reference Signal (unitless),Sample Signal (unitless)
901.51,0.068656,108485,92622
905.376,0.074291,121306,102233
909.237,0.076814,131909,110525
913.095,0.078207,143299,119684
916.948,0.079481,156982,130728
922.079,0.080511,179937,149489
925.923,0.081079,200504,166358
929.762,0.082905,222660,183966
933.597,0.082321,244426,202221
937.427,0.080987,263972,219064
941.254,0.080279,281845,234278
945.076,0.079388,297271,247608
950.165,0.077718,315605,263892
953.978,0.076877,328029,274812
957.786,0.077444,340470,284862
961.59,0.077500,352317,294736
965.389,0.077043,363056,304040
969.185,0.077693,373162,312036
972.976,0.077979,382632,319744
976.763,0.078051,391202,326851
981.806,0.078876,400190,333726
985.583,0.079345,406088,338279
989.355,0.079560,410162,341504
993.124,0.080000,412868,343409
996.888,0.080648,414263,344055
1000.65,0.081335,415476,344517
1004.4,0.082576,415479,343537
1009.41,0.083616,414358,341790
1013.15,0.083738,412923,340511
1016.89,0.084408,411526,338836
1020.63,0.084027,409066,337106
1024.36,0.084385,406777,334943
1028.09,0.084626,404427,332824
1031.82,0.083937,401911,331278
1036.78,0.083467,398410,328748
1040.49,0.083497,396204,326905
1044.2,0.084099,394236,324831
1047.91,0.082826,392042,323971
1051.61,0.083057,389823,321966
1055.31,0.082985,388234,320707
1059,0.081863,387599,321011
1063.92,0.081599,386688,320451
1067.61,0.081035,386598,320793
1071.29,0.080260,387377,322013
1074.96,0.079523,388536,323525
1078.63,0.079079,389855,324956
1082.3,0.078230,391215,326727
1085.96,0.077709,393215,328792
1090.84,0.076841,396270,332009
1094.49,0.075828,398760,334876
1098.14,0.075142,400987,337278
1101.79,0.074741,403477,339686
1105.43,0.074387,406116,342187
1109.06,0.073745,407701,344030
1112.7,0.073822,409859,345790
1117.53,0.073568,412494,348217
1121.15,0.073260,414909,350504
1124.77,0.074139,416559,351186
1128.38,0.074859,418532,352265
1131.99,0.075670,419956,352804
1135.6,0.077269,421946,353173
1139.2,0.078852,423881,353502
1143.99,0.080129,426786,354880
1147.58,0.081200,428617,355524
1151.17,0.082588,431169,356500
1154.75,0.083767,433579,357521
1158.33,0.084607,436264,359040
1161.91,0.086498,439132,359830
1165.48,0.088952,442389,360456
1169.04,0.090488,446101,362197
1173.79,0.093778,451929,364160
1177.34,0.095970,456026,365611
1180.9,0.098517,461306,367682
1184.44,0.099862,467657,371591
1187.99,0.101278,473969,375381
1191.52,0.100584,479856,380651
1195.06,0.100992,487372,386250
1199.76,0.100526,497347,394579
1203.29,0.099574,504311,400982
1206.81,0.099344,511507,406919
1210.33,0.098754,519078,413503
1213.84,0.098571,527163,420121
1217.35,0.097437,534208,426848
1220.85,0.096783,540472,432504
1225.51,0.096160,549929,440704
1229.01,0.095431,556888,447030
1232.5,0.094822,562180,451911
1235.98,0.094188,567975,457237
1239.46,0.093165,574815,463835
1242.94,0.092039,582782,471484
1246.41,0.091652,591476,478944
1251.03,0.091557,604016,489206
1254.5,0.091413,612289,496070
1257.96,0.092085,619125,500833
1261.41,0.093261,624551,503857
1264.86,0.093536,629900,507850
1268.31,0.093894,634345,511012
1271.75,0.094331,638574,513902
1276.33,0.094824,642499,516474
1279.76,0.094182,645905,519980
1283.19,0.093808,648307,522363
1286.61,0.093500,650446,524459
1290.03,0.093134,652132,526261
1293.44,0.092961,653907,527904
1296.85,0.092699,655963,529883
1301.39,0.092109,657349,531725
1304.8,0.092521,657558,531390
1308.19,0.092474,658515,532220
1311.58,0.092217,658804,532769
1314.97,0.092685,659011,532363
1318.36,0.093457,658272,530821
1321.73,0.093661,658022,530370
1326.23,0.094892,657870,528747
1329.6,0.095090,656482,527391
1332.97,0.095898,654926,525163
1336.33,0.097057,653727,522805
1339.69,0.098153,652497,520506
1343.04,0.099984,649913,516263
1346.39,0.101882,647671,512239
1349.73,0.103774,645338,508175
1354.18,0.106879,641175,501300
1357.52,0.108639,638376,497093
1360.85,0.110610,635805,492849
1364.17,0.112730,633413,488604
1367.49,0.115146,631026,484062
1370.81,0.117135,628050,479578
1374.12,0.119206,625034,475004
1378.54,0.122055,620272,468303
1381.84,0.124825,616892,462790
1385.14,0.127781,613613,457208
1388.43,0.131748,611526,451510
1391.72,0.135478,610663,447017
1395.01,0.139707,610634,442664
1398.29,0.144116,611700,438958
1402.66,0.149793,614051,434922
1405.93,0.154978,616268,431312
1409.2,0.160068,617795,427343
1412.46,0.164238,618872,423997
1415.72,0.168582,619795,420403
1418.98,0.171571,620495,417991
1422.23,0.174803,621087,415288
1426.56,0.179026,621375,411460
1429.8,0.181316,621616,409455
1433.04,0.183350,622129,407878
1436.27,0.186167,621526,404848
1439.5,0.187363,621113,403467
1442.72,0.190260,620921,400660
1445.94,0.192585,620270,398103
1450.23,0.196268,618860,393844
1453.44,0.199317,617697,390354
1456.64,0.201920,616264,387121
1459.85,0.204374,614413,383784
1463.04,0.207814,612307,379451
1466.24,0.211280,610032,375036
1469.43,0.215359,607345,369893
1473.67,0.221348,603789,362691
1476.85,0.226503,601175,356860
1480.02,0.232673,597737,349814
1483.19,0.239463,594479,342510
1486.36,0.244662,591232,336586
1489.52,0.249682,587853,330816
1492.68,0.252519,583875,326438
1496.89,0.254919,578062,321407
1500.03,0.256478,574159,318093
1503.18,0.255160,570285,316907
1506.32,0.254587,565444,314632
1509.45,0.253472,560571,312722
1512.58,0.251915,555821,311186
1515.71,0.249603,550344,309764
1519.87,0.246658,543983,308267
1522.99,0.243809,538764,307319
1526.1,0.241873,533692,305786
1529.21,0.238942,527902,304517
1532.32,0.235925,521886,303145
1535.42,0.232967,515888,301709
1538.51,0.229667,509987,300533
1541.6,0.226935,503936,298841
1545.72,0.223227,494694,295876
1548.8,0.220409,488378,294000
1551.88,0.218241,481832,291511
1554.95,0.216252,474989,288690
1558.02,0.214320,467818,285599
1561.08,0.213324,460730,281918
1564.15,0.212938,454170,278151
1568.22,0.211945,444181,272656
1571.27,0.211520,436947,268478
1574.32,0.210297,429598,264707
1577.36,0.209257,422039,260673
1580.4,0.208260,414375,256527
1583.43,0.206464,406354,252604
1586.46,0.204694,398475,248718
1590.49,0.202935,388982,243778
1593.51,0.200996,380708,239660
1596.53,0.199928,372727,235214
1599.54,0.197410,365060,231715
1602.55,0.195807,357543,227783
1605.55,0.193725,349495,223726
1608.55,0.191162,341154,219679
1612.54,0.190019,330877,213623
1615.53,0.187566,322904,209656
1618.51,0.187363,315116,204695
1621.49,0.185936,307217,200221
1624.47,0.184761,299481,195708
1627.44,0.184964,292112,190803
1630.41,0.182874,284245,186560
1634.36,0.181586,274079,180422
1637.32,0.180408,266916,176184
1640.27,0.181296,259612,171013
1643.22,0.179085,251804,166716
1646.16,0.179245,244348,161720
1649.1,0.178894,236703,156787
1652.04,0.176994,228171,151798
1655.95,0.172640,215408,144751
1658.88,0.169641,204937,138669
1661.8,0.164374,193395,132456
1664.72,0.157581,179728,125036
1667.63,0.144504,163642,117325
1670.54,0.130030,146312,108455
1673.44,0.113822,128451,98836
1677.31,0.093006,105080,84823
1680.21,0.080569,88906,73852
1683.1,0.075974,75033,62991
1685.99,0.078012,63520,53076
1688.87,0.081991,53714,44473
1691.75,0.084154,45653,37611
1694.62,0.087193,39137,32018
1697.49,0.092605,33776,27290
1701.31,0.104431,28175,22153