File: samples/wool/wool-000811/Column 1_050568_20150331_120818.csv
Method:,Column 1,,
Host Date-Time:,31/3/15 @ 12:8:18,,
Header Version:,1,,
System Temp (C):,33.95,,
Detector Temp (C):,33.92,,
Humidity (%):,1.86,,
Lamp PD:,3819,,
Shift Vector Coefficients:,-10.5391,0.0761263,-0.000134223,,
Pixel to Wavelength Coefficients:,1775.68,-0.916766,-0.000235065,,
Serial Number:,5510004,,
Scan Config Name:,Column 1,,
Scan Config Type:,Slew,,
Section 1,,
Start wavelength (nm):,900,,
End wavelength (nm):,1700,,
Pattern Pixel Width (nm):,   7.03,,,,
Exposure (ms):,  0.635,,,,
Digital Resolution:,228,,
Num Repeats:,6,,
PGA Gain:,64,,
Total Measurement Time in sec:,  2.674,,
Wavelength (nm),Absorbance (AU),Reference Signal (unitless),Sample Signal (unitless)
901.51,0.033454,108485,100442
905.376,0.041563,121306,110235
909.237,0.043005,131909,119473
913.095,0.044302,143299,129402
916.948,0.044842,156982,141582
922.079,0.046096,179937,161817
925.923,0.047899,200504,179566
929.762,0.048621,222660,199077
933.597,0.049466,244426,218113
937.427,0.048057,263972,236320
941.254,0.048374,281845,252137
945.076,0.047649,297271,266381
950.165,0.047252,315605,283069
953.978,0.046355,328029,294820
957.786,0.046186,340470,306121
961.59,0.047410,352317,315881
965.389,0.047264,363056,325619
969.185,0.047642,373162,334392
972.976,0.047768,382632,342778
976.763,0.048555,391202,349821
981.806,0.048960,400190,357525
985.583,0.049645,406088,362222
989.355,0.050086,410162,365485
993.124,0.050794,412868,367297
996.888,0.051031,414263,368337
1000.65,0.051502,415476,369015
1004.4,0.053112,415479,367652
1009.41,0.054216,414358,365729
1013.15,0.054997,412923,363808
1016.89,0.055439,411526,362208
1020.63,0.054721,409066,360639
1024.36,0.055780,406777,357747
1028.09,0.055180,404427,356172
1031.82,0.054378,401911,354611
1036.78,0.054190,398410,351674
1040.49,0.054125,396204,349779
1044.2,0.053820,394236,348286
1047.91,0.053125,392042,346903
1051.61,0.052657,389823,345311
1055.31,0.052255,388234,344222
1059,0.051362,387599,344366
1063.92,0.050546,386688,344203
1067.61,0.049530,386598,344929
1071.29,0.049531,387377,345623
1074.96,0.049183,388536,346935
1078.63,0.048323,389855,348803
1082.3,0.047105,391215,351003
1085.96,0.046769,393215,353070
1090.84,0.045917,396270,356512
1094.49,0.045445,398760,359142
1098.14,0.045118,400987,361420
1101.79,0.045295,403477,363516
1105.43,0.045111,406116,366049
1109.06,0.044065,407701,368364
1112.7,0.044524,409859,369922
1117.53,0.043960,412494,372784
1121.15,0.045236,414909,373867
1124.77,0.045385,416559,375225
1128.38,0.047027,418532,375579
1131.99,0.048190,419956,375849
1135.6,0.049777,421946,376253
1139.2,0.051597,423881,376398
1143.99,0.054167,426786,376741
1147.58,0.055182,428617,377474
1151.17,0.056602,431169,378482
1154.75,0.058190,433579,379209
1158.33,0.059226,436264,380648
1161.91,0.061692,439132,380981
1165.48,0.064042,442389,381735
1169.04,0.066839,446101,382467
1173.79,0.070610,451929,384114
1177.34,0.072953,456026,385511
1180.9,0.074931,461306,388202
1184.44,0.077471,467657,391252
1187.99,0.077641,473969,396377
1191.52,0.077692,479856,401254
1195.06,0.077386,487372,407826
1199.76,0.076179,497347,417331
1203.29,0.075655,504311,423685
1206.81,0.074708,511507,430669
1210.33,0.074195,519078,437560
1213.84,0.073234,527163,445360
1217.35,0.072260,534208,452325
1220.85,0.071463,540472,458469
1225.51,0.070549,549929,467474
1229.01,0.070000,556888,473989
1232.5,0.069276,562180,479291
1235.98,0.068706,567975,484868
1239.46,0.067522,574815,492046
1242.94,0.066865,582782,499622
1246.41,0.066072,591476,508002
1251.03,0.066064,604016,518782
1254.5,0.066152,612289,525781
1257.96,0.066897,619125,530740
1261.41,0.067358,624551,534823
1264.86,0.067919,629900,538707
1268.31,0.068272,634345,542068
1271.75,0.069145,638574,544586
1276.33,0.069645,642499,547303
1279.76,0.069116,645905,550874
1283.19,0.068748,648307,553392
1286.61,0.068401,650446,555661
1290.03,0.068014,652132,557599
1293.44,0.067444,653907,559850
1296.85,0.067201,655963,561925
1301.39,0.067016,657349,563352
1304.8,0.067153,657558,563354
1308.19,0.067419,658515,563828
1311.58,0.067348,658804,564168
1314.97,0.068106,659011,563361
1318.36,0.068753,658272,561891
1321.73,0.069018,658022,561336
1326.23,0.069461,657870,560633
1329.6,0.070867,656482,557642
1332.97,0.071464,654926,555557
1336.33,0.072688,653727,552979
1339.69,0.074619,652497,549490
1343.04,0.076345,649913,545143
1346.39,0.078202,647671,540944
1349.73,0.080763,645338,535826
1354.18,0.083642,641175,528852
1357.52,0.086479,638376,523115
1360.85,0.088263,635805,518873
1364.17,0.090824,633413,513881
1367.49,0.092830,631026,509586
1370.81,0.095238,628050,504378
1374.12,0.097499,625034,499350
1378.54,0.101313,620272,491212
1381.84,0.104560,616892,484897
1385.14,0.108401,613613,478072
1388.43,0.112409,611526,472069
1391.72,0.117356,610663,466064
1395.01,0.122105,610634,460974
1398.29,0.127241,611700,456349
1402.66,0.134722,614051,450280
1405.93,0.140727,616268,445700
1409.2,0.146144,617795,441266
1412.46,0.150715,618872,437407
1415.72,0.155291,619795,433468
1418.98,0.159100,620495,430168
1422.23,0.162987,621087,426742
1426.56,0.167308,621375,422713
1429.8,0.169926,621616,420336
1433.04,0.172706,622129,417998
1436.27,0.175365,621526,415044
1439.5,0.177289,621113,412935
1442.72,0.179474,620921,410736
1445.94,0.182625,620270,407339
1450.23,0.186046,618860,403224
1453.44,0.188946,617697,399788
1456.64,0.192047,616264,396022
1459.85,0.194567,614413,392549
1463.04,0.197810,612307,388293
1466.24,0.201336,610032,383722
1469.43,0.204761,607345,379031
1473.67,0.211167,603789,371294
1476.85,0.216881,601175,364855
1480.02,0.223203,597737,357526
1483.19,0.229784,594479,350229
1486.36,0.236150,591232,343248
1489.52,0.241556,587853,337064
1492.68,0.245017,583875,332126
1496.89,0.247526,578062,326925
1500.03,0.248395,574159,324069
1503.18,0.248107,570285,322096
1506.32,0.247640,565444,319705
1509.45,0.245859,560571,318252
1512.58,0.244195,555821,316767
1515.71,0.242019,550344,315221
1519.87,0.238889,543983,313831
1522.99,0.235681,538764,313125
1526.1,0.233190,533692,311961
1529.21,0.229930,527902,310902
1532.32,0.226755,521886,309614
1535.42,0.224229,515888,307841
1538.51,0.220823,509987,306716
1541.6,0.217721,503936,305249
1545.72,0.212732,494694,303113
1548.8,0.210089,488378,301070
1551.88,0.207425,481832,298862
1554.95,0.205417,474989,295983
1558.02,0.203679,467818,292683
1561.08,0.202230,460730,289212
1564.15,0.201466,454170,285596
1568.22,0.200565,444181,279895
1571.27,0.199540,436947,275987
1574.32,0.198378,429598,272072
1577.36,0.197150,422039,268042
1580.4,0.195791,414375,263999
1583.43,0.193923,406354,260005
1586.46,0.192662,398475,255705
1590.49,0.191011,388982,250564
1593.51,0.188145,380708,246858
1596.53,0.184995,372727,243442
1599.54,0.182890,365060,239593
1602.55,0.181395,357543,235469
1605.55,0.178794,349495,231551
1608.55,0.177003,341154,226959
1612.54,0.175147,330877,221065
1615.53,0.172874,322904,216870
1618.51,0.171727,315116,212199
1621.49,0.171160,307217,207150
1624.47,0.169166,299481,202863
1627.44,0.169053,292112,197923
1630.41,0.167232,284245,193402
1634.36,0.164469,274079,187675
1637.32,0.164993,266916,182550
1640.27,0.163420,259612,178199
1643.22,0.163187,251804,172932
1646.16,0.162436,244348,168102
1649.1,0.161502,236703,163193
1652.04,0.159587,228171,158006
1655.95,0.156364,215408,150279
1658.88,0.153641,204937,143873
1661.8,0.149104,193395,137196
1664.72,0.143404,179728,129185
1667.63,0.133947,163642,120212
1670.54,0.121022,146312,110728
1673.44,0.106260,128451,100572
1677.31,0.090001,105080,85412
1680.21,0.082484,88906,73527
1683.1,0.078963,75033,62559
1685.99,0.084974,63520,52232
1688.87,0.087524,53714,43910
1691.75,0.087504,45653,37322
1694.62,0.098280,39137,31211
1697.49,0.094982,33776,27141
1701.31,0.110055,28175,21868