File: samples/wool/wool-000811/Column 1_050630_20150331_123751.csv
Method:,Column 1,,
Host Date-Time:,31/3/15 @ 12:37:51,,
Header Version:,1,,
System Temp (C):,34.14,,
Detector Temp (C):,35.1,,
Humidity (%):,1.56,,
Lamp PD:,3818,,
Shift Vector Coefficients:,-10.5391,0.0761263,-0.000134223,,
Pixel to Wavelength Coefficients:,1775.68,-0.916766,-0.000235065,,
Serial Number:,5510004,,
Scan Config Name:,Column 1,,
Scan Config Type:,Slew,,
Section 1,,
Start wavelength (nm):,900,,
End wavelength (nm):,1700,,
Pattern Pixel Width (nm):,   7.03,,,,
Exposure (ms):,  0.635,,,,
Digital Resolution:,228,,
Num Repeats:,6,,
PGA Gain:,64,,
Total Measurement Time in sec:,  2.732,,
Wavelength (nm),Absorbance (AU),Reference Signal (unitless),Sample Signal (unitless)
901.51,0.069059,108485,92536
905.376,0.074478,121306,102189
909.237,0.076386,131909,110634
913.095,0.077609,143299,119849
916.948,0.078814,156982,130929
922.079,0.079296,179937,149908
925.923,0.082211,200504,165925
929.762,0.082836,222660,183995
933.597,0.081469,244426,202618
937.427,0.081145,263972,218984
941.254,0.079505,281845,234696
945.076,0.079006,297271,247826
950.165,0.077686,315605,263911
953.978,0.076289,328029,275184
957.786,0.077367,340470,284913
961.59,0.076959,352317,295104
965.389,0.077286,363056,303870
969.185,0.077199,373162,312391
972.976,0.077525,382632,320078
976.763,0.077852,391202,327001
981.806,0.078456,400190,334049
985.583,0.078560,406088,338891
989.355,0.079580,410162,341488
993.124,0.079301,412868,343962
996.888,0.080310,414263,344323
1000.65,0.081241,415476,344592
1004.4,0.081639,415479,344279
1009.41,0.083350,414358,342000
1013.15,0.083636,412923,340591
1016.89,0.084300,411526,338920
1020.63,0.084218,409066,336958
1024.36,0.083792,406777,335401
1028.09,0.084529,404427,332898
1031.82,0.083635,401911,331509
1036.78,0.083558,398410,328679
1040.49,0.083343,396204,327021
1044.2,0.083536,394236,325252
1047.91,0.082502,392042,324213
1051.61,0.082811,389823,322149
1055.31,0.082372,388234,321160
1059,0.081227,387599,321481
1063.92,0.081109,386688,320813
1067.61,0.080106,386598,321480
1071.29,0.079876,387377,322298
1074.96,0.079499,388536,323543
1078.63,0.078484,389855,325401
1082.3,0.077649,391215,327165
1085.96,0.076867,393215,329430
1090.84,0.076012,396270,332644
1094.49,0.075949,398760,334782
1098.14,0.074970,400987,337412
1101.79,0.074438,403477,339923
1105.43,0.073441,406116,342933
1109.06,0.073001,407701,344620
1112.7,0.073039,409859,346414
1117.53,0.072681,412494,348929
1121.15,0.073269,414909,350497
1124.77,0.073093,416559,352033
1128.38,0.073964,418532,352992
1131.99,0.075088,419956,353277
1135.6,0.076205,421946,354040
1139.2,0.078147,423881,354076
1143.99,0.079581,426786,355328
1147.58,0.080301,428617,356261
1151.17,0.081447,431169,357438
1154.75,0.082149,433579,358855
1158.33,0.083860,436264,359658
1161.91,0.085851,439132,360366
1165.48,0.087488,442389,361673
1169.04,0.089901,446101,362687
1173.79,0.093433,451929,364449
1177.34,0.094816,456026,366584
1180.9,0.097130,461306,368858
1184.44,0.099418,467657,371971
1187.99,0.100011,473969,376477
1191.52,0.100192,479856,380995
1195.06,0.099980,487372,387151
1199.76,0.099554,497347,395463
1203.29,0.098643,504311,401842
1206.81,0.098144,511507,408045
1210.33,0.097561,519078,414640
1213.84,0.097292,527163,421360
1217.35,0.096829,534208,427446
1220.85,0.096213,540472,433072
1225.51,0.095157,549929,441723
1229.01,0.095000,556888,447474
1232.5,0.094074,562180,452690
1235.98,0.093381,567975,458087
1239.46,0.092345,574815,464711
1242.94,0.091481,582782,472090
1246.41,0.090889,591476,479787
1251.03,0.090667,604016,490209
1254.5,0.091215,612289,496297
1257.96,0.091562,619125,501437
1261.41,0.092056,624551,505257
1264.86,0.092490,629900,509075
1268.31,0.092711,634345,512406
1271.75,0.093795,638574,514537
1276.33,0.093809,642499,517683
1279.76,0.093795,645905,520444
1283.19,0.092987,648307,523352
1286.61,0.092929,650446,525149
1290.03,0.092597,652132,526912
1293.44,0.091870,653907,529232
1296.85,0.091347,655963,531535
1301.39,0.091303,657349,532713
1304.8,0.091223,657558,532980
1308.19,0.091619,658515,533269
1311.58,0.091323,658804,533867
1314.97,0.091800,659011,533449
1318.36,0.092552,658272,531929
1321.73,0.092509,658022,531779
1326.23,0.093397,657870,530571
1329.6,0.093981,656482,528739
1332.97,0.094671,654926,526649
1336.33,0.095720,653727,524416
1339.69,0.096891,652497,522021
1343.04,0.098411,649913,518137
1346.39,0.100683,647671,513655
1349.73,0.102281,645338,509925
1354.18,0.104877,641175,503616
1357.52,0.107053,638376,498912
1360.85,0.109208,635805,494443
1364.17,0.111333,633413,490178
1367.49,0.113371,631026,486045
1370.81,0.115807,628050,481047
1374.12,0.117302,625034,477091
1378.54,0.120114,620272,470401
1381.84,0.123001,616892,464738
1385.14,0.125624,613613,459484
1388.43,0.129406,611526,453951
1391.72,0.132926,610663,449651
1395.01,0.136810,610634,445626
1398.29,0.141010,611700,442108
1402.66,0.146389,614051,438344
1405.93,0.151428,616268,434852
1409.2,0.155674,617795,431688
1412.46,0.159403,618872,428744
1415.72,0.163697,619795,425159
1418.98,0.166972,620495,422441
1422.23,0.170325,621087,419592
1426.56,0.173551,621375,416680
1429.8,0.176480,621616,414040
1433.04,0.178776,622129,412197
1436.27,0.181071,621526,409627
1439.5,0.182776,621113,407751
1442.72,0.185124,620921,405427
1445.94,0.188168,620270,402173
1450.23,0.191294,618860,398381
1453.44,0.194578,617697,394637
1456.64,0.197472,616264,391106
1459.85,0.200454,614413,387263
1463.04,0.203136,612307,383560
1466.24,0.206897,610032,378840
1469.43,0.210536,607345,374024
1473.67,0.217218,603789,366157
1476.85,0.223336,601175,359472
1480.02,0.229459,597737,352412
1483.19,0.235942,594479,345298
1486.36,0.242149,591232,338539
1489.52,0.247613,587853,332396
1492.68,0.250857,583875,327690
1496.89,0.253348,578062,322572
1500.03,0.253671,574159,320156
1503.18,0.253887,570285,317837
1506.32,0.252558,565444,316105
1509.45,0.250935,560571,314554
1512.58,0.249578,555821,312865
1515.71,0.247186,550344,311493
1519.87,0.244264,543983,309971
1522.99,0.241308,538764,309094
1526.1,0.239403,533692,307530
1529.21,0.236256,527902,306406
1532.32,0.233380,521886,304927
1535.42,0.230975,515888,303096
1538.51,0.227689,509987,301905
1541.6,0.224625,503936,300435
1545.72,0.220677,494694,297618
1548.8,0.218052,488378,295600
1551.88,0.215236,481832,293535
1554.95,0.214274,474989,290008
1558.02,0.212516,467818,286788
1561.08,0.210304,460730,283885
1564.15,0.209856,454170,280132
1568.22,0.209781,444181,274018
1571.27,0.208607,436947,270285
1574.32,0.207280,429598,266552
1577.36,0.207060,422039,261995
1580.4,0.206240,414375,257723
1583.43,0.203307,406354,254447
1586.46,0.202981,398475,249701
1590.49,0.200888,388982,244930
1593.51,0.198555,380708,241011
1596.53,0.196741,372727,236946
1599.54,0.194275,365060,233394
1602.55,0.193392,357543,229053
1605.55,0.191052,349495,225107
1608.55,0.188694,341154,220931
1612.54,0.187036,330877,215095
1615.53,0.186931,322904,209963
1618.51,0.184844,315116,205886
1621.49,0.183308,307217,201436
1624.47,0.183007,299481,196500
1627.44,0.182454,292112,191909
1630.41,0.181007,284245,187364
1634.36,0.179387,274079,181338
1637.32,0.179244,266916,176657
1640.27,0.178438,259612,172142
1643.22,0.176680,251804,167642
1646.16,0.176584,244348,162714
1649.1,0.175769,236703,157919
1652.04,0.175247,228171,152410
1655.95,0.170674,215408,145408
1658.88,0.167295,204937,139420
1661.8,0.161107,193395,133456
1664.72,0.153632,179728,126178
1667.63,0.140143,163642,118509
1670.54,0.125608,146312,109565
1673.44,0.107484,128451,100289
1677.31,0.090622,105080,85290
1680.21,0.079189,88906,74087
1683.1,0.069955,75033,63870
1685.99,0.068207,63520,54288
1688.87,0.070143,53714,45703
1691.75,0.079514,45653,38015
1694.62,0.085839,39137,32118
1697.49,0.090192,33776,27442
1701.31,0.097662,28175,22501