File: samples/wool/wool-000811/Column 1_050601_20150331_122409.csv
Method:,Column 1,,
Host Date-Time:,31/3/15 @ 12:24:9,,
Header Version:,1,,
System Temp (C):,34,,
Detector Temp (C):,34.77,,
Humidity (%):,1.76,,
Lamp PD:,3818,,
Shift Vector Coefficients:,-10.5391,0.0761263,-0.000134223,,
Pixel to Wavelength Coefficients:,1775.68,-0.916766,-0.000235065,,
Serial Number:,5510004,,
Scan Config Name:,Column 1,,
Scan Config Type:,Slew,,
Section 1,,
Start wavelength (nm):,900,,
End wavelength (nm):,1700,,
Pattern Pixel Width (nm):,   7.03,,,,
Exposure (ms):,  0.635,,,,
Digital Resolution:,228,,
Num Repeats:,6,,
PGA Gain:,64,,
Total Measurement Time in sec:,  2.685,,
Wavelength (nm),Absorbance (AU),Reference Signal (unitless),Sample Signal (unitless)
901.51,0.068890,108485,92572
905.376,0.074508,121306,102182
909.237,0.075645,131909,110823
913.095,0.077993,143299,119743
916.948,0.080246,156982,130498
922.079,0.080264,179937,149574
925.923,0.082078,200504,165976
929.762,0.082664,222660,184068
933.597,0.082835,244426,201982
937.427,0.081840,263972,218634
941.254,0.080156,281845,234344
945.076,0.079277,297271,247671
950.165,0.078894,315605,263178
953.978,0.077702,328029,274290
957.786,0.077939,340470,284538
961.59,0.078117,352317,294318
965.389,0.078507,363056,303017
969.185,0.078608,373162,311379
972.976,0.078020,382632,319714
976.763,0.079073,391202,326083
981.806,0.079074,400190,333574
985.583,0.079781,406088,337940
989.355,0.080351,410162,340882
993.124,0.080962,412868,342649
996.888,0.081957,414263,343020
1000.65,0.082553,415476,343552
1004.4,0.083654,415479,342685
1009.41,0.084820,414358,340844
1013.15,0.085041,412923,339491
1016.89,0.085216,411526,338206
1020.63,0.085251,409066,336157
1024.36,0.085369,406777,334185
1028.09,0.084701,404427,332766
1031.82,0.085114,401911,330382
1036.78,0.084757,398410,327773
1040.49,0.084245,396204,326343
1044.2,0.084732,394236,324358
1047.91,0.084287,392042,322883
1051.61,0.083949,389823,321306
1055.31,0.083964,388234,319985
1059,0.083002,387599,320170
1063.92,0.082496,386688,319790
1067.61,0.081273,386598,320617
1071.29,0.080819,387377,321599
1074.96,0.080912,388536,322492
1078.63,0.079814,389855,324406
1082.3,0.078922,391215,326207
1085.96,0.077845,393215,328689
1090.84,0.077585,396270,331441
1094.49,0.077229,398760,333797
1098.14,0.076432,400987,336278
1101.79,0.075764,403477,338887
1105.43,0.075574,406116,341253
1109.06,0.074480,407701,343449
1112.7,0.074090,409859,345577
1117.53,0.074113,412494,347780
1121.15,0.074553,414909,349462
1124.77,0.074770,416559,350676
1128.38,0.076093,418532,351266
1131.99,0.077369,419956,351427
1135.6,0.078072,421946,352521
1139.2,0.080044,423881,352533
1143.99,0.081470,426786,353786
1147.58,0.082110,428617,354780
1151.17,0.083562,431169,355701
1154.75,0.084326,433579,357061
1158.33,0.085596,436264,358223
1161.91,0.087215,439132,359236
1165.48,0.089731,442389,359810
1169.04,0.091886,446101,361033
1173.79,0.095389,451929,362812
1177.34,0.096922,456026,364811
1180.9,0.099032,461306,367246
1184.44,0.100864,467657,370735
1187.99,0.102146,473969,374631
1191.52,0.102554,479856,378928
1195.06,0.102190,487372,385186
1199.76,0.100734,497347,394390
1203.29,0.100445,504311,400178
1206.81,0.100137,511507,406176
1210.33,0.099233,519078,413047
1213.84,0.099145,527163,419566
1217.35,0.098427,534208,425876
1220.85,0.097693,540472,431599
1225.51,0.096454,549929,440405
1229.01,0.096352,556888,446083
1232.5,0.096269,562180,450408
1235.98,0.095269,567975,456100
1239.46,0.094491,574815,462420
1242.94,0.092955,582782,470491
1246.41,0.092448,591476,478067
1251.03,0.092507,604016,488137
1254.5,0.092623,612289,494690
1257.96,0.093105,619125,499658
1261.41,0.093494,624551,503586
1264.86,0.094312,629900,506944
1268.31,0.094551,634345,510240
1271.75,0.095367,638574,512677
1276.33,0.095458,642499,515720
1279.76,0.095702,645905,518163
1283.19,0.094861,648307,521098
1286.61,0.094486,650446,523269
1290.03,0.094122,652132,525066
1293.44,0.093663,653907,527051
1296.85,0.093240,655963,529224
1301.39,0.093793,657349,529667
1304.8,0.093366,657558,530357
1308.19,0.093389,658515,531101
1311.58,0.093559,658804,531125
1314.97,0.094201,659011,530508
1318.36,0.094143,658272,529984
1321.73,0.094455,658022,529402
1326.23,0.095616,657870,527867
1329.6,0.096570,656482,525597
1332.97,0.097261,654926,523518
1336.33,0.098301,653727,521309
1339.69,0.099533,652497,518854
1343.04,0.101255,649913,514754
1346.39,0.103463,647671,510378
1349.73,0.105131,645338,506589
1354.18,0.108072,641175,499925
1357.52,0.109717,638376,495860
1360.85,0.111614,635805,491711
1364.17,0.113852,633413,487343
1367.49,0.115759,631026,483380
1370.81,0.118180,628050,478425
1374.12,0.120527,625034,473562
1378.54,0.123121,620272,467155
1381.84,0.126134,616892,461397
1385.14,0.129572,613613,455326
1388.43,0.133167,611526,450037
1391.72,0.137610,610663,444827
1395.01,0.141333,610634,441010
1398.29,0.146290,611700,436766
1402.66,0.152378,614051,432341
1405.93,0.157358,616268,428955
1409.2,0.162058,617795,425389
1412.46,0.166948,618872,421360
1415.72,0.171006,619795,418063
1418.98,0.174062,620495,415601
1422.23,0.178359,621087,411902
1426.56,0.182085,621375,408572
1429.8,0.184537,621616,406429
1433.04,0.186461,622129,404967
1436.27,0.188769,621526,402430
1439.5,0.190603,621113,400468
1442.72,0.193294,620921,397871
1445.94,0.195703,620270,395255
1450.23,0.199300,618860,391104
1453.44,0.201825,617697,388106
1456.64,0.204758,616264,384600
1459.85,0.207005,614413,381466
1463.04,0.209791,612307,377727
1466.24,0.213712,610032,372941
1469.43,0.217516,607345,368061
1473.67,0.222993,603789,361320
1476.85,0.228642,601175,355107
1480.02,0.234965,597737,347973
1483.19,0.240725,594479,341516
1486.36,0.247181,591232,334639
1489.52,0.251602,587853,329357
1492.68,0.254483,583875,324965
1496.89,0.256626,578062,320146
1500.03,0.257495,574159,317349
1503.18,0.257240,570285,315393
1506.32,0.256166,565444,313490
1509.45,0.255100,560571,311552
1512.58,0.253594,555821,309985
1515.71,0.250971,550344,308790
1519.87,0.248171,543983,307195
1522.99,0.245955,538764,305804
1526.1,0.243808,533692,304427
1529.21,0.240637,527902,303331
1532.32,0.237651,521886,301943
1535.42,0.234708,515888,300502
1538.51,0.231407,509987,299331
1541.6,0.228986,503936,297433
1545.72,0.224923,494694,294723
1548.8,0.222173,488378,292808
1551.88,0.219258,481832,290829
1554.95,0.217425,474989,287911
1558.02,0.216595,467818,284107
1561.08,0.214697,460730,281028
1564.15,0.214924,454170,276882
1568.22,0.213757,444181,271521
1571.27,0.213061,436947,267527
1574.32,0.212150,429598,263580
1577.36,0.210546,422039,259900
1580.4,0.208952,414375,256119
1583.43,0.207928,406354,251754
1586.46,0.206224,398475,247843
1590.49,0.205073,388982,242581
1593.51,0.203031,380708,238540
1596.53,0.200513,372727,234897
1599.54,0.199390,365060,230661
1602.55,0.197297,357543,227003
1605.55,0.195684,349495,222719
1608.55,0.192911,341154,218796
1612.54,0.191603,330877,212845
1615.53,0.189089,322904,208922
1618.51,0.187862,315116,204460
1621.49,0.187326,307217,199581
1624.47,0.186130,299481,195092
1627.44,0.186259,292112,190235
1630.41,0.185021,284245,185640
1634.36,0.183296,274079,179713
1637.32,0.181482,266916,175749
1640.27,0.182460,259612,170555
1643.22,0.180178,251804,166297
1646.16,0.178977,244348,161820
1649.1,0.178977,236703,156757
1652.04,0.177123,228171,151753
1655.95,0.173601,215408,144431
1658.88,0.170227,204937,138482
1661.8,0.164734,193395,132346
1664.72,0.157536,179728,125049
1667.63,0.145509,163642,117054
1670.54,0.130720,146312,108283
1673.44,0.112051,128451,99240
1677.31,0.096796,105080,84086
1680.21,0.081982,88906,73612
1683.1,0.077929,75033,62708
1685.99,0.078340,63520,53036
1688.87,0.081318,53714,44542
1691.75,0.081690,45653,37825
1694.62,0.088906,39137,31892
1697.49,0.089750,33776,27470
1701.31,0.110035,28175,21869