File: samples/wool/wool-000811/Column 1_050546_20150331_115811.csv
Method:,Column 1,,
Host Date-Time:,31/3/15 @ 11:58:11,,
Header Version:,1,,
System Temp (C):,33.03,,
Detector Temp (C):,31.6,,
Humidity (%):,2.44,,
Lamp PD:,3823,,
Shift Vector Coefficients:,-10.5391,0.0761263,-0.000134223,,
Pixel to Wavelength Coefficients:,1775.68,-0.916766,-0.000235065,,
Serial Number:,5510004,,
Scan Config Name:,Column 1,,
Scan Config Type:,Slew,,
Section 1,,
Start wavelength (nm):,900,,
End wavelength (nm):,1700,,
Pattern Pixel Width (nm):,   7.03,,,,
Exposure (ms):,  0.635,,,,
Digital Resolution:,228,,
Num Repeats:,6,,
PGA Gain:,64,,
Total Measurement Time in sec:,  2.670,,
Wavelength (nm),Absorbance (AU),Reference Signal (unitless),Sample Signal (unitless)
901.51,0.046214,108485,97534
905.376,0.051195,121306,107817
909.237,0.054706,131909,116297
913.095,0.054836,143299,126301
916.948,0.054547,156982,138453
922.079,0.055193,179937,158463
925.923,0.055373,200504,176502
929.762,0.056787,222660,195369
933.597,0.055687,244426,215011
937.427,0.056180,263972,231941
941.254,0.056769,281845,247310
945.076,0.056426,297271,261052
950.165,0.055871,315605,277506
953.978,0.055787,328029,288486
957.786,0.056694,340470,298803
961.59,0.056549,352317,309303
965.389,0.056434,363056,318816
969.185,0.057024,373162,327245
972.976,0.056362,382632,336062
976.763,0.058191,391202,342145
981.806,0.058136,400190,350050
985.583,0.059080,406088,354438
989.355,0.059658,410162,357518
993.124,0.060208,412868,359421
996.888,0.060769,414263,360170
1000.65,0.061456,415476,360653
1004.4,0.062907,415479,359453
1009.41,0.064427,414358,357231
1013.15,0.064308,412923,356091
1016.89,0.064908,411526,354396
1020.63,0.064581,409066,352543
1024.36,0.064405,406777,350713
1028.09,0.064459,404427,348643
1031.82,0.064081,401911,346776
1036.78,0.063077,398410,344551
1040.49,0.062572,396204,343042
1044.2,0.062876,394236,341099
1047.91,0.061591,392042,340206
1051.61,0.061010,389823,338733
1055.31,0.059962,388234,338167
1059,0.059926,387599,337642
1063.92,0.058691,386688,337808
1067.61,0.057275,386598,338832
1071.29,0.056360,387377,340231
1074.96,0.055763,388536,341718
1078.63,0.055482,389855,343100
1082.3,0.054123,391215,345376
1085.96,0.053893,393215,347326
1090.84,0.053028,396270,350722
1094.49,0.052912,398760,353020
1098.14,0.052513,400987,355318
1101.79,0.052121,403477,357847
1105.43,0.052115,406116,360193
1109.06,0.051125,407701,362424
1112.7,0.050976,409859,364467
1117.53,0.051309,412494,366529
1121.15,0.052076,414909,368025
1124.77,0.052208,416559,369376
1128.38,0.054171,418532,369452
1131.99,0.055124,419956,369896
1135.6,0.057672,421946,369475
1139.2,0.059358,423881,369731
1143.99,0.062316,426786,369738
1147.58,0.063732,428617,370116
1151.17,0.065008,431169,371227
1154.75,0.066532,433579,371994
1158.33,0.068036,436264,373004
1161.91,0.070559,439132,373281
1165.48,0.074021,442389,373064
1169.04,0.076451,446101,374095
1173.79,0.080988,451929,375044
1177.34,0.083627,456026,376151
1180.9,0.086097,461306,378349
1184.44,0.087752,467657,382099
1187.99,0.089122,473969,386036
1191.52,0.088191,479856,391670
1195.06,0.087560,487372,398383
1199.76,0.086423,497347,407602
1203.29,0.084668,504311,414983
1206.81,0.083470,511507,422067
1210.33,0.082619,519078,429154
1213.84,0.081686,527163,436776
1217.35,0.080808,534208,443509
1220.85,0.079343,540472,450226
1225.51,0.077673,549929,459868
1229.01,0.077156,556888,466242
1232.5,0.076206,562180,471704
1235.98,0.075463,567975,477382
1239.46,0.074124,574815,484623
1242.94,0.072971,582782,492646
1246.41,0.072263,591476,500811
1251.03,0.072043,604016,511688
1254.5,0.071847,612289,518931
1257.96,0.072484,619125,523955
1261.41,0.072921,624551,528016
1264.86,0.073619,629900,531683
1268.31,0.074208,634345,534709
1271.75,0.075042,638574,537241
1276.33,0.075612,642499,539834
1279.76,0.075650,645905,542648
1283.19,0.074581,648307,546009
1286.61,0.074010,650446,548531
1290.03,0.074166,652132,549756
1293.44,0.073259,653907,552404
1296.85,0.073142,655963,554291
1301.39,0.072827,657349,555865
1304.8,0.072407,657558,556579
1308.19,0.073213,658515,556356
1311.58,0.073123,658804,556716
1314.97,0.073807,659011,556014
1318.36,0.074206,658272,554880
1321.73,0.074572,658022,554202
1326.23,0.075693,657870,552646
1329.6,0.076712,656482,550188
1332.97,0.078005,654926,547252
1336.33,0.079199,653727,544750
1339.69,0.081046,652497,541418
1343.04,0.082978,649913,536880
1346.39,0.085374,647671,532084
1349.73,0.087689,645338,527349
1354.18,0.091482,641175,519391
1357.52,0.093929,638376,514218
1360.85,0.096346,635805,509305
1364.17,0.098436,633413,504953
1367.49,0.101541,631026,499466
1370.81,0.104382,628050,493869
1374.12,0.106874,625034,488686
1378.54,0.110174,620272,481291
1381.84,0.114419,616892,474013
1385.14,0.118400,613613,467191
1388.43,0.123710,611526,459944
1391.72,0.129063,610663,453669
1395.01,0.135194,610634,447288
1398.29,0.141206,611700,441909
1402.66,0.149260,614051,435456
1405.93,0.156095,616268,430204
1409.2,0.161965,617795,425480
1412.46,0.167484,618872,420840
1415.72,0.172502,619795,416626
1418.98,0.177208,620495,412601
1422.23,0.181309,621087,409113
1426.56,0.186125,621375,404789
1429.8,0.189240,621616,402052
1433.04,0.192051,622129,399788
1436.27,0.194406,621526,397240
1439.5,0.196491,621113,395075
1442.72,0.199679,620921,392064
1445.94,0.201748,620270,389792
1450.23,0.205784,618860,385308
1453.44,0.208586,617697,382111
1456.64,0.211501,616264,378674
1459.85,0.214752,614413,374721
1463.04,0.217355,612307,371205
1466.24,0.220213,610032,367400
1469.43,0.223802,607345,362772
1473.67,0.228986,603789,356368
1476.85,0.233949,601175,350794
1480.02,0.240679,597737,343424
1483.19,0.245923,594479,337453
1486.36,0.253083,591232,330122
1489.52,0.257940,587853,324585
1492.68,0.261978,583875,319405
1496.89,0.264663,578062,314276
1500.03,0.265789,574159,311346
1503.18,0.266038,570285,309068
1506.32,0.266060,565444,306429
1509.45,0.264648,560571,304777
1512.58,0.262607,555821,303618
1515.71,0.260111,550344,302359
1519.87,0.257185,543983,300885
1522.99,0.254086,538764,300132
1526.1,0.251621,533692,298999
1529.21,0.248847,527902,297650
1532.32,0.245756,521886,296360
1535.42,0.241628,515888,295752
1538.51,0.239006,509987,294139
1541.6,0.235663,503936,292895
1545.72,0.230860,494694,290721
1548.8,0.227700,488378,289105
1551.88,0.224682,481832,287219
1554.95,0.222540,474989,284540
1558.02,0.220617,467818,281488
1561.08,0.218734,460730,278428
1564.15,0.218028,454170,274910
1568.22,0.216954,444181,269529
1571.27,0.216531,436947,265398
1574.32,0.215001,429598,261855
1577.36,0.214181,422039,257734
1580.4,0.212387,414375,254101
1583.43,0.210366,406354,250345
1586.46,0.208167,398475,246737
1590.49,0.206373,388982,241856
1593.51,0.203663,380708,238193
1596.53,0.201137,372727,234560
1599.54,0.199019,365060,230858
1602.55,0.196696,357543,227317
1605.55,0.194548,349495,223302
1608.55,0.192078,341154,219216
1612.54,0.189450,330877,213903
1615.53,0.186090,322904,210370
1618.51,0.185200,315116,205717
1621.49,0.184496,307217,200886
1624.47,0.182252,299481,196842
1627.44,0.180787,292112,192647
1630.41,0.180111,284245,187751
1634.36,0.177749,274079,182023
1637.32,0.176475,266916,177787
1640.27,0.176316,259612,172985
1643.22,0.174553,251804,168465
1646.16,0.172726,244348,164166
1649.1,0.172179,236703,159230
1652.04,0.171502,228171,153730
1655.95,0.169859,215408,145681
1658.88,0.167258,204937,139432
1661.8,0.164292,193395,132481
1664.72,0.161373,179728,123949
1667.63,0.154691,163642,114605
1670.54,0.145823,146312,104582
1673.44,0.138623,128451,93350
1677.31,0.130256,105080,77851
1680.21,0.127123,88906,66345
1683.1,0.128136,75033,55862
1685.99,0.132757,63520,46790
1688.87,0.137134,53714,39170
1691.75,0.136373,45653,33350
1694.62,0.149434,39137,27743
1697.49,0.149847,33776,23920
1701.31,0.157963,28175,19584