File: samples/wool/wool-000811/Column 1_050611_20150331_122837.csv
Method:,Column 1,,
Host Date-Time:,31/3/15 @ 12:28:37,,
Header Version:,1,,
System Temp (C):,34.07,,
Detector Temp (C):,34.9,,
Humidity (%):,1.66,,
Lamp PD:,3818,,
Shift Vector Coefficients:,-10.5391,0.0761263,-0.000134223,,
Pixel to Wavelength Coefficients:,1775.68,-0.916766,-0.000235065,,
Serial Number:,5510004,,
Scan Config Name:,Column 1,,
Scan Config Type:,Slew,,
Section 1,,
Start wavelength (nm):,900,,
End wavelength (nm):,1700,,
Pattern Pixel Width (nm):,   7.03,,,,
Exposure (ms):,  0.635,,,,
Digital Resolution:,228,,
Num Repeats:,6,,
PGA Gain:,64,,
Total Measurement Time in sec:,  2.674,,
Wavelength (nm),Absorbance (AU),Reference Signal (unitless),Sample Signal (unitless)
901.51,0.068168,108485,92726
905.376,0.073247,121306,102479
909.237,0.075409,131909,110883
913.095,0.075750,143299,120363
916.948,0.077817,156982,131230
922.079,0.079191,179937,149944
925.923,0.082015,200504,166000
929.762,0.081545,222660,184543
933.597,0.081735,244426,202494
937.427,0.080699,263972,219209
941.254,0.079917,281845,234473
945.076,0.078885,297271,247895
950.165,0.078388,315605,263485
953.978,0.076150,328029,275272
957.786,0.077143,340470,285060
961.59,0.077630,352317,294648
965.389,0.077339,363056,303833
969.185,0.076928,373162,312586
972.976,0.077147,382632,320357
976.763,0.078098,391202,326816
981.806,0.078716,400190,333849
985.583,0.079104,406088,338467
989.355,0.079722,410162,341376
993.124,0.079702,412868,343644
996.888,0.080857,414263,343890
1000.65,0.081332,415476,344520
1004.4,0.082627,415479,343496
1009.41,0.083576,414358,341822
1013.15,0.084053,412923,340264
1016.89,0.084640,411526,338655
1020.63,0.084895,409066,336433
1024.36,0.083918,406777,335304
1028.09,0.084327,404427,333053
1031.82,0.084478,401911,330866
1036.78,0.083759,398410,328527
1040.49,0.083876,396204,326620
1044.2,0.083534,394236,325254
1047.91,0.082652,392042,324101
1051.61,0.083013,389823,321999
1055.31,0.082962,388234,320724
1059,0.082205,387599,320758
1063.92,0.081166,386688,320771
1067.61,0.080204,386598,321407
1071.29,0.080433,387377,321885
1074.96,0.079455,388536,323576
1078.63,0.079067,389855,324965
1082.3,0.077604,391215,327199
1085.96,0.077323,393215,329084
1090.84,0.075987,396270,332663
1094.49,0.075977,398760,334761
1098.14,0.076021,400987,336596
1101.79,0.074645,403477,339761
1105.43,0.074296,406116,342258
1109.06,0.074285,407701,343603
1112.7,0.073380,409859,346142
1117.53,0.073154,412494,348549
1121.15,0.074163,414909,349776
1124.77,0.074369,416559,351000
1128.38,0.074748,418532,352355
1131.99,0.075990,419956,352544
1135.6,0.076457,421946,353834
1139.2,0.078140,423881,354082
1143.99,0.080168,426786,354848
1147.58,0.081126,428617,355585
1151.17,0.081238,431169,357610
1154.75,0.082909,433579,358228
1158.33,0.083976,436264,359562
1161.91,0.086442,439132,359876
1165.48,0.088413,442389,360904
1169.04,0.090750,446101,361979
1173.79,0.093503,451929,364391
1177.34,0.096427,456026,365227
1180.9,0.097616,461306,368445
1184.44,0.099895,467657,371563
1187.99,0.101339,473969,375328
1191.52,0.100545,479856,380685
1195.06,0.101134,487372,386124
1199.76,0.099824,497347,395217
1203.29,0.099321,504311,401215
1206.81,0.098567,511507,407647
1210.33,0.098328,519078,413909
1213.84,0.097573,527163,421087
1217.35,0.097550,534208,426737
1220.85,0.096518,540472,432768
1225.51,0.095163,549929,441717
1229.01,0.095151,556888,447319
1232.5,0.094503,562180,452244
1235.98,0.094118,567975,457311
1239.46,0.093069,574815,463937
1242.94,0.091951,582782,471580
1246.41,0.091606,591476,478995
1251.03,0.091161,604016,489652
1254.5,0.090884,612289,496675
1257.96,0.092353,619125,500525
1261.41,0.092714,624551,504492
1264.86,0.092901,629900,508593
1268.31,0.093355,634345,511647
1271.75,0.093779,638574,514555
1276.33,0.094332,642499,517059
1279.76,0.094384,645905,519738
1283.19,0.093853,648307,522309
1286.61,0.093262,650446,524746
1290.03,0.092954,652132,526479
1293.44,0.092451,653907,528524
1296.85,0.092522,655963,530099
1301.39,0.092240,657349,531564
1304.8,0.091845,657558,532217
1308.19,0.092028,658515,532768
1311.58,0.092202,658804,532788
1314.97,0.092391,659011,532723
1318.36,0.092832,658272,531586
1321.73,0.093271,658022,530847
1326.23,0.094027,657870,529801
1329.6,0.094972,656482,527534
1332.97,0.095543,654926,525592
1336.33,0.096677,653727,523262
1339.69,0.098173,652497,520482
1343.04,0.099630,649913,516684
1346.39,0.101508,647671,512680
1349.73,0.103045,645338,509029
1354.18,0.106389,641175,501866
1357.52,0.108011,638376,497812
1360.85,0.110836,635805,492593
1364.17,0.112894,633413,488420
1367.49,0.114913,631026,484322
1370.81,0.116890,628050,479849
1374.12,0.118807,625034,475441
1378.54,0.121768,620272,468613
1381.84,0.124692,616892,462932
1385.14,0.127936,613613,457045
1388.43,0.130706,611526,452594
1391.72,0.135237,610663,447265
1395.01,0.139288,610634,443091
1398.29,0.143542,611700,439538
1402.66,0.149125,614051,435592
1405.93,0.154806,616268,431483
1409.2,0.159024,617795,428371
1412.46,0.163880,618872,424347
1415.72,0.167406,619795,421543
1418.98,0.171046,620495,418497
1422.23,0.174064,621087,415995
1426.56,0.178184,621375,412259
1429.8,0.180209,621616,410500
1433.04,0.183298,622129,407927
1436.27,0.185366,621526,405596
1439.5,0.186994,621113,403810
1442.72,0.189782,620921,401102
1445.94,0.192069,620270,398577
1450.23,0.196051,618860,394041
1453.44,0.198420,617697,391161
1456.64,0.201580,616264,387424
1459.85,0.204329,614413,383823
1463.04,0.207035,612307,380132
1466.24,0.210262,610032,375916
1469.43,0.214236,607345,370851
1473.67,0.220106,603789,363730
1476.85,0.225879,601175,357373
1480.02,0.231971,597737,350380
1483.19,0.238869,594479,342979
1486.36,0.243868,591232,337202
1489.52,0.249085,587853,331271
1492.68,0.253081,583875,326016
1496.89,0.255099,578062,321274
1500.03,0.255003,574159,319175
1503.18,0.255401,570285,316731
1506.32,0.254286,565444,314850
1509.45,0.252801,560571,313206
1512.58,0.251922,555821,311181
1515.71,0.249443,550344,309878
1519.87,0.246078,543983,308679
1522.99,0.242758,538764,308064
1526.1,0.241166,533692,306284
1529.21,0.238591,527902,304763
1532.32,0.235114,521886,303712
1535.42,0.232081,515888,302325
1538.51,0.229185,509987,300867
1541.6,0.226482,503936,299153
1545.72,0.222715,494694,296225
1548.8,0.219439,488378,294657
1551.88,0.216869,481832,292433
1554.95,0.214865,474989,289613
1558.02,0.213969,467818,285830
1561.08,0.212387,460730,282527
1564.15,0.212314,454170,278551
1568.22,0.211759,444181,272773
1571.27,0.210991,436947,268805
1574.32,0.210415,429598,264635
1577.36,0.209210,422039,260701
1580.4,0.208225,414375,256548
1583.43,0.206251,406354,252728
1586.46,0.204289,398475,248950
1590.49,0.202775,388982,243868
1593.51,0.200962,380708,239679
1596.53,0.199094,372727,235666
1599.54,0.197161,365060,231848
1602.55,0.194568,357543,228434
1605.55,0.193721,349495,223728
1608.55,0.189504,341154,220519
1612.54,0.189062,330877,214094
1615.53,0.187359,322904,209756
1618.51,0.186482,315116,205111
1621.49,0.185758,307217,200303
1624.47,0.184255,299481,195936
1627.44,0.183360,292112,191509
1630.41,0.183301,284245,186377
1634.36,0.181252,274079,180561
1637.32,0.180282,266916,176235
1640.27,0.179807,259612,171600
1643.22,0.178645,251804,166885
1646.16,0.177963,244348,162198
1649.1,0.177105,236703,157434
1652.04,0.176960,228171,151810
1655.95,0.172403,215408,144830
1658.88,0.168393,204937,139068
1661.8,0.164138,193395,132528
1664.72,0.155408,179728,125663
1667.63,0.142046,163642,117991
1670.54,0.126215,146312,109412
1673.44,0.114042,128451,98786
1677.31,0.091488,105080,85120
1680.21,0.081776,88906,73647
1683.1,0.075540,75033,63054
1685.99,0.070975,63520,53943
1688.87,0.075824,53714,45109
1691.75,0.080979,45653,37887
1694.62,0.090830,39137,31751
1697.49,0.095222,33776,27126
1701.31,0.098532,28175,22456