File: samples/wool/wool-000811/Column 1_050612_20150331_122929.csv
Method:,Column 1,,
Host Date-Time:,31/3/15 @ 12:29:29,,
Header Version:,1,,
System Temp (C):,34.07,,
Detector Temp (C):,34.92,,
Humidity (%):,1.66,,
Lamp PD:,3818,,
Shift Vector Coefficients:,-10.5391,0.0761263,-0.000134223,,
Pixel to Wavelength Coefficients:,1775.68,-0.916766,-0.000235065,,
Serial Number:,5510004,,
Scan Config Name:,Column 1,,
Scan Config Type:,Slew,,
Section 1,,
Start wavelength (nm):,900,,
End wavelength (nm):,1700,,
Pattern Pixel Width (nm):,   7.03,,,,
Exposure (ms):,  0.635,,,,
Digital Resolution:,228,,
Num Repeats:,6,,
PGA Gain:,64,,
Total Measurement Time in sec:,  2.675,,
Wavelength (nm),Absorbance (AU),Reference Signal (unitless),Sample Signal (unitless)
901.51,0.069153,108485,92516
905.376,0.075508,121306,101947
909.237,0.078128,131909,110191
913.095,0.077290,143299,119937
916.948,0.080033,156982,130562
922.079,0.080189,179937,149600
925.923,0.081610,200504,166155
929.762,0.082525,222660,184127
933.597,0.082901,244426,201951
937.427,0.080418,263972,219351
941.254,0.079873,281845,234497
945.076,0.078981,297271,247840
950.165,0.078686,315605,263304
953.978,0.077835,328029,274206
957.786,0.077472,340470,284844
961.59,0.077642,352317,294640
965.389,0.077570,363056,303671
969.185,0.077989,373162,311823
972.976,0.077310,382632,320237
976.763,0.078334,391202,326638
981.806,0.078223,400190,334228
985.583,0.078851,406088,338664
989.355,0.080034,410162,341131
993.124,0.080064,412868,343358
996.888,0.081011,414263,343768
1000.65,0.081360,415476,344497
1004.4,0.082707,415479,343433
1009.41,0.084134,414358,341383
1013.15,0.084219,412923,340134
1016.89,0.085034,411526,338348
1020.63,0.084668,409066,336609
1024.36,0.084537,406777,334826
1028.09,0.084462,404427,332949
1031.82,0.083694,401911,331464
1036.78,0.084026,398410,328325
1040.49,0.083792,396204,326683
1044.2,0.083854,394236,325014
1047.91,0.084012,392042,323088
1051.61,0.083203,389823,321858
1055.31,0.082871,388234,320791
1059,0.082228,387599,320741
1063.92,0.081976,386688,320173
1067.61,0.080675,386598,321059
1071.29,0.080358,387377,321941
1074.96,0.080456,388536,322831
1078.63,0.079464,389855,324668
1082.3,0.078542,391215,326493
1085.96,0.077273,393215,329122
1090.84,0.076885,396270,331976
1094.49,0.076454,398760,334393
1098.14,0.075208,400987,337227
1101.79,0.074988,403477,339493
1105.43,0.075467,406116,341337
1109.06,0.074104,407701,343746
1112.7,0.073630,409859,345943
1117.53,0.073771,412494,348054
1121.15,0.073736,414909,350120
1124.77,0.073943,416559,351345
1128.38,0.075040,418532,352118
1131.99,0.076096,419956,352458
1135.6,0.077237,421946,353199
1139.2,0.078249,423881,353993
1143.99,0.080531,426786,354551
1147.58,0.081402,428617,355359
1151.17,0.082689,431169,356417
1154.75,0.083098,433579,358072
1158.33,0.084610,436264,359037
1161.91,0.086246,439132,360039
1165.48,0.088582,442389,360763
1169.04,0.091093,446101,361693
1173.79,0.094161,451929,363839
1177.34,0.096292,456026,365340
1180.9,0.098304,461306,367862
1184.44,0.100531,467657,371019
1187.99,0.100737,473969,375849
1191.52,0.100947,479856,380333
1195.06,0.101204,487372,386062
1199.76,0.100764,497347,394362
1203.29,0.099407,504311,401136
1206.81,0.098939,511507,407298
1210.33,0.098342,519078,413895
1213.84,0.097724,527163,420941
1217.35,0.097617,534208,426671
1220.85,0.096769,540472,432518
1225.51,0.096085,549929,440780
1229.01,0.095380,556888,447083
1232.5,0.094857,562180,451875
1235.98,0.093988,567975,457447
1239.46,0.093124,574815,463878
1242.94,0.092113,582782,471404
1246.41,0.091574,591476,479030
1251.03,0.091657,604016,489093
1254.5,0.091567,612289,495895
1257.96,0.091853,619125,501101
1261.41,0.092668,624551,504545
1264.86,0.093242,629900,508194
1268.31,0.094229,634345,510619
1271.75,0.094261,638574,513985
1276.33,0.094678,642499,516648
1279.76,0.094660,645905,519408
1283.19,0.093666,648307,522534
1286.61,0.093347,650446,524644
1290.03,0.093037,652132,526379
1293.44,0.092512,653907,528450
1296.85,0.092839,655963,529713
1301.39,0.091963,657349,531904
1304.8,0.092260,657558,531709
1308.19,0.092461,658515,532236
1311.58,0.092045,658804,532980
1314.97,0.092866,659011,532141
1318.36,0.093486,658272,530786
1321.73,0.093451,658022,530627
1326.23,0.093932,657870,529917
1329.6,0.095228,656482,527224
1332.97,0.095832,654926,525243
1336.33,0.096772,653727,523148
1339.69,0.098222,652497,520423
1343.04,0.099793,649913,516490
1346.39,0.101813,647671,512320
1349.73,0.103638,645338,508334
1354.18,0.106334,641175,501929
1357.52,0.108543,638376,497203
1360.85,0.110544,635805,492924
1364.17,0.112399,633413,488977
1367.49,0.115000,631026,484225
1370.81,0.116921,628050,479814
1374.12,0.118872,625034,475370
1378.54,0.121735,620272,468648
1381.84,0.124816,616892,462800
1385.14,0.127831,613613,457155
1388.43,0.131068,611526,452217
1391.72,0.134995,610663,447514
1395.01,0.139176,610634,443205
1398.29,0.143417,611700,439665
1402.66,0.149946,614051,434769
1405.93,0.154286,616268,432000
1409.2,0.158473,617795,428915
1412.46,0.163321,618872,424893
1415.72,0.167547,619795,421406
1418.98,0.170362,620495,419157
1422.23,0.173650,621087,416392
1426.56,0.177937,621375,412493
1429.8,0.180140,621616,410565
1433.04,0.182202,622129,408958
1436.27,0.184890,621526,406040
1439.5,0.186751,621113,404036
1442.72,0.189493,620921,401369
1445.94,0.191183,620270,399391
1450.23,0.195136,618860,394872
1453.44,0.198802,617697,390817
1456.64,0.200989,616264,387952
1459.85,0.203747,614413,384338
1463.04,0.206648,612307,380471
1466.24,0.209784,610032,376330
1469.43,0.213629,607345,371370
1473.67,0.220065,603789,363764
1476.85,0.225876,601175,357376
1480.02,0.232327,597737,350093
1483.19,0.238836,594479,343005
1486.36,0.244764,591232,336507
1489.52,0.249600,587853,330879
1492.68,0.252587,583875,326387
1496.89,0.254733,578062,321545
1500.03,0.255425,574159,318865
1503.18,0.255179,570285,316893
1506.32,0.255018,565444,314320
1509.45,0.253183,560571,312930
1512.58,0.251955,555821,311157
1515.71,0.249536,550344,309812
1519.87,0.246220,543983,308578
1522.99,0.243910,538764,307248
1526.1,0.241371,533692,306140
1529.21,0.238148,527902,305074
1532.32,0.235333,521886,303559
1535.42,0.232067,515888,302335
1538.51,0.229911,509987,300364
1541.6,0.226770,503936,298955
1545.72,0.223123,494694,295947
1548.8,0.219669,488378,294501
1551.88,0.217682,481832,291886
1554.95,0.215765,474989,289014
1558.02,0.214291,467818,285618
1561.08,0.212480,460730,282466
1564.15,0.212460,454170,278457
1568.22,0.211268,444181,273081
1571.27,0.210507,436947,269105
1574.32,0.209861,429598,264973
1577.36,0.209078,422039,260780
1580.4,0.207141,414375,257189
1583.43,0.206088,406354,252823
1586.46,0.203606,398475,249342
1590.49,0.202994,388982,243745
1593.51,0.200832,380708,239751
1596.53,0.199684,372727,235346
1599.54,0.196794,365060,232044
1602.55,0.195656,357543,227862
1605.55,0.192823,349495,224191
1608.55,0.191429,341154,219544
1612.54,0.189364,330877,213945
1615.53,0.187169,322904,209848
1618.51,0.186943,315116,204893
1621.49,0.186708,307217,199865
1624.47,0.184390,299481,195875
1627.44,0.183378,292112,191501
1630.41,0.182753,284245,186612
1634.36,0.180639,274079,180816
1637.32,0.180578,266916,176115
1640.27,0.181032,259612,171117
1643.22,0.180160,251804,166304
1646.16,0.178488,244348,162002
1649.1,0.176548,236703,157636
1652.04,0.177530,228171,151611
1655.95,0.172583,215408,144770
1658.88,0.169231,204937,138800
1661.8,0.163437,193395,132742
1664.72,0.157199,179728,125146
1667.63,0.143211,163642,117675
1670.54,0.128603,146312,108812
1673.44,0.111421,128451,99384
1677.31,0.092955,105080,84833
1680.21,0.078902,88906,74136
1683.1,0.075072,75033,63122
1685.99,0.075036,63520,53441
1688.87,0.077039,53714,44983
1691.75,0.082644,45653,37742
1694.62,0.090311,39137,31789
1697.49,0.092684,33776,27285
1701.31,0.109519,28175,21895