File: samples/wool/wool-000811/Column 1_050541_20150331_115538.csv
Method:,Column 1,,
Host Date-Time:,31/3/15 @ 11:55:38,,
Header Version:,1,,
System Temp (C):,32.41,,
Detector Temp (C):,30.7,,
Humidity (%):,2.92,,
Lamp PD:,3825,,
Shift Vector Coefficients:,-10.5391,0.0761263,-0.000134223,,
Pixel to Wavelength Coefficients:,1775.68,-0.916766,-0.000235065,,
Serial Number:,5510004,,
Scan Config Name:,Column 1,,
Scan Config Type:,Slew,,
Section 1,,
Start wavelength (nm):,900,,
End wavelength (nm):,1700,,
Pattern Pixel Width (nm):,   7.03,,,,
Exposure (ms):,  0.635,,,,
Digital Resolution:,228,,
Num Repeats:,6,,
PGA Gain:,64,,
Total Measurement Time in sec:,  2.688,,
Wavelength (nm),Absorbance (AU),Reference Signal (unitless),Sample Signal (unitless)
901.51,0.045915,108485,97601
905.376,0.049852,121306,108151
909.237,0.052237,131909,116960
913.095,0.053155,143299,126791
916.948,0.052551,156982,139091
922.079,0.052698,179937,159376
925.923,0.053603,200504,177223
929.762,0.053549,222660,196831
933.597,0.054362,244426,215668
937.427,0.054325,263972,232934
941.254,0.054944,281845,248351
945.076,0.053972,297271,262531
950.165,0.054603,315605,278318
953.978,0.053612,328029,289935
957.786,0.054506,340470,300312
961.59,0.055834,352317,309813
965.389,0.055534,363056,319477
969.185,0.055842,373162,328137
972.976,0.056165,382632,336214
976.763,0.056872,391202,343186
981.806,0.057077,400190,350905
985.583,0.057777,406088,355503
989.355,0.059129,410162,357953
993.124,0.058415,412868,360908
996.888,0.059751,414263,361015
1000.65,0.061052,415476,360989
1004.4,0.061744,415479,360417
1009.41,0.063524,414358,357974
1013.15,0.063309,412923,356911
1016.89,0.064180,411526,354991
1020.63,0.063724,409066,353240
1024.36,0.063241,406777,351654
1028.09,0.063302,404427,349573
1031.82,0.063120,401911,347544
1036.78,0.062422,398410,345071
1040.49,0.061787,396204,343662
1044.2,0.061532,394236,342156
1047.91,0.060904,392042,340744
1051.61,0.060061,389823,339474
1055.31,0.059289,388234,338692
1059,0.058593,387599,338680
1063.92,0.057221,386688,338953
1067.61,0.057051,386598,339007
1071.29,0.055862,387377,340621
1074.96,0.055695,388536,341772
1078.63,0.054096,389855,344197
1082.3,0.053472,391215,345894
1085.96,0.053667,393215,347507
1090.84,0.052447,396270,351192
1094.49,0.052091,398760,353688
1098.14,0.051446,400987,356192
1101.79,0.051357,403477,358477
1105.43,0.051250,406116,360911
1109.06,0.050518,407701,362931
1112.7,0.050559,409859,364817
1117.53,0.050619,412494,367112
1121.15,0.051625,414909,368407
1124.77,0.052181,416559,369399
1128.38,0.053388,418532,370118
1131.99,0.055189,419956,369841
1135.6,0.057564,421946,369567
1139.2,0.059622,423881,369506
1143.99,0.062207,426786,369831
1147.58,0.063105,428617,370650
1151.17,0.064614,431169,371564
1154.75,0.066278,433579,372212
1158.33,0.068440,436264,372657
1161.91,0.070835,439132,373044
1165.48,0.073910,442389,373159
1169.04,0.075983,446101,374499
1173.79,0.080549,451929,375423
1177.34,0.083099,456026,376609
1180.9,0.085838,461306,378574
1184.44,0.087428,467657,382384
1187.99,0.088703,473969,386409
1191.52,0.088358,479856,391519
1195.06,0.087301,487372,398620
1199.76,0.086323,497347,407696
1203.29,0.084523,504311,415122
1206.81,0.083681,511507,421862
1210.33,0.082118,519078,429650
1213.84,0.081183,527163,437282
1217.35,0.080179,534208,444152
1220.85,0.079108,540472,450469
1225.51,0.077862,549929,459668
1229.01,0.076848,556888,466573
1232.5,0.075848,562180,472093
1235.98,0.075415,567975,477435
1239.46,0.073819,574815,484964
1242.94,0.072543,582782,493132
1246.41,0.072354,591476,500706
1251.03,0.071955,604016,511792
1254.5,0.072031,612289,518711
1257.96,0.072239,619125,524251
1261.41,0.073231,624551,527639
1264.86,0.073751,629900,531521
1268.31,0.073887,634345,535104
1271.75,0.074712,638574,537650
1276.33,0.075172,642499,540382
1279.76,0.075122,645905,543309
1283.19,0.074629,648307,545948
1286.61,0.074067,650446,548459
1290.03,0.073629,652132,550435
1293.44,0.073167,653907,552521
1296.85,0.073268,655963,554130
1301.39,0.072689,657349,556041
1304.8,0.072758,657558,556130
1308.19,0.073262,658515,556293
1311.58,0.073067,658804,556787
1314.97,0.073941,659011,555842
1318.36,0.074484,658272,554525
1321.73,0.075104,658022,553524
1326.23,0.075733,657870,552595
1329.6,0.077172,656482,549605
1332.97,0.078337,654926,546834
1336.33,0.079693,653727,544131
1339.69,0.081804,652497,540474
1343.04,0.083385,649913,536377
1346.39,0.085898,647671,531443
1349.73,0.088419,645338,526463
1354.18,0.091925,641175,518862
1357.52,0.094062,638376,514061
1360.85,0.096612,635805,508993
1364.17,0.099335,633413,503909
1367.49,0.102193,631026,498717
1370.81,0.104099,628050,494191
1374.12,0.107299,625034,488208
1378.54,0.111155,620272,480205
1381.84,0.115208,616892,473152
1385.14,0.119521,613613,465987
1388.43,0.125091,611526,458484
1391.72,0.131054,610663,451593
1395.01,0.136312,610634,446138
1398.29,0.143115,611700,439970
1402.66,0.151956,614051,432761
1405.93,0.157965,616268,428356
1409.2,0.164141,617795,423354
1412.46,0.170778,618872,417660
1415.72,0.176003,619795,413281
1418.98,0.180485,620495,409499
1422.23,0.184549,621087,406072
1426.56,0.189421,621375,401729
1429.8,0.192493,621616,399052
1433.04,0.195350,622129,396762
1436.27,0.198095,621526,393880
1439.5,0.199969,621113,391924
1442.72,0.203047,620921,389036
1445.94,0.205685,620270,386274
1450.23,0.209602,618860,381936
1453.44,0.211770,617697,379320
1456.64,0.215238,616264,375430
1459.85,0.218550,614413,371459
1463.04,0.220825,612307,368251
1466.24,0.223092,610032,364973
1469.43,0.227162,607345,359976
1473.67,0.231973,603789,353926
1476.85,0.236756,601175,348534
1480.02,0.242995,597737,341598
1483.19,0.249083,594479,335007
1486.36,0.254950,591232,328706
1489.52,0.259644,587853,323314
1492.68,0.263360,583875,318390
1496.89,0.266151,578062,313201
1500.03,0.267497,574159,310124
1503.18,0.267410,570285,308093
1506.32,0.267556,565444,305375
1509.45,0.265927,560571,303881
1512.58,0.264725,555821,302141
1515.71,0.262612,550344,300623
1519.87,0.259406,543983,299350
1522.99,0.256469,538764,298490
1526.1,0.253919,533692,297421
1529.21,0.250381,527902,296601
1532.32,0.247108,521886,295439
1535.42,0.244442,515888,293842
1538.51,0.240872,509987,292878
1541.6,0.238041,503936,291296
1545.72,0.232591,494694,289565
1548.8,0.228890,488378,288314
1551.88,0.226417,481832,286074
1554.95,0.223942,474989,283623
1558.02,0.222330,467818,280380
1561.08,0.221373,460730,276741
1564.15,0.220080,454170,273614
1568.22,0.218685,444181,268457
1571.27,0.217744,436947,264658
1574.32,0.216641,429598,260868
1577.36,0.215105,422039,257186
1580.4,0.213443,414375,253484
1583.43,0.211656,406354,249602
1586.46,0.210350,398475,245500
1590.49,0.207550,388982,241201
1593.51,0.205496,380708,237190
1596.53,0.203787,372727,233133
1599.54,0.201090,365060,229760
1602.55,0.198210,357543,226526
1605.55,0.195951,349495,222582
1608.55,0.193054,341154,218724
1612.54,0.190881,330877,213199
1615.53,0.188674,322904,209122
1618.51,0.186888,315116,204919
1621.49,0.185574,307217,200388
1624.47,0.182993,299481,196506
1627.44,0.182427,292112,191921
1630.41,0.180833,284245,187439
1634.36,0.180168,274079,181012
1637.32,0.179172,266916,176686
1640.27,0.177148,259612,172654
1643.22,0.176597,251804,167674
1646.16,0.175592,244348,163086
1649.1,0.176411,236703,157686
1652.04,0.174100,228171,152813
1655.95,0.172319,215408,144858
1658.88,0.170058,204937,138536
1661.8,0.169267,193395,130972
1664.72,0.164965,179728,122928
1667.63,0.160962,163642,112962
1670.54,0.154997,146312,102396
1673.44,0.151001,128451,90727
1677.31,0.146193,105080,75046
1680.21,0.144812,88906,63697
1683.1,0.145132,75033,53718
1685.99,0.151351,63520,44829
1688.87,0.157995,53714,37333
1691.75,0.166318,45653,31128
1694.62,0.165507,39137,26735
1697.49,0.162447,33776,23236
1701.31,0.180561,28175,18591