File: samples/wool/wool-000811/Column 1_050569_20150331_120901.csv
Method:,Column 1,,
Host Date-Time:,31/3/15 @ 12:9:1,,
Header Version:,1,,
System Temp (C):,34.05,,
Detector Temp (C):,34.07,,
Humidity (%):,1.76,,
Lamp PD:,3818,,
Shift Vector Coefficients:,-10.5391,0.0761263,-0.000134223,,
Pixel to Wavelength Coefficients:,1775.68,-0.916766,-0.000235065,,
Serial Number:,5510004,,
Scan Config Name:,Column 1,,
Scan Config Type:,Slew,,
Section 1,,
Start wavelength (nm):,900,,
End wavelength (nm):,1700,,
Pattern Pixel Width (nm):,   7.03,,,,
Exposure (ms):,  0.635,,,,
Digital Resolution:,228,,
Num Repeats:,6,,
PGA Gain:,64,,
Total Measurement Time in sec:,  2.669,,
Wavelength (nm),Absorbance (AU),Reference Signal (unitless),Sample Signal (unitless)
901.51,0.034940,108485,100099
905.376,0.040276,121306,110562
909.237,0.042739,131909,119546
913.095,0.042430,143299,129961
916.948,0.044784,156982,141601
922.079,0.046268,179937,161753
925.923,0.047461,200504,179747
929.762,0.049049,222660,198881
933.597,0.048871,244426,218412
937.427,0.047558,263972,236592
941.254,0.048288,281845,252187
945.076,0.047302,297271,266594
950.165,0.046779,315605,283377
953.978,0.045824,328029,295181
957.786,0.046619,340470,305816
961.59,0.046928,352317,316232
965.389,0.046761,363056,325996
969.185,0.047012,373162,334877
972.976,0.047572,382632,342933
976.763,0.047795,391202,350434
981.806,0.048359,400190,358020
985.583,0.049366,406088,362455
989.355,0.049756,410162,365763
993.124,0.050534,412868,367517
996.888,0.051045,414263,368325
1000.65,0.051621,415476,368914
1004.4,0.052833,415479,367888
1009.41,0.054231,414358,365717
1013.15,0.054459,412923,364259
1016.89,0.055305,411526,362320
1020.63,0.054762,409066,360605
1024.36,0.055450,406777,358019
1028.09,0.054417,404427,356799
1031.82,0.054346,401911,354637
1036.78,0.053875,398410,351929
1040.49,0.054264,396204,349667
1044.2,0.053571,394236,348486
1047.91,0.052474,392042,347423
1051.61,0.052275,389823,345615
1055.31,0.051948,388234,344465
1059,0.051761,387599,344050
1063.92,0.050590,386688,344168
1067.61,0.049405,386598,345028
1071.29,0.048824,387377,346186
1074.96,0.048663,388536,347351
1078.63,0.047448,389855,349506
1082.3,0.047124,391215,350987
1085.96,0.046430,393215,353346
1090.84,0.045865,396270,356555
1094.49,0.045622,398760,358996
1098.14,0.044901,400987,361601
1101.79,0.044846,403477,363892
1105.43,0.044606,406116,366475
1109.06,0.044238,407701,368217
1112.7,0.043945,409859,370416
1117.53,0.044227,412494,372555
1121.15,0.044958,414909,374106
1124.77,0.045455,416559,375164
1128.38,0.046220,418532,376278
1131.99,0.048216,419956,375827
1135.6,0.049884,421946,376160
1139.2,0.052055,423881,376001
1143.99,0.054299,426786,376627
1147.58,0.055227,428617,377435
1151.17,0.056483,431169,378586
1154.75,0.057596,433579,379728
1158.33,0.059535,436264,380377
1161.91,0.061198,439132,381414
1165.48,0.063691,442389,382044
1169.04,0.066000,446101,383207
1173.79,0.070068,451929,384594
1177.34,0.072322,456026,386071
1180.9,0.074779,461306,388338
1184.44,0.076269,467657,392336
1187.99,0.077572,473969,396440
1191.52,0.076898,479856,401988
1195.06,0.076895,487372,408287
1199.76,0.076033,497347,417471
1203.29,0.075196,504311,424133
1206.81,0.073873,511507,431498
1210.33,0.073559,519078,438201
1213.84,0.072744,527163,445862
1217.35,0.072239,534208,452347
1220.85,0.071315,540472,458626
1225.51,0.070263,549929,467782
1229.01,0.069832,556888,474172
1232.5,0.069094,562180,479492
1235.98,0.068665,567975,484913
1239.46,0.067342,574815,492250
1242.94,0.066807,582782,499688
1246.41,0.065886,591476,508219
1251.03,0.065139,604016,519887
1254.5,0.065685,612289,526346
1257.96,0.066413,619125,531331
1261.41,0.066594,624551,535764
1264.86,0.067627,629900,539069
1268.31,0.068170,634345,542195
1271.75,0.069032,638574,544728
1276.33,0.068989,642499,548130
1279.76,0.069043,645905,550967
1283.19,0.068543,648307,553653
1286.61,0.067942,650446,556249
1290.03,0.067347,652132,558455
1293.44,0.067176,653907,560196
1296.85,0.066900,655963,562314
1301.39,0.067024,657349,563342
1304.8,0.066727,657558,563906
1308.19,0.066785,658515,564652
1311.58,0.067194,658804,564368
1314.97,0.067828,659011,563722
1318.36,0.068166,658272,562651
1321.73,0.068466,658022,562049
1326.23,0.069506,657870,560575
1329.6,0.070008,656482,558746
1332.97,0.071453,654926,555570
1336.33,0.072631,653727,553051
1339.69,0.074356,652497,549823
1343.04,0.076099,649913,545451
1346.39,0.077822,647671,541418
1349.73,0.080123,645338,536617
1354.18,0.083410,641175,529135
1357.52,0.085753,638376,523991
1360.85,0.087886,635805,519324
1364.17,0.090131,633413,514702
1367.49,0.092321,631026,510183
1370.81,0.094911,628050,504758
1374.12,0.097432,625034,499426
1378.54,0.100960,620272,491612
1381.84,0.104092,616892,485419
1385.14,0.108128,613613,478373
1388.43,0.112168,611526,472331
1391.72,0.116672,610663,466799
1395.01,0.121482,610634,461635
1398.29,0.126726,611700,456891
1402.66,0.133729,614051,451311
1405.93,0.139478,616268,446984
1409.2,0.144677,617795,442759
1412.46,0.150167,618872,437959
1415.72,0.153987,619795,434772
1418.98,0.158144,620495,431116
1422.23,0.162267,621087,427450
1426.56,0.165860,621375,424125
1429.8,0.168804,621616,421423
1433.04,0.171592,622129,419072
1436.27,0.174162,621526,416195
1439.5,0.176333,621113,413845
1442.72,0.178598,620921,411565
1445.94,0.181346,620270,408540
1450.23,0.185208,618860,404003
1453.44,0.188046,617697,400617
1456.64,0.191164,616264,396828
1459.85,0.194165,614413,392912
1463.04,0.197084,612307,388942
1466.24,0.200635,610032,384342
1469.43,0.204177,607345,379541
1473.67,0.210059,603789,372243
1476.85,0.215960,601175,365629
1480.02,0.221994,597737,358522
1483.19,0.229110,594479,350773
1486.36,0.235523,591232,343744
1489.52,0.240587,587853,337817
1492.68,0.244130,583875,332805
1496.89,0.246526,578062,327679
1500.03,0.247307,574159,324882
1503.18,0.247620,570285,322457
1506.32,0.246326,565444,320674
1509.45,0.245310,560571,318655
1512.58,0.243663,555821,317155
1515.71,0.241010,550344,315954
1519.87,0.238108,543983,314396
1522.99,0.235361,538764,313356
1526.1,0.233259,533692,311912
1529.21,0.229118,527902,311484
1532.32,0.226278,521886,309954
1535.42,0.223105,515888,308639
1538.51,0.219666,509987,307534
1541.6,0.216452,503936,306142
1545.72,0.212390,494694,303352
1548.8,0.209570,488378,301430
1551.88,0.206184,481832,299717
1554.95,0.204536,474989,296584
1558.02,0.202556,467818,293441
1561.08,0.201405,460730,289762
1564.15,0.201158,454170,285799
1568.22,0.200262,444181,280090
1571.27,0.198941,436947,276368
1574.32,0.198351,429598,272089
1577.36,0.196501,422039,268443
1580.4,0.195714,414375,264046
1583.43,0.194499,406354,259660
1586.46,0.191725,398475,256257
1590.49,0.189010,388982,251721
1593.51,0.187710,380708,247105
1596.53,0.184494,372727,243723
1599.54,0.183189,365060,239428
1602.55,0.180586,357543,235908
1605.55,0.179320,349495,231271
1608.55,0.176628,341154,227155
1612.54,0.173860,330877,221721
1615.53,0.172400,322904,217107
1618.51,0.170489,315116,212805
1621.49,0.169119,307217,208126
1624.47,0.168747,299481,203059
1627.44,0.166932,292112,198892
1630.41,0.166005,284245,193949
1634.36,0.165373,274079,187285
1637.32,0.162911,266916,183427
1640.27,0.163563,259612,178140
1643.22,0.161350,251804,173665
1646.16,0.160845,244348,168719
1649.1,0.160330,236703,163634
1652.04,0.158190,228171,158515
1655.95,0.155930,215408,150429
1658.88,0.152658,204937,144199
1661.8,0.148965,193395,137240
1664.72,0.141790,179728,129666
1667.63,0.131152,163642,120988
1670.54,0.119085,146312,111223
1673.44,0.103197,128451,101284
1677.31,0.088970,105080,85615
1680.21,0.078580,88906,74191
1683.1,0.077466,75033,62775
1685.99,0.077579,63520,53129
1688.87,0.080130,53714,44664
1691.75,0.088122,45653,37269
1694.62,0.089737,39137,31831
1697.49,0.095110,33776,27133
1701.31,0.110910,28175,21825