File: samples/wool/wool-000811/Column 1_050627_20150331_123622.csv
Method:,Column 1,,
Host Date-Time:,31/3/15 @ 12:36:22,,
Header Version:,1,,
System Temp (C):,34.15,,
Detector Temp (C):,35.06,,
Humidity (%):,1.56,,
Lamp PD:,3818,,
Shift Vector Coefficients:,-10.5391,0.0761263,-0.000134223,,
Pixel to Wavelength Coefficients:,1775.68,-0.916766,-0.000235065,,
Serial Number:,5510004,,
Scan Config Name:,Column 1,,
Scan Config Type:,Slew,,
Section 1,,
Start wavelength (nm):,900,,
End wavelength (nm):,1700,,
Pattern Pixel Width (nm):,   7.03,,,,
Exposure (ms):,  0.635,,,,
Digital Resolution:,228,,
Num Repeats:,6,,
PGA Gain:,64,,
Total Measurement Time in sec:,  2.667,,
Wavelength (nm),Absorbance (AU),Reference Signal (unitless),Sample Signal (unitless)
901.51,0.069134,108485,92520
905.376,0.075819,121306,101874
909.237,0.077451,131909,110363
913.095,0.078625,143299,119569
916.948,0.078509,156982,131021
922.079,0.080691,179937,149427
925.923,0.081145,200504,166333
929.762,0.082221,222660,184256
933.597,0.082104,244426,202322
937.427,0.080404,263972,219358
941.254,0.080040,281845,234407
945.076,0.078697,297271,248002
950.165,0.078279,315605,263551
953.978,0.077109,328029,274665
957.786,0.077475,340470,284842
961.59,0.078207,352317,294257
965.389,0.077227,363056,303911
969.185,0.078020,373162,311801
972.976,0.077565,382632,320049
976.763,0.077821,391202,327024
981.806,0.078615,400190,333927
985.583,0.078886,406088,338637
989.355,0.079168,410162,341812
993.124,0.079447,412868,343846
996.888,0.080445,414263,344216
1000.65,0.081030,415476,344759
1004.4,0.082046,415479,343956
1009.41,0.083727,414358,341703
1013.15,0.084202,412923,340147
1016.89,0.084991,411526,338381
1020.63,0.084545,409066,336704
1024.36,0.084400,406777,334932
1028.09,0.084286,404427,333084
1031.82,0.084383,401911,330938
1036.78,0.083832,398410,328472
1040.49,0.082702,396204,327504
1044.2,0.083279,394236,325445
1047.91,0.082743,392042,324033
1051.61,0.082547,389823,322345
1055.31,0.082451,388234,321102
1059,0.082128,387599,320815
1063.92,0.081019,386688,320879
1067.61,0.079871,386598,321654
1071.29,0.080409,387377,321903
1074.96,0.079293,388536,323697
1078.63,0.078889,389855,325098
1082.3,0.078108,391215,326819
1085.96,0.077240,393215,329147
1090.84,0.076718,396270,332103
1094.49,0.076362,398760,334464
1098.14,0.075584,400987,336935
1101.79,0.075672,403477,338959
1105.43,0.074779,406116,341878
1109.06,0.073453,407701,344262
1112.7,0.073341,409859,346173
1117.53,0.073191,412494,348519
1121.15,0.073411,414909,350382
1124.77,0.073719,416559,351526
1128.38,0.074555,418532,352512
1131.99,0.074705,419956,353589
1135.6,0.076790,421946,353563
1139.2,0.078352,423881,353909
1143.99,0.079713,426786,355220
1147.58,0.081460,428617,355312
1151.17,0.081327,431169,357537
1154.75,0.082426,433579,358626
1158.33,0.083855,436264,359662
1161.91,0.085691,439132,360499
1165.48,0.087648,442389,361540
1169.04,0.089914,446101,362676
1173.79,0.093057,451929,364765
1177.34,0.095613,456026,365912
1180.9,0.097697,461306,368377
1184.44,0.099653,467657,371770
1187.99,0.100943,473969,375670
1191.52,0.100558,479856,380674
1195.06,0.100181,487372,386972
1199.76,0.099301,497347,395693
1203.29,0.098529,504311,401948
1206.81,0.098556,511507,407658
1210.33,0.097975,519078,414245
1213.84,0.097198,527163,421451
1217.35,0.096977,534208,427300
1220.85,0.096457,540472,432829
1225.51,0.095436,549929,441439
1229.01,0.094692,556888,447792
1232.5,0.093839,562180,452936
1235.98,0.093560,567975,457899
1239.46,0.092979,574815,464033
1242.94,0.091806,582782,471737
1246.41,0.091308,591476,479324
1251.03,0.090843,604016,490011
1254.5,0.091011,612289,496530
1257.96,0.091303,619125,501736
1261.41,0.091879,624551,505462
1264.86,0.092416,629900,509161
1268.31,0.092848,634345,512245
1271.75,0.093416,638574,514986
1276.33,0.094148,642499,517279
1279.76,0.093533,645905,520758
1283.19,0.093719,648307,522471
1286.61,0.092883,650446,525204
1290.03,0.092790,652132,526678
1293.44,0.092119,653907,528928
1296.85,0.091536,655963,531304
1301.39,0.091203,657349,532835
1304.8,0.091500,657558,532640
1308.19,0.092056,658515,532733
1311.58,0.091702,658804,533401
1314.97,0.092191,659011,532969
1318.36,0.092722,658272,531721
1321.73,0.092811,658022,531410
1326.23,0.093550,657870,530383
1329.6,0.094135,656482,528552
1332.97,0.095006,654926,526243
1336.33,0.095815,653727,524302
1339.69,0.097059,652497,521818
1343.04,0.098998,649913,517437
1346.39,0.100511,647671,513858
1349.73,0.102560,645338,509598
1354.18,0.105487,641175,502909
1357.52,0.107295,638376,498634
1360.85,0.109137,635805,494523
1364.17,0.111570,633413,489911
1367.49,0.113665,631026,485716
1370.81,0.115891,628050,480954
1374.12,0.117944,625034,476387
1378.54,0.120079,620272,470439
1381.84,0.122932,616892,464812
1385.14,0.126335,613613,458733
1388.43,0.129690,611526,453654
1391.72,0.133645,610663,448907
1395.01,0.137222,610634,445204
1398.29,0.141579,611700,441529
1402.66,0.147009,614051,437719
1405.93,0.151853,616268,434427
1409.2,0.156347,617795,431020
1412.46,0.160276,618872,427883
1415.72,0.164184,619795,424682
1418.98,0.168173,620495,421275
1422.23,0.171163,621087,418783
1426.56,0.174065,621375,416187
1429.8,0.176973,621616,413570
1433.04,0.179365,622129,411638
1436.27,0.181613,621526,409116
1439.5,0.183991,621113,406611
1442.72,0.186337,620921,404296
1445.94,0.188343,620270,402011
1450.23,0.192186,618860,397563
1453.44,0.194899,617697,394345
1456.64,0.198031,616264,390603
1459.85,0.200683,614413,387059
1463.04,0.203484,612307,383253
1466.24,0.207853,610032,378007
1469.43,0.211423,607345,373261
1473.67,0.217917,603789,365568
1476.85,0.223815,601175,359076
1480.02,0.230101,597737,351892
1483.19,0.237332,594479,344195
1486.36,0.243159,591232,337753
1489.52,0.247972,587853,332121
1492.68,0.252145,583875,326719
1496.89,0.252647,578062,323093
1500.03,0.253531,574159,320259
1503.18,0.253663,570285,318001
1506.32,0.253218,565444,315625
1509.45,0.251120,560571,314420
1512.58,0.249864,555821,312659
1515.71,0.247648,550344,311162
1519.87,0.244151,543983,310052
1522.99,0.241915,538764,308662
1526.1,0.239262,533692,307630
1529.21,0.236701,527902,306092
1532.32,0.234112,521886,304413
1535.42,0.231088,515888,303017
1538.51,0.227958,509987,301718
1541.6,0.225306,503936,299964
1545.72,0.221811,494694,296842
1548.8,0.218182,488378,295511
1551.88,0.216455,481832,292712
1554.95,0.214536,474989,289833
1558.02,0.212566,467818,286755
1561.08,0.211588,460730,283047
1564.15,0.211065,454170,279353
1568.22,0.210031,444181,273860
1571.27,0.209728,436947,269588
1574.32,0.208927,429598,265543
1577.36,0.208062,422039,261391
1580.4,0.206379,414375,257641
1583.43,0.204615,406354,253682
1586.46,0.203592,398475,249350
1590.49,0.201542,388982,244561
1593.51,0.200672,380708,239839
1596.53,0.197413,372727,236580
1599.54,0.195764,365060,232595
1602.55,0.193863,357543,228805
1605.55,0.191587,349495,224830
1608.55,0.190261,341154,220135
1612.54,0.188207,330877,214516
1615.53,0.186497,322904,210173
1618.51,0.185466,315116,205591
1621.49,0.184437,307217,200913
1624.47,0.182766,299481,196609
1627.44,0.182312,292112,191972
1630.41,0.181406,284245,187192
1634.36,0.180416,274079,180909
1637.32,0.179244,266916,176657
1640.27,0.179145,259612,171862
1643.22,0.176638,251804,167658
1646.16,0.177535,244348,162358
1649.1,0.176089,236703,157803
1652.04,0.175971,228171,152156
1655.95,0.170569,215408,145443
1658.88,0.168062,204937,139174
1661.8,0.162541,193395,133016
1664.72,0.154511,179728,125923
1667.63,0.141553,163642,118125
1670.54,0.128272,146312,108895
1673.44,0.109955,128451,99720
1677.31,0.091381,105080,85141
1680.21,0.078100,88906,74273
1683.1,0.071843,75033,63593
1685.99,0.070790,63520,53966
1688.87,0.073185,53714,45384
1691.75,0.080361,45653,37941
1694.62,0.082566,39137,32361
1697.49,0.090525,33776,27421
1701.31,0.099325,28175,22415