File: samples/wool/wool-000811/Column 1_050588_20150331_121748.csv
Method:,Column 1,,
Host Date-Time:,31/3/15 @ 12:17:48,,
Header Version:,1,,
System Temp (C):,33.83,,
Detector Temp (C):,34.57,,
Humidity (%):,1.86,,
Lamp PD:,3819,,
Shift Vector Coefficients:,-10.5391,0.0761263,-0.000134223,,
Pixel to Wavelength Coefficients:,1775.68,-0.916766,-0.000235065,,
Serial Number:,5510004,,
Scan Config Name:,Column 1,,
Scan Config Type:,Slew,,
Section 1,,
Start wavelength (nm):,900,,
End wavelength (nm):,1700,,
Pattern Pixel Width (nm):,   7.03,,,,
Exposure (ms):,  0.635,,,,
Digital Resolution:,228,,
Num Repeats:,6,,
PGA Gain:,64,,
Total Measurement Time in sec:,  2.676,,
Wavelength (nm),Absorbance (AU),Reference Signal (unitless),Sample Signal (unitless)
901.51,0.068618,108485,92630
905.376,0.074283,121306,102235
909.237,0.078207,131909,110171
913.095,0.078516,143299,119599
916.948,0.079720,156982,130656
922.079,0.081061,179937,149300
925.923,0.082725,200504,165729
929.762,0.082768,222660,184024
933.597,0.082646,244426,202070
937.427,0.082256,263972,218425
941.254,0.080653,281845,234076
945.076,0.079439,297271,247579
950.165,0.079051,315605,263083
953.978,0.078985,328029,273481
957.786,0.079261,340470,283673
961.59,0.078829,352317,293836
965.389,0.078786,363056,302822
969.185,0.078964,373162,311124
972.976,0.079695,382632,318483
976.763,0.080145,391202,325279
981.806,0.080143,400190,332754
985.583,0.080573,406088,337324
989.355,0.081715,410162,339813
993.124,0.082109,412868,341745
996.888,0.082566,414263,342539
1000.65,0.083441,415476,342851
1004.4,0.083924,415479,342472
1009.41,0.085319,414358,340453
1013.15,0.085485,412923,339144
1016.89,0.086175,411526,337460
1020.63,0.086289,409066,335355
1024.36,0.086479,406777,333332
1028.09,0.085833,404427,331900
1031.82,0.086053,401911,329668
1036.78,0.085441,398410,327257
1040.49,0.085620,396204,325311
1044.2,0.085335,394236,323908
1047.91,0.084982,392042,322367
1051.61,0.084970,389823,320551
1055.31,0.084404,388234,319661
1059,0.083561,387599,319758
1063.92,0.083212,386688,319263
1067.61,0.082991,386598,319351
1071.29,0.081847,387377,320839
1074.96,0.081816,388536,321822
1078.63,0.081727,389855,322980
1082.3,0.080202,391215,325247
1085.96,0.079894,393215,327142
1090.84,0.078543,396270,330711
1094.49,0.078353,398760,332934
1098.14,0.077659,400987,335329
1101.79,0.077272,403477,337712
1105.43,0.077142,406116,340023
1109.06,0.076542,407701,341822
1112.7,0.075971,409859,344083
1117.53,0.074946,412494,347114
1121.15,0.075733,414909,348514
1124.77,0.076326,416559,349422
1128.38,0.076875,418532,350634
1131.99,0.078456,419956,350548
1135.6,0.079820,421946,351105
1139.2,0.081143,423881,351642
1143.99,0.083355,426786,352253
1147.58,0.083605,428617,353561
1151.17,0.085039,431169,354494
1154.75,0.085842,433579,355817
1158.33,0.087170,436264,356927
1161.91,0.089150,439132,357639
1165.48,0.091073,442389,358700
1169.04,0.093050,446101,360067
1173.79,0.096927,451929,361529
1177.34,0.098350,456026,363613
1180.9,0.100745,461306,365800
1184.44,0.102554,467657,369295
1187.99,0.104175,473969,372885
1191.52,0.102887,479856,378638
1195.06,0.103363,487372,384147
1199.76,0.102753,497347,392560
1203.29,0.101845,504311,398890
1206.81,0.101961,511507,404474
1210.33,0.101184,519078,411196
1213.84,0.100683,527163,418082
1217.35,0.099604,534208,424724
1220.85,0.098789,540472,430511
1225.51,0.098214,549929,438624
1229.01,0.097550,556888,444854
1232.5,0.097289,562180,449352
1235.98,0.096643,567975,454659
1239.46,0.095876,574815,460948
1242.94,0.094563,582782,468752
1246.41,0.094046,591476,476312
1251.03,0.093960,604016,486506
1254.5,0.094427,612289,492640
1257.96,0.094457,619125,498106
1261.41,0.095206,624551,501605
1264.86,0.095526,629900,505529
1268.31,0.096106,634345,508416
1271.75,0.097106,638574,510629
1276.33,0.097215,642499,513638
1279.76,0.097248,645905,516322
1283.19,0.096762,648307,518822
1286.61,0.096114,650446,521311
1290.03,0.095665,652132,523203
1293.44,0.095413,653907,524932
1296.85,0.095053,655963,527019
1301.39,0.094878,657349,528346
1304.8,0.095082,657558,528265
1308.19,0.095628,658515,528370
1311.58,0.095479,658804,528783
1314.97,0.095810,659011,528546
1318.36,0.096451,658272,527174
1321.73,0.096636,658022,526750
1326.23,0.097635,657870,525418
1329.6,0.098522,656482,523240
1332.97,0.099706,654926,520579
1336.33,0.100334,653727,518875
1339.69,0.102123,652497,515769
1343.04,0.103363,649913,512262
1346.39,0.106066,647671,507327
1349.73,0.107526,645338,503803
1354.18,0.110466,641175,497176
1357.52,0.112887,638376,492254
1360.85,0.114566,635805,488380
1364.17,0.116625,633413,484242
1367.49,0.118657,631026,480165
1370.81,0.120927,628050,475409
1374.12,0.123226,625034,470628
1378.54,0.126561,620272,463470
1381.84,0.129403,616892,457937
1385.14,0.132900,613613,451850
1388.43,0.137290,611526,445784
1391.72,0.141573,610663,440787
1395.01,0.146135,610634,436160
1398.29,0.150940,611700,432114
1402.66,0.158068,614051,426714
1405.93,0.163533,616268,422899
1409.2,0.168541,617795,419086
1412.46,0.173484,618872,415066
1415.72,0.178051,619795,411336
1418.98,0.181632,620495,408419
1422.23,0.185147,621087,405514
1426.56,0.189302,621375,401839
1429.8,0.192428,621616,399111
1433.04,0.194706,622129,397351
1436.27,0.196609,621526,395230
1439.5,0.199005,621113,392795
1442.72,0.201133,620921,390754
1445.94,0.203538,620270,388189
1450.23,0.206712,618860,384486
1453.44,0.209432,617697,381367
1456.64,0.212450,616264,377848
1459.85,0.214881,614413,374610
1463.04,0.217116,612307,371410
1466.24,0.220195,610032,367416
1469.43,0.223609,607345,362933
1473.67,0.229530,603789,355922
1476.85,0.234108,601175,350665
1480.02,0.240016,597737,343949
1483.19,0.245798,594479,337550
1486.36,0.250598,591232,332017
1489.52,0.255354,587853,326524
1492.68,0.258703,583875,321823
1496.89,0.260292,578062,317455
1500.03,0.260821,574159,314928
1503.18,0.260624,570285,312945
1506.32,0.259816,565444,310866
1509.45,0.258475,560571,309140
1512.58,0.257461,555821,307237
1515.71,0.254977,550344,305955
1519.87,0.252233,543983,304335
1522.99,0.249715,538764,303168
1526.1,0.247399,533692,301920
1529.21,0.244470,527902,300665
1532.32,0.241505,521886,299275
1535.42,0.238810,515888,297677
1538.51,0.235946,509987,296219
1541.6,0.233469,503936,294379
1545.72,0.229050,494694,291935
1548.8,0.226199,488378,290106
1551.88,0.223659,481832,287897
1554.95,0.221435,474989,285265
1558.02,0.220017,467818,281877
1561.08,0.219263,460730,278089
1564.15,0.218868,454170,274379
1568.22,0.217035,444181,269479
1571.27,0.216865,436947,265194
1574.32,0.215795,429598,261377
1577.36,0.214327,422039,257647
1580.4,0.213422,414375,253496
1583.43,0.211998,406354,249406
1586.46,0.210208,398475,245580
1590.49,0.208062,388982,240917
1593.51,0.206100,380708,236860
1596.53,0.204729,372727,232628
1599.54,0.201949,365060,229306
1602.55,0.200488,357543,225341
1605.55,0.198242,349495,221411
1608.55,0.195993,341154,217249
1612.54,0.193948,330877,211699
1615.53,0.192610,322904,207235
1618.51,0.191101,315116,202941
1621.49,0.190212,307217,198259
1624.47,0.188270,299481,194133
1627.44,0.188415,292112,189293
1630.41,0.187221,284245,184702
1634.36,0.185836,274079,178665
1637.32,0.184898,266916,174372
1640.27,0.184868,259612,169612
1643.22,0.182160,251804,165540
1646.16,0.182547,244348,160495
1649.1,0.182708,236703,155416
1652.04,0.180891,228171,150442
1655.95,0.177531,215408,143130
1658.88,0.172797,204937,137665
1661.8,0.167777,193395,131422
1664.72,0.160533,179728,124189
1667.63,0.148782,163642,116175
1670.54,0.134017,146312,107464
1673.44,0.118297,128451,97823
1677.31,0.100203,105080,83429
1680.21,0.086084,88906,72920
1683.1,0.083646,75033,61888
1685.99,0.086014,63520,52107
1688.87,0.087860,53714,43876
1691.75,0.090365,45653,37077
1694.62,0.095008,39137,31447
1697.49,0.099502,33776,26860
1701.31,0.101209,28175,22318