File: samples/wool/wool-000811/Column 1_050569_20150331_120852.csv
Method:,Column 1,,
Host Date-Time:,31/3/15 @ 12:8:52,,
Header Version:,1,,
System Temp (C):,34.06,,
Detector Temp (C):,34.02,,
Humidity (%):,1.76,,
Lamp PD:,3818,,
Shift Vector Coefficients:,-10.5391,0.0761263,-0.000134223,,
Pixel to Wavelength Coefficients:,1775.68,-0.916766,-0.000235065,,
Serial Number:,5510004,,
Scan Config Name:,Column 1,,
Scan Config Type:,Slew,,
Section 1,,
Start wavelength (nm):,900,,
End wavelength (nm):,1700,,
Pattern Pixel Width (nm):,   7.03,,,,
Exposure (ms):,  0.635,,,,
Digital Resolution:,228,,
Num Repeats:,6,,
PGA Gain:,64,,
Total Measurement Time in sec:,  2.679,,
Wavelength (nm),Absorbance (AU),Reference Signal (unitless),Sample Signal (unitless)
901.51,0.033217,108485,100497
905.376,0.041807,121306,110173
909.237,0.042649,131909,119571
913.095,0.043417,143299,129666
916.948,0.044992,156982,141533
922.079,0.046019,179937,161846
925.923,0.049236,200504,179014
929.762,0.049543,222660,198655
933.597,0.049553,244426,218069
937.427,0.047773,263972,236475
941.254,0.048207,281845,252234
945.076,0.047240,297271,266632
950.165,0.047183,315605,283114
953.978,0.045975,328029,295078
957.786,0.046565,340470,305854
961.59,0.047552,352317,315778
965.389,0.046953,363056,325852
969.185,0.047664,373162,334375
972.976,0.047215,382632,343215
976.763,0.047879,391202,350366
981.806,0.047970,400190,358341
985.583,0.049401,406088,362426
989.355,0.049844,410162,365689
993.124,0.050368,412868,367657
996.888,0.051051,414263,368320
1000.65,0.051568,415476,368959
1004.4,0.053065,415479,367692
1009.41,0.054744,414358,365285
1013.15,0.055092,412923,363728
1016.89,0.055111,411526,362482
1020.63,0.055063,409066,360355
1024.36,0.054905,406777,358469
1028.09,0.054538,404427,356699
1031.82,0.055284,401911,353872
1036.78,0.054058,398410,351781
1040.49,0.053986,396204,349891
1044.2,0.053588,394236,348472
1047.91,0.053304,392042,346760
1051.61,0.052344,389823,345560
1055.31,0.052080,388234,344361
1059,0.051708,387599,344092
1063.92,0.051009,386688,343836
1067.61,0.049794,386598,344719
1071.29,0.049310,387377,345799
1074.96,0.049079,388536,347018
1078.63,0.048451,389855,348700
1082.3,0.047266,391215,350873
1085.96,0.046918,393215,352949
1090.84,0.046300,396270,356198
1094.49,0.045674,398760,358953
1098.14,0.045169,400987,361378
1101.79,0.044921,403477,363829
1105.43,0.045085,406116,366071
1109.06,0.044159,407701,368284
1112.7,0.044252,409859,370154
1117.53,0.044599,412494,372236
1121.15,0.045696,414909,373471
1124.77,0.045617,416559,375024
1128.38,0.047164,418532,375461
1131.99,0.048183,419956,375855
1135.6,0.050044,421946,376022
1139.2,0.052018,423881,376033
1143.99,0.054596,426786,376369
1147.58,0.055472,428617,377222
1151.17,0.056537,431169,378539
1154.75,0.057641,433579,379688
1158.33,0.058991,436264,380854
1161.91,0.061627,439132,381038
1165.48,0.064417,442389,381406
1169.04,0.066448,446101,382812
1173.79,0.070146,451929,384525
1177.34,0.072426,456026,385979
1180.9,0.075043,461306,388102
1184.44,0.077319,467657,391389
1187.99,0.077671,473969,396350
1191.52,0.077763,479856,401188
1195.06,0.077482,487372,407736
1199.76,0.075996,497347,417507
1203.29,0.074848,504311,424473
1206.81,0.074873,511507,430505
1210.33,0.074003,519078,437753
1213.84,0.073344,527163,445247
1217.35,0.072252,534208,452333
1220.85,0.071226,540472,458719
1225.51,0.070402,549929,467632
1229.01,0.070261,556888,473704
1232.5,0.069555,562180,478983
1235.98,0.068749,567975,484820
1239.46,0.067635,574815,491918
1242.94,0.066894,582782,499588
1246.41,0.066181,591476,507874
1251.03,0.065679,604016,519241
1254.5,0.066103,612289,525840
1257.96,0.066526,619125,531193
1261.41,0.067629,624551,534489
1264.86,0.067722,629900,538951
1268.31,0.068096,634345,542288
1271.75,0.069257,638574,544445
1276.33,0.069091,642499,548001
1279.76,0.069411,645905,550500
1283.19,0.068579,648307,553607
1286.61,0.068569,650446,555446
1290.03,0.067750,652132,557938
1293.44,0.067556,653907,559706
1296.85,0.067305,655963,561790
1301.39,0.067242,657349,563059
1304.8,0.067116,657558,563401
1308.19,0.067141,658515,564189
1311.58,0.067459,658804,564023
1314.97,0.068055,659011,563427
1318.36,0.068302,658272,562475
1321.73,0.068681,658022,561771
1326.23,0.069620,657870,560428
1329.6,0.070720,656482,557831
1332.97,0.071498,654926,555513
1336.33,0.072674,653727,552997
1339.69,0.074381,652497,549791
1343.04,0.076383,649913,545095
1346.39,0.078503,647671,540570
1349.73,0.080740,645338,535855
1354.18,0.083565,641175,528946
1357.52,0.085641,638376,524126
1360.85,0.088296,635805,518834
1364.17,0.090273,633413,514534
1367.49,0.092776,631026,509649
1370.81,0.095315,628050,504289
1374.12,0.097640,625034,499187
1378.54,0.100931,620272,491645
1381.84,0.104952,616892,484459
1385.14,0.107924,613613,478598
1388.43,0.112501,611526,471969
1391.72,0.116731,610663,466735
1395.01,0.121743,610634,461358
1398.29,0.127121,611700,456475
1402.66,0.134175,614051,450847
1405.93,0.139643,616268,446814
1409.2,0.145068,617795,442361
1412.46,0.150304,618872,437821
1415.72,0.154503,619795,434255
1418.98,0.159219,620495,430050
1422.23,0.162606,621087,427117
1426.56,0.166549,621375,423453
1429.8,0.169353,621616,420891
1433.04,0.172041,622129,418639
1436.27,0.174470,621526,415900
1439.5,0.176637,621113,413555
1442.72,0.179167,620921,411026
1445.94,0.181760,620270,408151
1450.23,0.185077,618860,404125
1453.44,0.188192,617697,400482
1456.64,0.191343,616264,396665
1459.85,0.194377,614413,392720
1463.04,0.197177,612307,388859
1466.24,0.200642,610032,384336
1469.43,0.204395,607345,379350
1473.67,0.210738,603789,371661
1476.85,0.215984,601175,365609
1480.02,0.222667,597737,357967
1483.19,0.229508,594479,350452
1486.36,0.235169,591232,344024
1489.52,0.240316,587853,338028
1492.68,0.244736,583875,332341
1496.89,0.246452,578062,327735
1500.03,0.247401,574159,324811
1503.18,0.247420,570285,322606
1506.32,0.246785,565444,320335
1509.45,0.245322,560571,318646
1512.58,0.243751,555821,317091
1515.71,0.242043,550344,315204
1519.87,0.238549,543983,314077
1522.99,0.236075,538764,312841
1526.1,0.233339,533692,311854
1529.21,0.229961,527902,310880
1532.32,0.226648,521886,309690
1535.42,0.223743,515888,308186
1538.51,0.220777,509987,306748
1541.6,0.217501,503936,305404
1545.72,0.212559,494694,303234
1548.8,0.209197,488378,301689
1551.88,0.206602,481832,299429
1554.95,0.205077,474989,296215
1558.02,0.203202,467818,293005
1561.08,0.202262,460730,289191
1564.15,0.201450,454170,285607
1568.22,0.199692,444181,280458
1571.27,0.199860,436947,275784
1574.32,0.198220,429598,272171
1577.36,0.196518,422039,268432
1580.4,0.196328,414375,263673
1583.43,0.194397,406354,259721
1586.46,0.192686,398475,255691
1590.49,0.189967,388982,251167
1593.51,0.187343,380708,247314
1596.53,0.185781,372727,243002
1599.54,0.183440,365060,239290
1602.55,0.181594,357543,235361
1605.55,0.179125,349495,231375
1608.55,0.176521,341154,227211
1612.54,0.175945,330877,220659
1615.53,0.172908,322904,216853
1618.51,0.170607,315116,212747
1621.49,0.170015,307217,207697
1624.47,0.168366,299481,203237
1627.44,0.167914,292112,198443
1630.41,0.166344,284245,193798
1634.36,0.165097,274079,187404
1637.32,0.164273,266916,182853
1640.27,0.163476,259612,178176
1643.22,0.163449,251804,172828
1646.16,0.161383,244348,168510
1649.1,0.161135,236703,163331
1652.04,0.157982,228171,158591
1655.95,0.156066,215408,150382
1658.88,0.153382,204937,143959
1661.8,0.148730,193395,137314
1664.72,0.142145,179728,129560
1667.63,0.132479,163642,120619
1670.54,0.120693,146312,110812
1673.44,0.105066,128451,100849
1677.31,0.087992,105080,85808
1680.21,0.080387,88906,73883
1683.1,0.078532,75033,62621
1685.99,0.082040,63520,52586
1688.87,0.083743,53714,44294
1691.75,0.096606,45653,36548
1694.62,0.101240,39137,30999
1697.49,0.101853,33776,26715
1701.31,0.107204,28175,22012