File: samples/wool/wool-000811/Column 1_050597_20150331_122158.csv
Method:,Column 1,,
Host Date-Time:,31/3/15 @ 12:21:58,,
Header Version:,1,,
System Temp (C):,33.91,,
Detector Temp (C):,34.69,,
Humidity (%):,1.76,,
Lamp PD:,3818,,
Shift Vector Coefficients:,-10.5391,0.0761263,-0.000134223,,
Pixel to Wavelength Coefficients:,1775.68,-0.916766,-0.000235065,,
Serial Number:,5510004,,
Scan Config Name:,Column 1,,
Scan Config Type:,Slew,,
Section 1,,
Start wavelength (nm):,900,,
End wavelength (nm):,1700,,
Pattern Pixel Width (nm):,   7.03,,,,
Exposure (ms):,  0.635,,,,
Digital Resolution:,228,,
Num Repeats:,6,,
PGA Gain:,64,,
Total Measurement Time in sec:,  2.666,,
Wavelength (nm),Absorbance (AU),Reference Signal (unitless),Sample Signal (unitless)
901.51,0.071209,108485,92079
905.376,0.076438,121306,101729
909.237,0.078026,131909,110217
913.095,0.077659,143299,119835
916.948,0.079940,156982,130590
922.079,0.081579,179937,149122
925.923,0.082295,200504,165893
929.762,0.082485,222660,184144
933.597,0.082104,244426,202322
937.427,0.082194,263972,218456
941.254,0.080717,281845,234042
945.076,0.079204,297271,247713
950.165,0.078441,315605,263453
953.978,0.078603,328029,273722
957.786,0.078702,340470,284038
961.59,0.078194,352317,294266
965.389,0.079065,363056,302628
969.185,0.078603,373162,311383
972.976,0.078954,382632,319027
976.763,0.079982,391202,325401
981.806,0.080121,400190,332771
985.583,0.081331,406088,336736
989.355,0.080572,410162,340709
993.124,0.081371,412868,342326
996.888,0.081867,414263,343091
1000.65,0.082129,415476,343888
1004.4,0.083881,415479,342506
1009.41,0.085195,414358,340550
1013.15,0.085625,412923,339035
1016.89,0.086485,411526,337219
1020.63,0.085764,409066,335760
1024.36,0.085472,406777,334106
1028.09,0.085512,404427,332145
1031.82,0.085724,401911,329918
1036.78,0.085179,398410,327455
1040.49,0.084908,396204,325845
1044.2,0.084243,394236,324723
1047.91,0.084131,392042,322999
1051.61,0.084049,389823,321232
1055.31,0.083988,388234,319967
1059,0.083688,387599,319665
1063.92,0.082341,386688,319904
1067.61,0.081604,386598,320373
1071.29,0.081164,387377,321344
1074.96,0.081031,388536,322404
1078.63,0.080109,389855,324186
1082.3,0.079943,391215,325441
1085.96,0.079156,393215,327698
1090.84,0.077652,396270,331390
1094.49,0.077637,398760,333484
1098.14,0.077424,400987,335511
1101.79,0.076291,403477,338476
1105.43,0.075660,406116,341185
1109.06,0.075183,407701,342893
1112.7,0.075346,409859,344579
1117.53,0.074735,412494,347282
1121.15,0.075150,414909,348982
1124.77,0.075246,416559,350292
1128.38,0.076664,418532,350804
1131.99,0.077805,419956,351074
1135.6,0.078939,421946,351818
1139.2,0.079719,423881,352797
1143.99,0.081522,426786,353743
1147.58,0.083100,428617,353972
1151.17,0.083923,431169,355406
1154.75,0.084684,433579,356767
1158.33,0.086566,436264,357424
1161.91,0.088278,439132,358358
1165.48,0.090021,442389,359570
1169.04,0.091861,446101,361054
1173.79,0.095507,451929,362713
1177.34,0.098209,456026,363731
1180.9,0.099985,461306,366441
1184.44,0.101419,467657,370261
1187.99,0.102457,473969,374363
1191.52,0.102539,479856,378941
1195.06,0.102877,487372,384577
1199.76,0.101891,497347,393340
1203.29,0.101131,504311,399547
1206.81,0.100561,511507,405780
1210.33,0.099855,519078,412456
1213.84,0.100127,527163,418618
1217.35,0.099159,534208,425159
1220.85,0.097942,540472,431351
1225.51,0.097276,549929,439573
1229.01,0.097069,556888,445347
1232.5,0.096381,562180,450292
1235.98,0.095916,567975,455421
1239.46,0.094772,574815,462121
1242.94,0.093753,582782,469627
1246.41,0.093307,591476,477123
1251.03,0.093163,604016,487400
1254.5,0.093294,612289,493927
1257.96,0.094024,619125,498602
1261.41,0.094178,624551,502794
1264.86,0.094879,629900,506282
1268.31,0.095334,634345,509321
1271.75,0.095600,638574,512403
1276.33,0.096133,642499,514920
1279.76,0.095713,645905,518150
1283.19,0.095240,648307,520644
1286.61,0.095300,650446,522289
1290.03,0.094743,652132,524315
1293.44,0.094611,653907,525902
1296.85,0.093965,655963,528341
1301.39,0.093896,657349,529542
1304.8,0.093728,657558,529915
1308.19,0.093952,658515,530413
1311.58,0.094090,658804,530476
1314.97,0.094759,659011,529827
1318.36,0.095516,658272,528311
1321.73,0.095340,658022,528324
1326.23,0.096119,657870,527255
1329.6,0.097097,656482,524960
1332.97,0.098195,654926,522393
1336.33,0.098931,653727,520554
1339.69,0.100341,652497,517890
1343.04,0.102096,649913,513759
1346.39,0.103726,647671,510068
1349.73,0.106021,645338,505553
1354.18,0.109048,641175,498803
1357.52,0.110774,638376,494655
1360.85,0.112996,635805,490149
1364.17,0.115108,633413,485936
1367.49,0.117215,631026,481762
1370.81,0.119390,628050,477094
1374.12,0.121530,625034,472469
1378.54,0.124331,620272,465855
1381.84,0.127330,616892,460128
1385.14,0.130808,613613,454032
1388.43,0.134339,611526,448824
1391.72,0.138346,610663,444074
1395.01,0.143013,610634,439307
1398.29,0.147911,611700,435138
1402.66,0.154121,614051,430609
1405.93,0.159118,616268,427220
1409.2,0.164242,617795,423255
1412.46,0.169233,618872,419148
1415.72,0.173560,619795,415612
1418.98,0.176706,620495,413078
1422.23,0.180252,621087,410110
1426.56,0.184145,621375,406639
1429.8,0.186078,621616,404990
1433.04,0.189333,622129,402298
1436.27,0.191125,621526,400253
1439.5,0.193240,621113,398044
1442.72,0.195542,620921,395817
1445.94,0.198256,620270,392939
1450.23,0.201317,618860,389292
1453.44,0.204402,617697,385810
1456.64,0.207239,616264,382409
1459.85,0.210105,614413,378752
1463.04,0.212838,612307,375086
1466.24,0.215994,610032,370987
1469.43,0.219549,607345,366342
1473.67,0.225399,603789,359324
1476.85,0.230766,601175,353374
1480.02,0.236497,597737,346747
1483.19,0.242335,594479,340253
1486.36,0.248187,591232,333865
1489.52,0.252915,587853,328363
1492.68,0.255736,583875,324029
1496.89,0.257774,578062,319301
1500.03,0.258628,574159,316522
1503.18,0.258023,570285,314825
1506.32,0.257850,565444,312277
1509.45,0.255620,560571,311179
1512.58,0.254342,555821,309452
1515.71,0.253017,550344,307339
1519.87,0.249501,543983,306256
1522.99,0.247536,538764,304693
1526.1,0.244746,533692,303770
1529.21,0.241953,527902,302413
1532.32,0.238799,521886,301146
1535.42,0.235840,515888,299720
1538.51,0.233089,509987,298174
1541.6,0.230636,503936,296305
1545.72,0.226147,494694,293893
1548.8,0.223562,488378,291873
1551.88,0.221364,481832,289422
1554.95,0.219468,474989,286560
1558.02,0.217866,467818,283277
1561.08,0.215726,460730,280363
1564.15,0.215798,454170,276325
1568.22,0.215404,444181,270493
1571.27,0.214111,436947,266881
1574.32,0.213199,429598,262944
1577.36,0.212194,422039,258916
1580.4,0.210933,414375,254953
1583.43,0.209155,406354,251044
1586.46,0.207079,398475,247356
1590.49,0.206256,388982,241921
1593.51,0.204121,380708,237942
1596.53,0.201539,372727,234343
1599.54,0.199737,365060,230477
1602.55,0.198168,357543,226548
1605.55,0.196507,349495,222297
1608.55,0.194223,341154,218136
1612.54,0.192087,330877,212608
1615.53,0.190674,322904,208161
1618.51,0.188623,315116,204102
1621.49,0.189077,307217,198778
1624.47,0.187280,299481,194576
1627.44,0.186106,292112,190302
1630.41,0.184787,284245,185740
1634.36,0.184373,274079,179268
1637.32,0.182836,266916,175202
1640.27,0.182272,259612,170629
1643.22,0.181897,251804,165640
1646.16,0.180407,244348,161288
1649.1,0.180014,236703,156383
1652.04,0.180242,228171,150667
1655.95,0.175421,215408,143827
1658.88,0.171968,204937,137928
1661.8,0.166751,193395,131733
1664.72,0.157932,179728,124935
1667.63,0.146192,163642,116870
1670.54,0.132951,146312,107728
1673.44,0.118425,128451,97794
1677.31,0.097660,105080,83919
1680.21,0.085133,88906,73080
1683.1,0.080932,75033,62276
1685.99,0.081619,63520,52637
1688.87,0.086971,53714,43966
1691.75,0.090330,45653,37080
1694.62,0.090078,39137,31806
1697.49,0.102113,33776,26699
1701.31,0.112165,28175,21762