File: samples/wool/wool-000811/Column 1_050620_20150331_123314.csv
Method:,Column 1,,
Host Date-Time:,31/3/15 @ 12:33:14,,
Header Version:,1,,
System Temp (C):,34.11,,
Detector Temp (C):,35.05,,
Humidity (%):,1.56,,
Lamp PD:,3818,,
Shift Vector Coefficients:,-10.5391,0.0761263,-0.000134223,,
Pixel to Wavelength Coefficients:,1775.68,-0.916766,-0.000235065,,
Serial Number:,5510004,,
Scan Config Name:,Column 1,,
Scan Config Type:,Slew,,
Section 1,,
Start wavelength (nm):,900,,
End wavelength (nm):,1700,,
Pattern Pixel Width (nm):,   7.03,,,,
Exposure (ms):,  0.635,,,,
Digital Resolution:,228,,
Num Repeats:,6,,
PGA Gain:,64,,
Total Measurement Time in sec:,  2.678,,
Wavelength (nm),Absorbance (AU),Reference Signal (unitless),Sample Signal (unitless)
901.51,0.071252,108485,92070
905.376,0.076429,121306,101731
909.237,0.077573,131909,110332
913.095,0.078109,143299,119711
916.948,0.079269,156982,130792
922.079,0.080067,179937,149642
925.923,0.083307,200504,165507
929.762,0.082721,222660,184044
933.597,0.083637,244426,201609
937.427,0.081108,263972,219003
941.254,0.080752,281845,234023
945.076,0.079862,297271,247338
950.165,0.077774,315605,263858
953.978,0.077512,328029,274410
957.786,0.077884,340470,284574
961.59,0.077856,352317,294495
965.389,0.078332,363056,303139
969.185,0.077924,373162,311870
972.976,0.078219,382632,319567
976.763,0.078616,391202,326426
981.806,0.078720,400190,333846
985.583,0.079502,406088,338157
989.355,0.079940,410162,341205
993.124,0.079992,412868,343415
996.888,0.080427,414263,344230
1000.65,0.082000,415476,343990
1004.4,0.083125,415479,343103
1009.41,0.083935,414358,341539
1013.15,0.084451,412923,339952
1016.89,0.085086,411526,338307
1020.63,0.084970,409066,336375
1024.36,0.084958,406777,334502
1028.09,0.084868,404427,332638
1031.82,0.084347,401911,330966
1036.78,0.084373,398410,328063
1040.49,0.084115,396204,326440
1044.2,0.083833,394236,325030
1047.91,0.083284,392042,323630
1051.61,0.082967,389823,322033
1055.31,0.083042,388234,320665
1059,0.082292,387599,320694
1063.92,0.081642,386688,320419
1067.61,0.081205,386598,320667
1071.29,0.080838,387377,321585
1074.96,0.080186,388536,323032
1078.63,0.079391,389855,324722
1082.3,0.078240,391215,326720
1085.96,0.078068,393215,328520
1090.84,0.077227,396270,331714
1094.49,0.076714,398760,334193
1098.14,0.075903,400987,336688
1101.79,0.075374,403477,339191
1105.43,0.075139,406116,341595
1109.06,0.074210,407701,343662
1112.7,0.073606,409859,345962
1117.53,0.073692,412494,348117
1121.15,0.074355,414909,349621
1124.77,0.074425,416559,350955
1128.38,0.075456,418532,351781
1131.99,0.075812,419956,352689
1135.6,0.077456,421946,353021
1139.2,0.078657,423881,353661
1143.99,0.080768,426786,354358
1147.58,0.081625,428617,355177
1151.17,0.082489,431169,356581
1154.75,0.083239,433579,357956
1158.33,0.084089,436264,359468
1161.91,0.086008,439132,360236
1165.48,0.088330,442389,360973
1169.04,0.090356,446101,362307
1173.79,0.093813,451929,364131
1177.34,0.096164,456026,365448
1180.9,0.098211,461306,367941
1184.44,0.100074,467657,371410
1187.99,0.101646,473969,375063
1191.52,0.101010,479856,380278
1195.06,0.101142,487372,386117
1199.76,0.100389,497347,394703
1203.29,0.099384,504311,401157
1206.81,0.098930,511507,407307
1210.33,0.098388,519078,413852
1213.84,0.098146,527163,420532
1217.35,0.097612,534208,426676
1220.85,0.096632,540472,432654
1225.51,0.095972,549929,440894
1229.01,0.095294,556888,447171
1232.5,0.094720,562180,452018
1235.98,0.094189,567975,457236
1239.46,0.093390,574815,463594
1242.94,0.092017,582782,471508
1246.41,0.092364,591476,478160
1251.03,0.091008,604016,489824
1254.5,0.091745,612289,495691
1257.96,0.092052,619125,500871
1261.41,0.092809,624551,504381
1264.86,0.092947,629900,508539
1268.31,0.093491,634345,511487
1271.75,0.094436,638574,513778
1276.33,0.094463,642499,516903
1279.76,0.094386,645905,519736
1283.19,0.093887,648307,522268
1286.61,0.093403,650446,524576
1290.03,0.093115,652132,526285
1293.44,0.092240,653907,528781
1296.85,0.092142,655963,530564
1301.39,0.092175,657349,531644
1304.8,0.091812,657558,532258
1308.19,0.092190,658515,532569
1311.58,0.092464,658804,532467
1314.97,0.092598,659011,532470
1318.36,0.093295,658272,531020
1321.73,0.093357,658022,530742
1326.23,0.094338,657870,529422
1329.6,0.094934,656482,527581
1332.97,0.095599,654926,525525
1336.33,0.096346,653727,523661
1339.69,0.097895,652497,520815
1343.04,0.099494,649913,516846
1346.39,0.101710,647671,512442
1349.73,0.103321,645338,508705
1354.18,0.106331,641175,501933
1357.52,0.107851,638376,497996
1360.85,0.110262,635805,493244
1364.17,0.112089,633413,489326
1367.49,0.113970,631026,485375
1370.81,0.116370,628050,480423
1374.12,0.118432,625034,475852
1378.54,0.121319,620272,469098
1381.84,0.123599,616892,464099
1385.14,0.126875,613613,458162
1388.43,0.130451,611526,452860
1391.72,0.134472,610663,448053
1395.01,0.138785,610634,443605
1398.29,0.142524,611700,440570
1402.66,0.148164,614051,436556
1405.93,0.153319,616268,432963
1409.2,0.157295,617795,430080
1412.46,0.161557,618872,426623
1415.72,0.165926,619795,422982
1418.98,0.168893,620495,420577
1422.23,0.172233,621087,417753
1426.56,0.176319,621375,414033
1429.8,0.179181,621616,411473
1433.04,0.181057,622129,410037
1436.27,0.183363,621526,407471
1439.5,0.185259,621113,405426
1442.72,0.187495,620921,403219
1445.94,0.190465,620270,400051
1450.23,0.193614,618860,396258
1453.44,0.196385,617697,392998
1456.64,0.200043,616264,388798
1459.85,0.202407,614413,385526
1463.04,0.205178,612307,381761
1466.24,0.208912,610032,377086
1469.43,0.212853,607345,372034
1473.67,0.219265,603789,364435
1476.85,0.224605,601175,358423
1480.02,0.231262,597737,350952
1483.19,0.237865,594479,343773
1486.36,0.243873,591232,337198
1489.52,0.248502,587853,331716
1492.68,0.252033,583875,326804
1496.89,0.254503,578062,321715
1500.03,0.255104,574159,319101
1503.18,0.254924,570285,317079
1506.32,0.253882,565444,315143
1509.45,0.252356,560571,313527
1512.58,0.251810,555821,311261
1515.71,0.248820,550344,310323
1519.87,0.245409,543983,309155
1522.99,0.243849,538764,307291
1526.1,0.240816,533692,306531
1529.21,0.237764,527902,305344
1532.32,0.235208,521886,303646
1535.42,0.232080,515888,302326
1538.51,0.229330,509987,300766
1541.6,0.226440,503936,299182
1545.72,0.222253,494694,296540
1548.8,0.220069,488378,294230
1551.88,0.217357,481832,292105
1554.95,0.215087,474989,289465
1558.02,0.213439,467818,286179
1561.08,0.211883,460730,282855
1564.15,0.212167,454170,278645
1568.22,0.210849,444181,273345
1571.27,0.211117,436947,268727
1574.32,0.208880,429598,265572
1577.36,0.208348,422039,261219
1580.4,0.207744,414375,256832
1583.43,0.206404,406354,252639
1586.46,0.204542,398475,248805
1590.49,0.201500,388982,244585
1593.51,0.200594,380708,239882
1596.53,0.198267,372727,236115
1599.54,0.196603,365060,232146
1602.55,0.194891,357543,228264
1605.55,0.193934,349495,223618
1608.55,0.191039,341154,219741
1612.54,0.189093,330877,214079
1615.53,0.187726,322904,209579
1618.51,0.187278,315116,204735
1621.49,0.185623,307217,200365
1624.47,0.184992,299481,195604
1627.44,0.183401,292112,191491
1630.41,0.182016,284245,186929
1634.36,0.181055,274079,180643
1637.32,0.181509,266916,175738
1640.27,0.179691,259612,171646
1643.22,0.179140,251804,166695
1646.16,0.177570,244348,162345
1649.1,0.177773,236703,157192
1652.04,0.176197,228171,152077
1655.95,0.174119,215408,144259
1658.88,0.170534,204937,138384
1661.8,0.163961,193395,132582
1664.72,0.155443,179728,125653
1667.63,0.143045,163642,117720
1670.54,0.129242,146312,108652
1673.44,0.111688,128451,99323
1677.31,0.093134,105080,84798
1680.21,0.079758,88906,73990
1683.1,0.072533,75033,63492
1685.99,0.074484,63520,53509
1688.87,0.077870,53714,44897
1691.75,0.083658,45653,37654
1694.62,0.090502,39137,31775
1697.49,0.090272,33776,27437
1701.31,0.097971,28175,22485