File: samples/wool/wool-000811/Column 1_050616_20150331_123105.csv
Method:,Column 1,,
Host Date-Time:,31/3/15 @ 12:31:5,,
Header Version:,1,,
System Temp (C):,34.13,,
Detector Temp (C):,34.93,,
Humidity (%):,1.66,,
Lamp PD:,3818,,
Shift Vector Coefficients:,-10.5391,0.0761263,-0.000134223,,
Pixel to Wavelength Coefficients:,1775.68,-0.916766,-0.000235065,,
Serial Number:,5510004,,
Scan Config Name:,Column 1,,
Scan Config Type:,Slew,,
Section 1,,
Start wavelength (nm):,900,,
End wavelength (nm):,1700,,
Pattern Pixel Width (nm):,   7.03,,,,
Exposure (ms):,  0.635,,,,
Digital Resolution:,228,,
Num Repeats:,6,,
PGA Gain:,64,,
Total Measurement Time in sec:,  2.668,,
Wavelength (nm),Absorbance (AU),Reference Signal (unitless),Sample Signal (unitless)
901.51,0.069641,108485,92412
905.376,0.072688,121306,102611
909.237,0.075484,131909,110864
913.095,0.076281,143299,120216
916.948,0.078171,156982,131123
922.079,0.080235,179937,149584
925.923,0.081257,200504,166290
929.762,0.081648,222660,184499
933.597,0.082347,244426,202209
937.427,0.080377,263972,219372
941.254,0.080509,281845,234154
945.076,0.078472,297271,248131
950.165,0.077708,315605,263898
953.978,0.076218,328029,275229
957.786,0.076652,340470,285382
961.59,0.076897,352317,295146
965.389,0.076980,363056,304084
969.185,0.077805,373162,311955
972.976,0.077752,382632,319911
976.763,0.078667,391202,326388
981.806,0.078178,400190,334263
985.583,0.078945,406088,338591
989.355,0.079384,410162,341642
993.124,0.080048,412868,343371
996.888,0.080338,414263,344301
1000.65,0.081029,415476,344760
1004.4,0.082098,415479,343915
1009.41,0.083620,414358,341787
1013.15,0.083901,412923,340383
1016.89,0.084130,411526,339053
1020.63,0.084249,409066,336934
1024.36,0.084436,406777,334904
1028.09,0.084335,404427,333047
1031.82,0.083707,401911,331454
1036.78,0.083495,398410,328727
1040.49,0.083261,396204,327083
1044.2,0.083767,394236,325079
1047.91,0.082943,392042,323884
1051.61,0.082989,389823,322017
1055.31,0.082322,388234,321197
1059,0.081852,387599,321019
1063.92,0.081637,386688,320423
1067.61,0.079590,386598,321862
1071.29,0.080761,387377,321642
1074.96,0.079852,388536,323280
1078.63,0.079271,389855,324812
1082.3,0.078197,391215,326752
1085.96,0.077350,393215,329064
1090.84,0.076256,396270,332457
1094.49,0.075261,398760,335313
1098.14,0.075701,400987,336844
1101.79,0.075134,403477,339379
1105.43,0.075010,406116,341696
1109.06,0.073595,407701,344149
1112.7,0.073023,409859,346427
1117.53,0.073009,412494,348665
1121.15,0.073072,414909,350656
1124.77,0.074179,416559,351154
1128.38,0.075103,418532,352067
1131.99,0.076077,419956,352474
1135.6,0.076549,421946,353759
1139.2,0.078789,423881,353553
1143.99,0.079853,426786,355105
1147.58,0.081413,428617,355350
1151.17,0.081855,431169,357102
1154.75,0.082710,433579,358392
1158.33,0.084363,436264,359241
1161.91,0.086314,439132,359982
1165.48,0.088152,442389,361121
1169.04,0.090491,446101,362195
1173.79,0.093188,451929,364655
1177.34,0.095437,456026,366060
1180.9,0.097815,461306,368277
1184.44,0.099523,467657,371881
1187.99,0.100600,473969,375967
1191.52,0.100627,479856,380613
1195.06,0.100720,487372,386492
1199.76,0.099813,497347,395227
1203.29,0.099201,504311,401326
1206.81,0.099090,511507,407157
1210.33,0.097795,519078,414417
1213.84,0.097313,527163,421339
1217.35,0.097202,534208,427079
1220.85,0.096782,540472,432505
1225.51,0.095161,549929,441719
1229.01,0.095522,556888,446937
1232.5,0.094476,562180,452272
1235.98,0.093603,567975,457853
1239.46,0.092902,574815,464115
1242.94,0.091925,582782,471608
1246.41,0.091477,591476,479137
1251.03,0.090824,604016,490032
1254.5,0.091294,612289,496207
1257.96,0.091925,619125,501018
1261.41,0.092278,624551,504998
1264.86,0.092602,629900,508944
1268.31,0.093588,634345,511373
1271.75,0.093827,638574,514499
1276.33,0.094242,642499,517166
1279.76,0.094258,645905,519889
1283.19,0.093629,648307,522579
1286.61,0.093369,650446,524617
1290.03,0.093040,652132,526375
1293.44,0.092255,653907,528763
1296.85,0.092667,655963,529923
1301.39,0.091839,657349,532056
1304.8,0.091925,657558,532119
1308.19,0.091944,658515,532870
1311.58,0.092170,658804,532827
1314.97,0.092649,659011,532407
1318.36,0.092778,658272,531652
1321.73,0.093131,658022,531018
1326.23,0.094234,657870,529549
1329.6,0.094325,656482,528321
1332.97,0.095273,654926,525919
1336.33,0.096393,653727,523605
1339.69,0.097887,652497,520825
1343.04,0.099151,649913,517254
1346.39,0.100967,647671,513319
1349.73,0.103204,645338,508842
1354.18,0.106008,641175,502306
1357.52,0.108225,638376,497567
1360.85,0.109865,635805,493695
1364.17,0.111988,633413,489439
1367.49,0.114244,631026,485069
1370.81,0.116158,628050,480658
1374.12,0.118404,625034,475882
1378.54,0.120756,620272,469706
1381.84,0.124125,616892,463537
1385.14,0.127052,613613,457976
1388.43,0.130269,611526,453050
1391.72,0.134373,610663,448155
1395.01,0.138770,610634,443620
1398.29,0.142554,611700,440539
1402.66,0.148660,614051,436058
1405.93,0.153066,616268,433215
1409.2,0.158048,617795,429335
1412.46,0.162363,618872,425832
1415.72,0.166035,619795,422876
1418.98,0.169567,620495,419925
1422.23,0.173331,621087,416698
1426.56,0.177299,621375,413100
1429.8,0.179341,621616,411321
1433.04,0.181725,622129,409407
1436.27,0.183656,621526,407196
1439.5,0.185867,621113,404859
1442.72,0.188146,620921,402615
1445.94,0.190341,620270,400166
1450.23,0.194596,618860,395363
1453.44,0.196655,617697,392754
1456.64,0.200247,616264,388615
1459.85,0.202763,614413,385210
1463.04,0.205491,612307,381486
1466.24,0.209369,610032,376690
1469.43,0.212666,607345,372194
1473.67,0.219676,603789,364090
1476.85,0.225653,601175,357559
1480.02,0.231413,597737,350830
1483.19,0.237555,594479,344018
1486.36,0.244057,591232,337055
1489.52,0.248853,587853,331448
1492.68,0.252009,583875,326822
1496.89,0.253869,578062,322185
1500.03,0.254432,574159,319595
1503.18,0.255030,570285,317002
1506.32,0.253973,565444,315077
1509.45,0.252515,560571,313412
1512.58,0.250865,555821,311939
1515.71,0.247993,550344,310915
1519.87,0.245652,543983,308982
1522.99,0.242958,538764,307922
1526.1,0.239910,533692,307171
1529.21,0.236784,527902,306034
1532.32,0.235046,521886,303759
1535.42,0.231577,515888,302676
1538.51,0.228830,509987,301113
1541.6,0.226245,503936,299316
1545.72,0.222187,494694,296585
1548.8,0.219576,488378,294564
1551.88,0.217400,481832,292076
1554.95,0.214903,474989,289588
1558.02,0.213831,467818,285921
1561.08,0.212207,460730,282644
1564.15,0.211874,454170,278833
1568.22,0.210760,444181,273401
1571.27,0.210418,436947,269160
1574.32,0.209138,429598,265414
1577.36,0.208103,422039,261366
1580.4,0.207498,414375,256978
1583.43,0.205355,406354,253250
1586.46,0.203944,398475,249148
1590.49,0.200620,388982,245081
1593.51,0.200191,380708,240105
1596.53,0.198356,372727,236067
1599.54,0.196485,365060,232209
1602.55,0.194043,357543,228710
1605.55,0.192321,349495,224450
1608.55,0.190291,341154,220120
1612.54,0.187926,330877,214655
1615.53,0.186751,322904,210050
1618.51,0.185802,315116,205432
1621.49,0.185021,307217,200643
1624.47,0.183228,299481,196400
1627.44,0.183170,292112,191593
1630.41,0.181517,284245,187144
1634.36,0.178970,274079,181512
1637.32,0.180489,266916,176151
1640.27,0.180045,259612,171506
1643.22,0.178141,251804,167079
1646.16,0.177458,244348,162387
1649.1,0.176394,236703,157692
1652.04,0.174837,228171,152554
1655.95,0.172229,215408,144888
1658.88,0.167239,204937,139438
1661.8,0.163133,193395,132835
1664.72,0.155664,179728,125589
1667.63,0.142329,163642,117914
1670.54,0.128428,146312,108856
1673.44,0.110073,128451,99693
1677.31,0.089874,105080,85437
1680.21,0.078674,88906,74175
1683.1,0.072656,75033,63474
1685.99,0.076876,63520,53215
1688.87,0.074719,53714,45224
1691.75,0.084420,45653,37588
1694.62,0.081172,39137,32465
1697.49,0.087463,33776,27615
1701.31,0.099248,28175,22419