File: samples/wool/wool-000811/Column 1_050628_20150331_123648.csv
Method:,Column 1,,
Host Date-Time:,31/3/15 @ 12:36:48,,
Header Version:,1,,
System Temp (C):,34.13,,
Detector Temp (C):,35.05,,
Humidity (%):,1.56,,
Lamp PD:,3818,,
Shift Vector Coefficients:,-10.5391,0.0761263,-0.000134223,,
Pixel to Wavelength Coefficients:,1775.68,-0.916766,-0.000235065,,
Serial Number:,5510004,,
Scan Config Name:,Column 1,,
Scan Config Type:,Slew,,
Section 1,,
Start wavelength (nm):,900,,
End wavelength (nm):,1700,,
Pattern Pixel Width (nm):,   7.03,,,,
Exposure (ms):,  0.635,,,,
Digital Resolution:,228,,
Num Repeats:,6,,
PGA Gain:,64,,
Total Measurement Time in sec:,  2.677,,
Wavelength (nm),Absorbance (AU),Reference Signal (unitless),Sample Signal (unitless)
901.51,0.068117,108485,92737
905.376,0.073930,121306,102318
909.237,0.076763,131909,110538
913.095,0.076393,143299,120185
916.948,0.078589,156982,130997
922.079,0.080276,179937,149570
925.923,0.082099,200504,165968
929.762,0.083330,222660,183786
933.597,0.082149,244426,202301
937.427,0.080551,263972,219284
941.254,0.079540,281845,234677
945.076,0.079181,297271,247726
950.165,0.078894,315605,263178
953.978,0.076633,328029,274966
957.786,0.077431,340470,284871
961.59,0.077371,352317,294824
965.389,0.077580,363056,303664
969.185,0.077776,373162,311976
972.976,0.077835,382632,319850
976.763,0.078290,391202,326671
981.806,0.078543,400190,333982
985.583,0.079168,406088,338417
989.355,0.079486,410162,341562
993.124,0.079762,412868,343597
996.888,0.080501,414263,344172
1000.65,0.080781,415476,344957
1004.4,0.082615,415479,343506
1009.41,0.084126,414358,341389
1013.15,0.083525,412923,340678
1016.89,0.084887,411526,338462
1020.63,0.084576,409066,336680
1024.36,0.084430,406777,334909
1028.09,0.083506,404427,333683
1031.82,0.083826,401911,331363
1036.78,0.083527,398410,328703
1040.49,0.083586,396204,326838
1044.2,0.083650,394236,325167
1047.91,0.083017,392042,323829
1051.61,0.082587,389823,322315
1055.31,0.082758,388234,320875
1059,0.082026,387599,320890
1063.92,0.081408,386688,320592
1067.61,0.080352,386598,321298
1071.29,0.080719,387377,321673
1074.96,0.079526,388536,323523
1078.63,0.078899,389855,325090
1082.3,0.078075,391215,326844
1085.96,0.077282,393215,329115
1090.84,0.076053,396270,332612
1094.49,0.076016,398760,334731
1098.14,0.075507,400987,336995
1101.79,0.074533,403477,339849
1105.43,0.074501,406116,342097
1109.06,0.073778,407701,344004
1112.7,0.073602,409859,345965
1117.53,0.072425,412494,349134
1121.15,0.073219,414909,350537
1124.77,0.074092,416559,351224
1128.38,0.074530,418532,352532
1131.99,0.075465,419956,352971
1135.6,0.076759,421946,353588
1139.2,0.078716,423881,353613
1143.99,0.080866,426786,354278
1147.58,0.080904,428617,355767
1151.17,0.081362,431169,357508
1154.75,0.082743,433579,358365
1158.33,0.083734,436264,359762
1161.91,0.086013,439132,360232
1165.48,0.087710,442389,361488
1169.04,0.090196,446101,362441
1173.79,0.093600,451929,364309
1177.34,0.095600,456026,365923
1180.9,0.097721,461306,368356
1184.44,0.099348,467657,372031
1187.99,0.100021,473969,376469
1191.52,0.100631,479856,380610
1195.06,0.100175,487372,386977
1199.76,0.099661,497347,395365
1203.29,0.098716,504311,401775
1206.81,0.099036,511507,407207
1210.33,0.097916,519078,414302
1213.84,0.096969,527163,421673
1217.35,0.096774,534208,427500
1220.85,0.096239,540472,433046
1225.51,0.095571,549929,441302
1229.01,0.094941,556888,447535
1232.5,0.094220,562180,452538
1235.98,0.093250,567975,458225
1239.46,0.092662,574815,464372
1242.94,0.091607,582782,471953
1246.41,0.091027,591476,479634
1251.03,0.090985,604016,489850
1254.5,0.091165,612289,496354
1257.96,0.091473,619125,501540
1261.41,0.092158,624551,505138
1264.86,0.092235,629900,509374
1268.31,0.093163,634345,511873
1271.75,0.093568,638574,514805
1276.33,0.094017,642499,517434
1279.76,0.093929,645905,520283
1283.19,0.093339,648307,522928
1286.61,0.092942,650446,525133
1290.03,0.092673,652132,526820
1293.44,0.092059,653907,529002
1296.85,0.092364,655963,530292
1301.39,0.091529,657349,532435
1304.8,0.091848,657558,532214
1308.19,0.091576,658515,533322
1311.58,0.091973,658804,533069
1314.97,0.092381,659011,532735
1318.36,0.092339,658272,532190
1321.73,0.092959,658022,531229
1326.23,0.093499,657870,530446
1329.6,0.094373,656482,528263
1332.97,0.094979,654926,526275
1336.33,0.095583,653727,524582
1339.69,0.097392,652497,521418
1343.04,0.099041,649913,517385
1346.39,0.100500,647671,513871
1349.73,0.102604,645338,509546
1354.18,0.105276,641175,503154
1357.52,0.107787,638376,498069
1360.85,0.109398,635805,494226
1364.17,0.111237,633413,490286
1367.49,0.113358,631026,486059
1370.81,0.115819,628050,481033
1374.12,0.117502,625034,476872
1378.54,0.120504,620272,469979
1381.84,0.122799,616892,464954
1385.14,0.126331,613613,458737
1388.43,0.129546,611526,453805
1391.72,0.133107,610663,449464
1395.01,0.137101,610634,445328
1398.29,0.140689,611700,442435
1402.66,0.146975,614051,437753
1405.93,0.151629,616268,434651
1409.2,0.156140,617795,431225
1412.46,0.160231,618872,427927
1415.72,0.164054,619795,424809
1418.98,0.167544,620495,421885
1422.23,0.170615,621087,419312
1426.56,0.174709,621375,415571
1429.8,0.176880,621616,413659
1433.04,0.179438,622129,411569
1436.27,0.181723,621526,409012
1439.5,0.183831,621113,406761
1442.72,0.186005,620921,404605
1445.94,0.188477,620270,401887
1450.23,0.192099,618860,397643
1453.44,0.194819,617697,394418
1456.64,0.197462,616264,391115
1459.85,0.200305,614413,387396
1463.04,0.203426,612307,383304
1466.24,0.207109,610032,378655
1469.43,0.210735,607345,373853
1473.67,0.217817,603789,365652
1476.85,0.224178,601175,358776
1480.02,0.230123,597737,351874
1483.19,0.235951,594479,345291
1486.36,0.242407,591232,338338
1489.52,0.247467,587853,332508
1492.68,0.251967,583875,326853
1496.89,0.253166,578062,322707
1500.03,0.253669,574159,320157
1503.18,0.253734,570285,317949
1506.32,0.254489,565444,314703
1509.45,0.250942,560571,314549
1512.58,0.249746,555821,312744
1515.71,0.247734,550344,311100
1519.87,0.244782,543983,309602
1522.99,0.241915,538764,308662
1526.1,0.239858,533692,307208
1529.21,0.236083,527902,306528
1532.32,0.233849,521886,304598
1535.42,0.231377,515888,302816
1538.51,0.228263,509987,301506
1541.6,0.225093,503936,300111
1545.72,0.220834,494694,297511
1548.8,0.218207,488378,295494
1551.88,0.216184,481832,292895
1554.95,0.213828,474989,290306
1558.02,0.212418,467818,286853
1561.08,0.210927,460730,283478
1564.15,0.210970,454170,279414
1568.22,0.210223,444181,273739
1571.27,0.209059,436947,270004
1574.32,0.208370,429598,265884
1577.36,0.207036,422039,262009
1580.4,0.206026,414375,257850
1583.43,0.204742,406354,253608
1586.46,0.203186,398475,249583
1590.49,0.201470,388982,244602
1593.51,0.199591,380708,240437
1596.53,0.197584,372727,236487
1599.54,0.195230,365060,232881
1602.55,0.193063,357543,229227
1605.55,0.191498,349495,224876
1608.55,0.190550,341154,219989
1612.54,0.187837,330877,214699
1615.53,0.186131,322904,210350
1618.51,0.185771,315116,205447
1621.49,0.184407,307217,200927
1624.47,0.183416,299481,196315
1627.44,0.181703,292112,192241
1630.41,0.181076,284245,187334
1634.36,0.179464,274079,181306
1637.32,0.178905,266916,176795
1640.27,0.177747,259612,172416
1643.22,0.176905,251804,167555
1646.16,0.176992,244348,162561
1649.1,0.175877,236703,157880
1652.04,0.174296,228171,152744
1655.95,0.173187,215408,144569
1658.88,0.166894,204937,139549
1661.8,0.161114,193395,133454
1664.72,0.153587,179728,126191
1667.63,0.141836,163642,118048
1670.54,0.126886,146312,109243
1673.44,0.111867,128451,99282
1677.31,0.090077,105080,85397
1680.21,0.077084,88906,74447
1683.1,0.071973,75033,63574
1685.99,0.072532,63520,53750
1688.87,0.075247,53714,45169
1691.75,0.081358,45653,37854
1694.62,0.085407,39137,32150
1697.49,0.093130,33776,27257
1701.31,0.105983,28175,22074