File: samples/wool/wool-000811/Column 1_050540_20150331_115503.csv
Method:,Column 1,,
Host Date-Time:,31/3/15 @ 11:55:3,,
Header Version:,1,,
System Temp (C):,32.22,,
Detector Temp (C):,30.48,,
Humidity (%):,3.13,,
Lamp PD:,3825,,
Shift Vector Coefficients:,-10.5391,0.0761263,-0.000134223,,
Pixel to Wavelength Coefficients:,1775.68,-0.916766,-0.000235065,,
Serial Number:,5510004,,
Scan Config Name:,Column 1,,
Scan Config Type:,Slew,,
Section 1,,
Start wavelength (nm):,900,,
End wavelength (nm):,1700,,
Pattern Pixel Width (nm):,   7.03,,,,
Exposure (ms):,  0.635,,,,
Digital Resolution:,228,,
Num Repeats:,6,,
PGA Gain:,64,,
Total Measurement Time in sec:,  2.670,,
Wavelength (nm),Absorbance (AU),Reference Signal (unitless),Sample Signal (unitless)
901.51,0.045248,108485,97751
905.376,0.051183,121306,107820
909.237,0.051677,131909,117111
913.095,0.052847,143299,126881
916.948,0.051665,156982,139375
922.079,0.052069,179937,159607
925.923,0.053001,200504,177469
929.762,0.053288,222660,196949
933.597,0.054028,244426,215834
937.427,0.053898,263972,233163
941.254,0.054750,281845,248462
945.076,0.054343,297271,262307
950.165,0.054386,315605,278457
953.978,0.054181,328029,289555
957.786,0.054655,340470,300209
961.59,0.055282,352317,310207
965.389,0.055143,363056,319765
969.185,0.056132,373162,327918
972.976,0.056494,382632,335960
976.763,0.056600,391202,343401
981.806,0.057574,400190,350503
985.583,0.057688,406088,355576
989.355,0.059214,410162,357883
993.124,0.059413,412868,360079
996.888,0.060232,414263,360615
1000.65,0.061778,415476,360386
1004.4,0.061878,415479,360306
1009.41,0.063521,414358,357977
1013.15,0.063760,412923,356541
1016.89,0.064088,411526,355066
1020.63,0.064700,409066,352447
1024.36,0.064333,406777,350771
1028.09,0.063668,404427,349279
1031.82,0.063175,401911,347500
1036.78,0.063157,398410,344487
1040.49,0.062522,396204,343081
1044.2,0.061961,394236,341818
1047.91,0.061541,392042,340245
1051.61,0.061046,389823,338705
1055.31,0.060016,388234,338125
1059,0.058998,387599,338364
1063.92,0.058210,386688,338182
1067.61,0.057112,386598,338959
1071.29,0.056296,387377,340281
1074.96,0.055248,388536,342124
1078.63,0.055243,389855,343289
1082.3,0.054048,391215,345436
1085.96,0.053063,393215,347990
1090.84,0.052471,396270,351172
1094.49,0.052120,398760,353665
1098.14,0.051349,400987,356272
1101.79,0.051559,403477,358311
1105.43,0.051412,406116,360776
1109.06,0.050658,407701,362814
1112.7,0.051124,409859,364343
1117.53,0.051276,412494,366557
1121.15,0.052025,414909,368068
1124.77,0.052220,416559,369366
1128.38,0.053522,418532,370004
1131.99,0.055155,419956,369870
1135.6,0.057419,421946,369690
1139.2,0.059882,423881,369285
1143.99,0.062351,426786,369708
1147.58,0.063931,428617,369946
1151.17,0.064420,431169,371730
1154.75,0.066269,433579,372220
1158.33,0.068517,436264,372591
1161.91,0.070681,439132,373176
1165.48,0.073215,442389,373757
1169.04,0.076945,446101,373670
1173.79,0.081013,451929,375022
1177.34,0.083844,456026,375963
1180.9,0.086295,461306,378176
1184.44,0.088185,467657,381718
1187.99,0.088545,473969,386549
1191.52,0.088800,479856,391121
1195.06,0.087733,487372,398224
1199.76,0.086545,497347,407488
1203.29,0.084896,504311,414765
1206.81,0.084138,511507,421418
1210.33,0.082212,519078,429557
1213.84,0.081608,527163,436855
1217.35,0.080327,534208,444000
1220.85,0.079227,540472,450346
1225.51,0.078607,549929,458881
1229.01,0.077459,556888,465917
1232.5,0.076482,562180,471404
1235.98,0.075694,567975,477128
1239.46,0.074651,574815,484035
1242.94,0.073418,582782,492139
1246.41,0.072337,591476,500726
1251.03,0.072136,604016,511579
1254.5,0.072224,612289,518480
1257.96,0.072462,619125,523982
1261.41,0.073410,624551,527422
1264.86,0.073766,629900,531503
1268.31,0.074102,634345,534840
1271.75,0.075345,638574,536866
1276.33,0.075720,642499,539700
1279.76,0.075448,645905,542901
1283.19,0.074962,648307,545530
1286.61,0.074021,650446,548517
1290.03,0.073742,652132,550293
1293.44,0.073436,653907,552179
1296.85,0.073033,655963,554430
1301.39,0.072720,657349,556002
1304.8,0.073010,657558,555807
1308.19,0.073289,658515,556258
1311.58,0.073283,658804,556510
1314.97,0.074463,659011,555175
1318.36,0.074725,658272,554218
1321.73,0.074908,658022,553774
1326.23,0.076100,657870,552129
1329.6,0.077175,656482,549602
1332.97,0.078516,654926,546608
1336.33,0.079694,653727,544130
1339.69,0.081966,652497,540272
1343.04,0.083807,649913,535856
1346.39,0.086031,647671,531280
1349.73,0.088539,645338,526318
1354.18,0.092086,641175,518669
1357.52,0.094686,638376,513323
1360.85,0.097007,635805,508531
1364.17,0.099537,633413,503674
1367.49,0.102096,631026,498829
1370.81,0.104995,628050,493173
1374.12,0.107803,625034,487642
1378.54,0.111641,620272,479668
1381.84,0.115923,616892,472374
1385.14,0.119897,613613,465583
1388.43,0.125566,611526,457983
1391.72,0.131568,610663,451059
1395.01,0.137790,610634,444622
1398.29,0.143565,611700,439515
1402.66,0.151823,614051,432894
1405.93,0.159038,616268,427299
1409.2,0.165719,617795,421818
1412.46,0.171457,618872,417007
1415.72,0.176983,619795,412349
1418.98,0.182022,620495,408053
1422.23,0.185958,621087,404757
1426.56,0.190459,621375,400770
1429.8,0.193530,621616,398100
1433.04,0.197139,622129,395131
1436.27,0.198850,621526,393196
1439.5,0.201302,621113,390723
1442.72,0.204134,620921,388063
1445.94,0.206426,620270,385616
1450.23,0.210458,618860,381184
1453.44,0.213624,617697,377704
1456.64,0.216754,616264,374122
1459.85,0.218895,614413,371164
1463.04,0.221765,612307,367455
1466.24,0.224593,610032,363714
1469.43,0.227784,607345,359461
1473.67,0.232947,603789,353133
1476.85,0.237515,601175,347925
1480.02,0.242856,597737,341707
1483.19,0.249524,594479,334667
1486.36,0.254940,591232,328714
1489.52,0.260103,587853,322973
1492.68,0.264654,583875,317443
1496.89,0.267063,578062,312544
1500.03,0.268083,574159,309706
1503.18,0.268501,570285,307320
1506.32,0.267260,565444,305583
1509.45,0.266668,560571,303363
1512.58,0.264699,555821,302159
1515.71,0.262372,550344,300789
1519.87,0.259505,543983,299282
1522.99,0.256983,538764,298137
1526.1,0.254414,533692,297082
1529.21,0.251191,527902,296048
1532.32,0.247882,521886,294913
1535.42,0.244904,515888,293529
1538.51,0.241092,509987,292730
1541.6,0.236784,503936,292140
1545.72,0.233005,494694,289289
1548.8,0.229804,488378,287708
1551.88,0.226334,481832,286129
1554.95,0.225238,474989,282778
1558.02,0.222615,467818,280196
1561.08,0.221240,460730,276826
1564.15,0.220711,454170,273217
1568.22,0.219526,444181,267938
1571.27,0.218636,436947,264115
1574.32,0.217611,429598,260286
1577.36,0.216228,422039,256522
1580.4,0.213623,414375,253379
1583.43,0.212181,406354,249301
1586.46,0.210224,398475,245571
1590.49,0.208230,388982,240824
1593.51,0.205346,380708,237272
1596.53,0.202829,372727,233648
1599.54,0.200551,365060,230045
1602.55,0.197869,357543,226704
1605.55,0.196086,349495,222513
1608.55,0.194297,341154,218099
1612.54,0.190894,330877,213193
1615.53,0.188439,322904,209235
1618.51,0.187491,315116,204635
1621.49,0.185578,307217,200386
1624.47,0.184291,299481,195920
1627.44,0.182637,292112,191828
1630.41,0.181464,284245,187167
1634.36,0.180238,274079,180983
1637.32,0.178416,266916,176994
1640.27,0.178809,259612,171995
1643.22,0.177159,251804,167457
1646.16,0.175757,244348,163024
1649.1,0.175967,236703,157847
1652.04,0.174865,228171,152544
1655.95,0.173367,215408,144509
1658.88,0.171219,204937,138166
1661.8,0.169210,193395,130989
1664.72,0.165156,179728,122874
1667.63,0.161070,163642,112934
1670.54,0.157524,146312,101802
1673.44,0.152680,128451,90377
1677.31,0.149801,105080,74425
1680.21,0.147253,88906,63340
1683.1,0.149161,75033,53222
1685.99,0.157400,63520,44209
1688.87,0.163509,53714,36862
1691.75,0.163911,45653,31301
1694.62,0.172467,39137,26310
1697.49,0.176117,33776,22516
1701.31,0.170402,28175,19031