File: samples/wool/wool-000811/Column 1_050596_20150331_122138.csv
Method:,Column 1,,
Host Date-Time:,31/3/15 @ 12:21:38,,
Header Version:,1,,
System Temp (C):,33.93,,
Detector Temp (C):,34.66,,
Humidity (%):,1.76,,
Lamp PD:,3818,,
Shift Vector Coefficients:,-10.5391,0.0761263,-0.000134223,,
Pixel to Wavelength Coefficients:,1775.68,-0.916766,-0.000235065,,
Serial Number:,5510004,,
Scan Config Name:,Column 1,,
Scan Config Type:,Slew,,
Section 1,,
Start wavelength (nm):,900,,
End wavelength (nm):,1700,,
Pattern Pixel Width (nm):,   7.03,,,,
Exposure (ms):,  0.635,,,,
Digital Resolution:,228,,
Num Repeats:,6,,
PGA Gain:,64,,
Total Measurement Time in sec:,  2.730,,
Wavelength (nm),Absorbance (AU),Reference Signal (unitless),Sample Signal (unitless)
901.51,0.069524,108485,92437
905.376,0.075533,121306,101941
909.237,0.077109,131909,110450
913.095,0.078196,143299,119687
916.948,0.078482,156982,131029
922.079,0.081424,179937,149175
925.923,0.081876,200504,166053
929.762,0.082711,222660,184048
933.597,0.082932,244426,201937
937.427,0.081592,263972,218759
941.254,0.080822,281845,233985
945.076,0.080287,297271,247096
950.165,0.078995,315605,263117
953.978,0.077945,328029,274137
957.786,0.078256,340470,284330
961.59,0.078780,352317,293869
965.389,0.078590,363056,302959
969.185,0.079013,373162,311089
972.976,0.079536,382632,318600
976.763,0.079703,391202,325610
981.806,0.079621,400190,333154
985.583,0.080681,406088,337240
989.355,0.080722,410162,340591
993.124,0.081439,412868,342273
996.888,0.081828,414263,343122
1000.65,0.082641,415476,343483
1004.4,0.083773,415479,342591
1009.41,0.085331,414358,340443
1013.15,0.085676,412923,338995
1016.89,0.086118,411526,337504
1020.63,0.085550,409066,335926
1024.36,0.085909,406777,333770
1028.09,0.085403,404427,332229
1031.82,0.085554,401911,330047
1036.78,0.085069,398410,327538
1040.49,0.084432,396204,326202
1044.2,0.085302,394236,323932
1047.91,0.084703,392042,322574
1051.61,0.084266,389823,321071
1055.31,0.083439,388234,320372
1059,0.083358,387599,319908
1063.92,0.082530,386688,319765
1067.61,0.082275,386598,319878
1071.29,0.081392,387377,321175
1074.96,0.080876,388536,322519
1078.63,0.080683,389855,323758
1082.3,0.080033,391215,325374
1085.96,0.078820,393215,327952
1090.84,0.078191,396270,330979
1094.49,0.077435,398760,333639
1098.14,0.076648,400987,336111
1101.79,0.076165,403477,338574
1105.43,0.076172,406116,340783
1109.06,0.075412,407701,342712
1112.7,0.075383,409859,344549
1117.53,0.074913,412494,347140
1121.15,0.075507,414909,348695
1124.77,0.075550,416559,350047
1128.38,0.076434,418532,350990
1131.99,0.076622,419956,352032
1135.6,0.078988,421946,351778
1139.2,0.080440,423881,352212
1143.99,0.082657,426786,352820
1147.58,0.083235,428617,353862
1151.17,0.084516,431169,354921
1154.75,0.084902,433579,356588
1158.33,0.086272,436264,357666
1161.91,0.087869,439132,358696
1165.48,0.089905,442389,359666
1169.04,0.092014,446101,360927
1173.79,0.095432,451929,362776
1177.34,0.097616,456026,364228
1180.9,0.099750,461306,366639
1184.44,0.101549,467657,370151
1187.99,0.102910,473969,373973
1191.52,0.102266,479856,379180
1195.06,0.102454,487372,384952
1199.76,0.101697,497347,393516
1203.29,0.100781,504311,399869
1206.81,0.100638,511507,405708
1210.33,0.099902,519078,412411
1213.84,0.099574,527163,419151
1217.35,0.098736,534208,425573
1220.85,0.098270,540472,431026
1225.51,0.097407,549929,439440
1229.01,0.097486,556888,444920
1232.5,0.096107,562180,450576
1235.98,0.096349,567975,454967
1239.46,0.094766,574815,462128
1242.94,0.093635,582782,469755
1246.41,0.093327,591476,477101
1251.03,0.093257,604016,487294
1254.5,0.093193,612289,494041
1257.96,0.093587,619125,499104
1261.41,0.094342,624551,502604
1264.86,0.095173,629900,505940
1268.31,0.095189,634345,509491
1271.75,0.095987,638574,511946
1276.33,0.096056,642499,515011
1279.76,0.095624,645905,518256
1283.19,0.095712,648307,520078
1286.61,0.095351,650446,522228
1290.03,0.094790,652132,524259
1293.44,0.094260,653907,526327
1296.85,0.094231,655963,528018
1301.39,0.094042,657349,529364
1304.8,0.093633,657558,530031
1308.19,0.093780,658515,530622
1311.58,0.094149,658804,530405
1314.97,0.094745,659011,529843
1318.36,0.095002,658272,528936
1321.73,0.095368,658022,528290
1326.23,0.096503,657870,526790
1329.6,0.097471,656482,524508
1332.97,0.097875,654926,522778
1336.33,0.099644,653727,519700
1339.69,0.100673,652497,517494
1343.04,0.102421,649913,513374
1346.39,0.104288,647671,509409
1349.73,0.105778,645338,505835
1354.18,0.108928,641175,498940
1357.52,0.110602,638376,494851
1360.85,0.112958,635805,490192
1364.17,0.115103,633413,485941
1367.49,0.117249,631026,481724
1370.81,0.119332,628050,477158
1374.12,0.121315,625034,472703
1378.54,0.124044,620272,466163
1381.84,0.127469,616892,459981
1385.14,0.130806,613613,454034
1388.43,0.134472,611526,448686
1391.72,0.139259,610663,443142
1395.01,0.143182,610634,439136
1398.29,0.147923,611700,435126
1402.66,0.154552,614051,430182
1405.93,0.159398,616268,426945
1409.2,0.164312,617795,423187
1412.46,0.168984,618872,419389
1415.72,0.173468,619795,415700
1418.98,0.176931,620495,412864
1422.23,0.180291,621087,410073
1426.56,0.184236,621375,406554
1429.8,0.186931,621616,404195
1433.04,0.189314,622129,402315
1436.27,0.191558,621526,399854
1439.5,0.193105,621113,398167
1442.72,0.196108,620921,395301
1445.94,0.198527,620270,392694
1450.23,0.202313,618860,388400
1453.44,0.204501,617697,385722
1456.64,0.207242,616264,382406
1459.85,0.210092,614413,378764
1463.04,0.212851,612307,375075
1466.24,0.216027,610032,370959
1469.43,0.219332,607345,366525
1473.67,0.225132,603789,359545
1476.85,0.230511,601175,353582
1480.02,0.236395,597737,346829
1483.19,0.242743,594479,339933
1486.36,0.248080,591232,333947
1489.52,0.253143,587853,328190
1492.68,0.256181,583875,323697
1496.89,0.258453,578062,318802
1500.03,0.258696,574159,316473
1503.18,0.258197,570285,314699
1506.32,0.257809,565444,312306
1509.45,0.255881,560571,310992
1512.58,0.255260,555821,308798
1515.71,0.252796,550344,307495
1519.87,0.250002,543983,305903
1522.99,0.246616,538764,305339
1526.1,0.244377,533692,304028
1529.21,0.242400,527902,302102
1532.32,0.238900,521886,301076
1535.42,0.236086,515888,299550
1538.51,0.233615,509987,297813
1541.6,0.230735,503936,296238
1545.72,0.226452,494694,293687
1548.8,0.223195,488378,292120
1551.88,0.221214,481832,289522
1554.95,0.219310,474989,286664
1558.02,0.217270,467818,283666
1561.08,0.216634,460730,279777
1564.15,0.215762,454170,276348
1568.22,0.215125,444181,270667
1571.27,0.213869,436947,267030
1574.32,0.213039,429598,263041
1577.36,0.212076,422039,258986
1580.4,0.211895,414375,254389
1583.43,0.208895,406354,251194
1586.46,0.207602,398475,247058
1590.49,0.205990,388982,242069
1593.51,0.204041,380708,237986
1596.53,0.202444,372727,233855
1599.54,0.199906,365060,230387
1602.55,0.198371,357543,226442
1605.55,0.195385,349495,222872
1608.55,0.193921,341154,218288
1612.54,0.192075,330877,212614
1615.53,0.190797,322904,208102
1618.51,0.189328,315116,203771
1621.49,0.187833,307217,199348
1624.47,0.187240,299481,194594
1627.44,0.187466,292112,189707
1630.41,0.185714,284245,185344
1634.36,0.183569,274079,179600
1637.32,0.182610,266916,175293
1640.27,0.182993,259612,170346
1643.22,0.182808,251804,165293
1646.16,0.180461,244348,161268
1649.1,0.178761,236703,156835
1652.04,0.178353,228171,151324
1655.95,0.175403,215408,143833
1658.88,0.172876,204937,137640
1661.8,0.166754,193395,131732
1664.72,0.159077,179728,124606
1667.63,0.147520,163642,116513
1670.54,0.132738,146312,107781
1673.44,0.116511,128451,98226
1677.31,0.097867,105080,83879
1680.21,0.083034,88906,73434
1683.1,0.080242,75033,62375
1685.99,0.081999,63520,52591
1688.87,0.076094,53714,45081
1691.75,0.086226,45653,37432
1694.62,0.097099,39137,31296
1697.49,0.105002,33776,26522
1701.31,0.105590,28175,22094