File: samples/wool/wool-000811/Column 1_050568_20150331_120821.csv
Method:,Column 1,,
Host Date-Time:,31/3/15 @ 12:8:21,,
Header Version:,1,,
System Temp (C):,33.96,,
Detector Temp (C):,33.92,,
Humidity (%):,1.86,,
Lamp PD:,3818,,
Shift Vector Coefficients:,-10.5391,0.0761263,-0.000134223,,
Pixel to Wavelength Coefficients:,1775.68,-0.916766,-0.000235065,,
Serial Number:,5510004,,
Scan Config Name:,Column 1,,
Scan Config Type:,Slew,,
Section 1,,
Start wavelength (nm):,900,,
End wavelength (nm):,1700,,
Pattern Pixel Width (nm):,   7.03,,,,
Exposure (ms):,  0.635,,,,
Digital Resolution:,228,,
Num Repeats:,6,,
PGA Gain:,64,,
Total Measurement Time in sec:,  2.673,,
Wavelength (nm),Absorbance (AU),Reference Signal (unitless),Sample Signal (unitless)
901.51,0.034216,108485,100266
905.376,0.042549,121306,109985
909.237,0.043572,131909,119317
913.095,0.043538,143299,129630
916.948,0.045729,156982,141293
922.079,0.047273,179937,161379
925.923,0.049023,200504,179102
929.762,0.049849,222660,198515
933.597,0.049309,244426,218192
937.427,0.048883,263972,235871
941.254,0.048212,281845,252231
945.076,0.047837,297271,266266
950.165,0.047049,315605,283201
953.978,0.046705,328029,294583
957.786,0.046741,340470,305730
961.59,0.046854,352317,316286
965.389,0.046756,363056,326000
969.185,0.047186,373162,334743
972.976,0.047773,382632,342774
976.763,0.048489,391202,349874
981.806,0.048546,400190,357866
985.583,0.049474,406088,362365
989.355,0.050370,410162,365246
993.124,0.050360,412868,367664
996.888,0.051225,414263,368172
1000.65,0.051935,415476,368647
1004.4,0.053005,415479,367743
1009.41,0.054375,414358,365595
1013.15,0.054864,412923,363919
1016.89,0.055571,411526,362098
1020.63,0.054852,409066,360530
1024.36,0.054879,406777,358490
1028.09,0.054675,404427,356587
1031.82,0.055073,401911,354044
1036.78,0.054039,398410,351796
1040.49,0.053394,396204,350368
1044.2,0.054071,394236,348085
1047.91,0.053245,392042,346807
1051.61,0.052919,389823,345103
1055.31,0.052381,388234,344122
1059,0.051760,387599,344051
1063.92,0.050400,386688,344319
1067.61,0.049388,386598,345042
1071.29,0.049921,387377,345313
1074.96,0.048558,388536,347435
1078.63,0.048258,389855,348855
1082.3,0.047618,391215,350588
1085.96,0.046713,393215,353116
1090.84,0.046397,396270,356118
1094.49,0.045732,398760,358905
1098.14,0.045583,400987,361033
1101.79,0.044862,403477,363879
1105.43,0.044957,406116,366179
1109.06,0.044462,407701,368027
1112.7,0.044597,409859,369860
1117.53,0.044484,412494,372335
1121.15,0.045431,414909,373699
1124.77,0.045799,416559,374867
1128.38,0.046804,418532,375772
1131.99,0.048216,419956,375827
1135.6,0.049607,421946,376400
1139.2,0.052329,423881,375764
1143.99,0.053955,426786,376925
1147.58,0.055429,428617,377260
1151.17,0.056132,431169,378892
1154.75,0.058159,433579,379236
1158.33,0.059478,436264,380427
1161.91,0.061118,439132,381485
1165.48,0.064419,442389,381404
1169.04,0.066828,446101,382477
1173.79,0.070117,451929,384550
1177.34,0.072674,456026,385759
1180.9,0.074985,461306,388154
1184.44,0.076633,467657,392008
1187.99,0.077842,473969,396194
1191.52,0.077277,479856,401637
1195.06,0.077101,487372,408093
1199.76,0.076572,497347,416953
1203.29,0.075340,504311,423993
1206.81,0.074655,511507,430722
1210.33,0.073689,519078,438070
1213.84,0.073107,527163,445490
1217.35,0.072714,534208,451852
1220.85,0.072357,540472,457526
1225.51,0.070269,549929,467776
1229.01,0.070208,556888,473762
1232.5,0.069601,562180,478933
1235.98,0.068521,567975,485074
1239.46,0.067634,574815,491919
1242.94,0.066861,582782,499626
1246.41,0.065701,591476,508436
1251.03,0.065933,604016,518938
1254.5,0.066099,612289,525845
1257.96,0.066268,619125,531509
1261.41,0.067372,624551,534806
1264.86,0.067956,629900,538661
1268.31,0.068449,634345,541847
1271.75,0.069000,638574,544767
1276.33,0.069645,642499,547302
1279.76,0.069805,645905,550001
1283.19,0.069010,648307,553058
1286.61,0.068637,650446,555359
1290.03,0.068314,652132,557213
1293.44,0.067384,653907,559928
1296.85,0.067540,655963,561487
1301.39,0.066991,657349,563385
1304.8,0.067497,657558,562908
1308.19,0.067366,658515,563897
1311.58,0.067701,658804,563709
1314.97,0.067757,659011,563814
1318.36,0.068504,658272,562213
1321.73,0.068995,658022,561365
1326.23,0.069987,657870,559955
1329.6,0.070823,656482,557699
1332.97,0.071446,654926,555579
1336.33,0.072848,653727,552775
1339.69,0.074432,652497,549726
1343.04,0.076529,649913,544912
1346.39,0.078316,647671,540802
1349.73,0.080759,645338,535831
1354.18,0.083931,641175,528501
1357.52,0.086470,638376,523126
1360.85,0.088144,635805,519015
1364.17,0.090495,633413,514271
1367.49,0.092851,631026,509561
1370.81,0.095360,628050,504236
1374.12,0.097861,625034,498933
1378.54,0.100963,620272,491608
1381.84,0.104404,616892,485071
1385.14,0.108022,613613,478490
1388.43,0.112752,611526,471697
1391.72,0.117212,610663,466219
1395.01,0.122312,610634,460754
1398.29,0.127531,611700,456045
1402.66,0.134466,614051,450545
1405.93,0.140377,616268,446059
1409.2,0.145864,617795,441551
1412.46,0.150734,618872,437388
1415.72,0.155211,619795,433548
1418.98,0.159238,620495,430032
1422.23,0.163032,621087,426698
1426.56,0.167341,621375,422681
1429.8,0.170154,621616,420115
1433.04,0.172778,622129,417929
1436.27,0.175518,621526,414898
1439.5,0.177506,621113,412729
1442.72,0.179957,620921,410279
1445.94,0.182392,620270,407557
1450.23,0.186271,618860,403015
1453.44,0.188977,617697,399759
1456.64,0.191862,616264,396191
1459.85,0.195195,614413,391981
1463.04,0.197819,612307,388285
1466.24,0.201270,610032,383780
1469.43,0.204752,607345,379039
1473.67,0.211111,603789,371342
1476.85,0.217152,601175,364627
1480.02,0.222474,597737,358126
1483.19,0.229221,594479,350684
1486.36,0.235836,591232,343496
1489.52,0.241013,587853,337486
1492.68,0.244476,583875,332540
1496.89,0.247113,578062,327236
1500.03,0.247990,574159,324371
1503.18,0.248116,570285,322089
1506.32,0.247788,565444,319596
1509.45,0.245716,560571,318357
1512.58,0.244450,555821,316581
1515.71,0.241942,550344,315277
1519.87,0.238527,543983,314093
1522.99,0.235617,538764,313171
1526.1,0.233103,533692,312024
1529.21,0.230584,527902,310434
1532.32,0.227565,521886,309037
1535.42,0.223938,515888,308047
1538.51,0.220824,509987,306715
1541.6,0.217259,503936,305574
1545.72,0.212428,494694,303325
1548.8,0.209611,488378,301401
1551.88,0.207624,481832,298725
1554.95,0.205374,474989,296012
1558.02,0.203623,467818,292721
1561.08,0.201945,460730,289402
1564.15,0.201640,454170,285482
1568.22,0.200562,444181,279897
1571.27,0.199855,436947,275787
1574.32,0.198754,429598,271837
1577.36,0.197215,422039,268002
1580.4,0.195411,414375,264230
1583.43,0.194556,406354,259626
1586.46,0.191819,398475,256202
1590.49,0.190308,388982,250970
1593.51,0.188326,380708,246755
1596.53,0.185717,372727,243038
1599.54,0.183518,365060,239247
1602.55,0.181572,357543,235373
1605.55,0.179280,349495,231292
1608.55,0.176785,341154,227073
1612.54,0.175245,330877,221015
1615.53,0.172634,322904,216990
1618.51,0.171580,315116,212271
1621.49,0.170149,307217,207633
1624.47,0.169224,299481,202836
1627.44,0.168139,292112,198340
1630.41,0.167223,284245,193406
1634.36,0.165338,274079,187300
1637.32,0.165000,266916,182547
1640.27,0.163368,259612,178220
1643.22,0.162264,251804,173300
1646.16,0.162743,244348,167983
1649.1,0.162080,236703,162976
1652.04,0.159386,228171,158079
1655.95,0.157808,215408,149780
1658.88,0.154176,204937,143696
1661.8,0.150874,193395,136638
1664.72,0.142869,179728,129344
1667.63,0.132321,163642,120663
1670.54,0.119734,146312,111057
1673.44,0.105561,128451,100734
1677.31,0.090653,105080,85284
1680.21,0.083188,88906,73408
1683.1,0.082056,75033,62115
1685.99,0.080589,63520,52762
1688.87,0.087989,53714,43863
1691.75,0.091773,45653,36957
1694.62,0.093891,39137,31528
1697.49,0.101626,33776,26729
1701.31,0.108845,28175,21929