File: samples/wool/wool-000811/Column 1_050627_20150331_123620.csv
Method:,Column 1,,
Host Date-Time:,31/3/15 @ 12:36:20,,
Header Version:,1,,
System Temp (C):,34.15,,
Detector Temp (C):,35.06,,
Humidity (%):,1.56,,
Lamp PD:,3817,,
Shift Vector Coefficients:,-10.5391,0.0761263,-0.000134223,,
Pixel to Wavelength Coefficients:,1775.68,-0.916766,-0.000235065,,
Serial Number:,5510004,,
Scan Config Name:,Column 1,,
Scan Config Type:,Slew,,
Section 1,,
Start wavelength (nm):,900,,
End wavelength (nm):,1700,,
Pattern Pixel Width (nm):,   7.03,,,,
Exposure (ms):,  0.635,,,,
Digital Resolution:,228,,
Num Repeats:,6,,
PGA Gain:,64,,
Total Measurement Time in sec:,  2.670,,
Wavelength (nm),Absorbance (AU),Reference Signal (unitless),Sample Signal (unitless)
901.51,0.070366,108485,92258
905.376,0.075930,121306,101848
909.237,0.078542,131909,110086
913.095,0.078004,143299,119740
916.948,0.080489,156982,130425
922.079,0.080837,179937,149377
925.923,0.082452,200504,165833
929.762,0.081806,222660,184432
933.597,0.081900,244426,202417
937.427,0.081023,263972,219046
941.254,0.080362,281845,234233
945.076,0.079381,297271,247612
950.165,0.078769,315605,263254
953.978,0.077245,328029,274579
957.786,0.077499,340470,284826
961.59,0.077875,352317,294482
965.389,0.077307,363056,303855
969.185,0.077306,373162,312314
972.976,0.077976,382632,319746
976.763,0.078438,391202,326560
981.806,0.078901,400190,333707
985.583,0.079905,406088,337843
989.355,0.080085,410162,341091
993.124,0.080722,412868,342838
996.888,0.080852,414263,343894
1000.65,0.082110,415476,343903
1004.4,0.082966,415479,343228
1009.41,0.083863,414358,341596
1013.15,0.084312,412923,340061
1016.89,0.084624,411526,338667
1020.63,0.084779,409066,336523
1024.36,0.084427,406777,334911
1028.09,0.084905,404427,332610
1031.82,0.084054,401911,331189
1036.78,0.083922,398410,328404
1040.49,0.083471,396204,326925
1044.2,0.083570,394236,325227
1047.91,0.083926,392042,323152
1051.61,0.083044,389823,321976
1055.31,0.082766,388234,320869
1059,0.082616,387599,320455
1063.92,0.081557,386688,320482
1067.61,0.080588,386598,321123
1071.29,0.080345,387377,321950
1074.96,0.079779,388536,323335
1078.63,0.079750,389855,324454
1082.3,0.078092,391215,326831
1085.96,0.077659,393215,328830
1090.84,0.076363,396270,332375
1094.49,0.076069,398760,334690
1098.14,0.075695,400987,336849
1101.79,0.074592,403477,339803
1105.43,0.074450,406116,342137
1109.06,0.074064,407701,343778
1112.7,0.073366,409859,346153
1117.53,0.072521,412494,349057
1121.15,0.073943,414909,349953
1124.77,0.073917,416559,351366
1128.38,0.074908,418532,352225
1131.99,0.076078,419956,352473
1135.6,0.077353,421946,353105
1139.2,0.078464,423881,353818
1143.99,0.080569,426786,354520
1147.58,0.081315,428617,355430
1151.17,0.081636,431169,357282
1154.75,0.082711,433579,358391
1158.33,0.083964,436264,359572
1161.91,0.085865,439132,360355
1165.48,0.088249,442389,361040
1169.04,0.089929,446101,362664
1173.79,0.093458,451929,364428
1177.34,0.096646,456026,365043
1180.9,0.097739,461306,368341
1184.44,0.100014,467657,371461
1187.99,0.100547,473969,376013
1191.52,0.100523,479856,380704
1195.06,0.100529,487372,386662
1199.76,0.100072,497347,394991
1203.29,0.099295,504311,401239
1206.81,0.098834,511507,407397
1210.33,0.097866,519078,414349
1213.84,0.097231,527163,421419
1217.35,0.097252,534208,427030
1220.85,0.096583,540472,432703
1225.51,0.095478,549929,441396
1229.01,0.095070,556888,447402
1232.5,0.093978,562180,452791
1235.98,0.093798,567975,457648
1239.46,0.092614,574815,464423
1242.94,0.091954,582782,471577
1246.41,0.091299,591476,479334
1251.03,0.091070,604016,489755
1254.5,0.091266,612289,496239
1257.96,0.091659,619125,501325
1261.41,0.092245,624551,505037
1264.86,0.092927,629900,508563
1268.31,0.093208,634345,511820
1271.75,0.093969,638574,514331
1276.33,0.093912,642499,517560
1279.76,0.094057,645905,520130
1283.19,0.093502,648307,522732
1286.61,0.092743,650446,525374
1290.03,0.093096,652132,526308
1293.44,0.092468,653907,528504
1296.85,0.092093,655963,530623
1301.39,0.091577,657349,532377
1304.8,0.091736,657558,532351
1308.19,0.091225,658515,533754
1311.58,0.091718,658804,533382
1314.97,0.092179,659011,532983
1318.36,0.092845,658272,531570
1321.73,0.092917,658022,531280
1326.23,0.093558,657870,530374
1329.6,0.094129,656482,528559
1332.97,0.095014,654926,526233
1336.33,0.095864,653727,524243
1339.69,0.097380,652497,521433
1343.04,0.099149,649913,517257
1346.39,0.100736,647671,513592
1349.73,0.102647,645338,509495
1354.18,0.105288,641175,503140
1357.52,0.107431,638376,498478
1360.85,0.109455,635805,494162
1364.17,0.111870,633413,489572
1367.49,0.113843,631026,485517
1370.81,0.116079,628050,480745
1374.12,0.118226,625034,476078
1378.54,0.120612,620272,469862
1381.84,0.123469,616892,464237
1385.14,0.126152,613613,458926
1388.43,0.129727,611526,453616
1391.72,0.133344,610663,449218
1395.01,0.137232,610634,445194
1398.29,0.141589,611700,441519
1402.66,0.147518,614051,437206
1405.93,0.152156,616268,434124
1409.2,0.157029,617795,430344
1412.46,0.160831,618872,427336
1415.72,0.163918,619795,424942
1418.98,0.168034,620495,421409
1422.23,0.171141,621087,418805
1426.56,0.174785,621375,415498
1429.8,0.177087,621616,413462
1433.04,0.180101,622129,410941
1436.27,0.182174,621526,408588
1439.5,0.183628,621113,406951
1442.72,0.186683,620921,403974
1445.94,0.189236,620270,401185
1450.23,0.192603,618860,397182
1453.44,0.194916,617697,394330
1456.64,0.198164,616264,390484
1459.85,0.200896,614413,386869
1463.04,0.203873,612307,382910
1466.24,0.207325,610032,378467
1469.43,0.211799,607345,372938
1473.67,0.218757,603789,364862
1476.85,0.223962,601175,358954
1480.02,0.230266,597737,351758
1483.19,0.237077,594479,344397
1486.36,0.243109,591232,337792
1489.52,0.248367,587853,331819
1492.68,0.251345,583875,327322
1496.89,0.253414,578062,322523
1500.03,0.254627,574159,319452
1503.18,0.254525,570285,317371
1506.32,0.253291,565444,315572
1509.45,0.251438,560571,314190
1512.58,0.250260,555821,312374
1515.71,0.248185,550344,310777
1519.87,0.245165,543983,309329
1522.99,0.242125,538764,308513
1526.1,0.239669,533692,307342
1529.21,0.236880,527902,305966
1532.32,0.234004,521886,304489
1535.42,0.230902,515888,303147
1538.51,0.228703,509987,301201
1541.6,0.225384,503936,299910
1545.72,0.221251,494694,297225
1548.8,0.217388,488378,296052
1551.88,0.215998,481832,293020
1554.95,0.214431,474989,289903
1558.02,0.212570,467818,286752
1561.08,0.212185,460730,282658
1564.15,0.211870,454170,278836
1568.22,0.210712,444181,273431
1571.27,0.209847,436947,269514
1574.32,0.208579,429598,265756
1577.36,0.207657,422039,261635
1580.4,0.207003,414375,257271
1583.43,0.204363,406354,253829
1586.46,0.202991,398475,249695
1590.49,0.201931,388982,244342
1593.51,0.200156,380708,240124
1596.53,0.197870,372727,236331
1599.54,0.195981,365060,232479
1602.55,0.194552,357543,228442
1605.55,0.191475,349495,224888
1608.55,0.190137,341154,220198
1612.54,0.188869,330877,214189
1615.53,0.186583,322904,210131
1618.51,0.185940,315116,205367
1621.49,0.184861,307217,200717
1624.47,0.184306,299481,195913
1627.44,0.182732,292112,191786
1630.41,0.180868,284245,187424
1634.36,0.179629,274079,181237
1637.32,0.179318,266916,176627
1640.27,0.179332,259612,171788
1643.22,0.178570,251804,166914
1646.16,0.177680,244348,162304
1649.1,0.177619,236703,157248
1652.04,0.175763,228171,152229
1655.95,0.171675,215408,145073
1658.88,0.168212,204937,139126
1661.8,0.163627,193395,132684
1664.72,0.154218,179728,126008
1667.63,0.142635,163642,117831
1670.54,0.127710,146312,109036
1673.44,0.111570,128451,99350
1677.31,0.092423,105080,84937
1680.21,0.080369,88906,73886
1683.1,0.071761,75033,63605
1685.99,0.071701,63520,53853
1688.87,0.079799,53714,44698
1691.75,0.080819,45653,37901
1694.62,0.091542,39137,31699
1697.49,0.088156,33776,27571
1701.31,0.103413,28175,22205