File: samples/wool/wool-000811/Column 1_050570_20150331_120921.csv
Method:,Column 1,,
Host Date-Time:,31/3/15 @ 12:9:21,,
Header Version:,1,,
System Temp (C):,34.06,,
Detector Temp (C):,34.1,,
Humidity (%):,1.76,,
Lamp PD:,3818,,
Shift Vector Coefficients:,-10.5391,0.0761263,-0.000134223,,
Pixel to Wavelength Coefficients:,1775.68,-0.916766,-0.000235065,,
Serial Number:,5510004,,
Scan Config Name:,Column 1,,
Scan Config Type:,Slew,,
Section 1,,
Start wavelength (nm):,900,,
End wavelength (nm):,1700,,
Pattern Pixel Width (nm):,   7.03,,,,
Exposure (ms):,  0.635,,,,
Digital Resolution:,228,,
Num Repeats:,6,,
PGA Gain:,64,,
Total Measurement Time in sec:,  2.669,,
Wavelength (nm),Absorbance (AU),Reference Signal (unitless),Sample Signal (unitless)
901.51,0.033766,108485,100370
905.376,0.041126,121306,110346
909.237,0.042914,131909,119498
913.095,0.043957,143299,129505
916.948,0.045112,156982,141494
922.079,0.046534,179937,161654
925.923,0.048502,200504,179317
929.762,0.048730,222660,199027
933.597,0.049978,244426,217856
937.427,0.048800,263972,235916
941.254,0.047623,281845,252573
945.076,0.047003,297271,266778
950.165,0.046841,315605,283337
953.978,0.046087,328029,295002
957.786,0.046347,340470,306007
961.59,0.046963,352317,316206
965.389,0.046939,363056,325863
969.185,0.046389,373162,335358
972.976,0.047748,382632,342794
976.763,0.047884,391202,350362
981.806,0.048298,400190,358070
985.583,0.049541,406088,362309
989.355,0.049787,410162,365737
993.124,0.050334,412868,367686
996.888,0.050729,414263,368593
1000.65,0.051706,415476,368842
1004.4,0.052373,415479,368278
1009.41,0.054142,414358,365792
1013.15,0.055059,412923,363756
1016.89,0.054935,411526,362629
1020.63,0.054757,409066,360609
1024.36,0.054457,406777,358839
1028.09,0.054429,404427,356789
1031.82,0.054234,401911,354728
1036.78,0.053960,398410,351860
1040.49,0.053194,396204,350530
1044.2,0.053353,394236,348661
1047.91,0.053178,392042,346860
1051.61,0.052254,389823,345632
1055.31,0.052083,388234,344358
1059,0.051245,387599,344459
1063.92,0.050137,386688,344527
1067.61,0.049364,386598,345061
1071.29,0.048665,387377,346313
1074.96,0.048716,388536,347308
1078.63,0.048342,389855,348788
1082.3,0.046773,391215,351271
1085.96,0.046595,393215,353212
1090.84,0.045704,396270,356687
1094.49,0.044725,398760,359738
1098.14,0.044945,400987,361564
1101.79,0.044432,403477,364239
1105.43,0.044626,406116,366458
1109.06,0.043992,407701,368426
1112.7,0.043897,409859,370457
1117.53,0.044061,412494,372698
1121.15,0.045253,414909,373852
1124.77,0.045351,416559,375254
1128.38,0.047268,418532,375371
1131.99,0.048104,419956,375924
1135.6,0.049993,421946,376066
1139.2,0.051356,423881,376607
1143.99,0.054105,426786,376795
1147.58,0.055194,428617,377464
1151.17,0.056044,431169,378969
1154.75,0.057894,433579,379467
1158.33,0.059023,436264,380826
1161.91,0.060821,439132,381746
1165.48,0.063516,442389,382198
1169.04,0.066012,446101,383196
1173.79,0.070135,451929,384534
1177.34,0.072552,456026,385867
1180.9,0.074714,461306,388396
1184.44,0.076792,467657,391864
1187.99,0.077356,473969,396638
1191.52,0.077135,479856,401769
1195.06,0.076617,487372,408548
1199.76,0.076081,497347,417425
1203.29,0.074743,504311,424576
1206.81,0.074236,511507,431137
1210.33,0.073183,519078,438581
1213.84,0.072798,527163,445807
1217.35,0.072137,534208,452453
1220.85,0.071062,540472,458893
1225.51,0.070516,549929,467510
1229.01,0.069844,556888,474159
1232.5,0.069226,562180,479346
1235.98,0.068852,567975,484705
1239.46,0.067657,574815,491894
1242.94,0.066596,582782,499931
1246.41,0.065902,591476,508201
1251.03,0.065715,604016,519199
1254.5,0.066003,612289,525961
1257.96,0.066139,619125,531667
1261.41,0.067010,624551,535252
1264.86,0.067546,629900,539170
1268.31,0.068204,634345,542152
1271.75,0.068651,638574,545206
1276.33,0.068834,642499,548325
1279.76,0.068677,645905,551431
1283.19,0.068298,648307,553966
1286.61,0.068165,650446,555964
1290.03,0.067729,652132,557965
1293.44,0.067249,653907,560102
1296.85,0.067212,655963,561911
1301.39,0.066612,657349,563876
1304.8,0.066686,657558,563960
1308.19,0.067064,658515,564289
1311.58,0.067047,658804,564559
1314.97,0.067590,659011,564031
1318.36,0.068176,658272,562639
1321.73,0.068431,658022,562095
1326.23,0.069193,657870,560979
1329.6,0.069917,656482,558863
1332.97,0.070957,654926,556205
1336.33,0.072327,653727,553439
1339.69,0.074100,652497,550147
1343.04,0.075501,649913,546203
1346.39,0.078144,647671,541017
1349.73,0.080030,645338,536732
1354.18,0.083070,641175,529550
1357.52,0.085589,638376,524188
1360.85,0.087821,635805,519401
1364.17,0.090212,633413,514606
1367.49,0.092389,631026,510103
1370.81,0.094735,628050,504963
1374.12,0.097279,625034,499602
1378.54,0.100589,620272,492032
1381.84,0.103779,616892,485769
1385.14,0.107365,613613,479214
1388.43,0.111922,611526,472599
1391.72,0.116830,610663,466629
1395.01,0.121199,610634,461936
1398.29,0.126523,611700,457105
1402.66,0.133602,614051,451443
1405.93,0.139072,616268,447402
1409.2,0.144566,617795,442872
1412.46,0.149391,618872,438743
1415.72,0.153753,619795,435006
1418.98,0.158178,620495,431082
1422.23,0.161314,621087,428389
1426.56,0.165594,621375,424385
1429.8,0.168357,621616,421857
1433.04,0.171520,622129,419141
1436.27,0.174047,621526,416306
1439.5,0.176318,621113,413859
1442.72,0.178402,620921,411751
1445.94,0.180982,620270,408883
1450.23,0.184674,618860,404500
1453.44,0.187460,617697,401158
1456.64,0.190912,616264,397059
1459.85,0.193714,614413,393320
1463.04,0.196591,612307,389384
1466.24,0.200083,610032,384831
1469.43,0.203353,607345,380262
1473.67,0.209720,603789,372533
1476.85,0.216055,601175,365549
1480.02,0.221154,597737,359216
1483.19,0.228883,594479,350957
1486.36,0.235099,591232,344080
1489.52,0.240007,587853,338269
1492.68,0.243987,583875,332915
1496.89,0.246843,578062,327440
1500.03,0.247155,574159,324995
1503.18,0.247480,570285,322561
1506.32,0.246530,565444,320523
1509.45,0.244062,560571,319572
1512.58,0.243451,555821,317310
1515.71,0.241053,550344,315923
1519.87,0.238241,543983,314300
1522.99,0.235088,538764,313553
1526.1,0.232014,533692,312807
1529.21,0.229684,527902,311078
1532.32,0.225778,521886,310311
1535.42,0.223245,515888,308539
1538.51,0.220009,509987,307291
1541.6,0.216550,503936,306073
1545.72,0.212284,494694,303426
1548.8,0.209070,488378,301777
1551.88,0.206936,481832,299199
1554.95,0.203703,474989,297153
1558.02,0.202571,467818,293431
1561.08,0.201141,460730,289938
1564.15,0.200884,454170,285979
1568.22,0.199378,444181,280661
1571.27,0.198889,436947,276401
1574.32,0.197881,429598,272384
1577.36,0.196947,422039,268167
1580.4,0.195441,414375,264212
1583.43,0.193626,406354,260183
1586.46,0.191795,398475,256216
1590.49,0.189127,388982,251653
1593.51,0.187610,380708,247162
1596.53,0.185022,372727,243427
1599.54,0.183280,365060,239378
1602.55,0.180289,357543,236069
1605.55,0.179205,349495,231332
1608.55,0.176833,341154,227048
1612.54,0.173848,330877,221727
1615.53,0.171638,322904,217488
1618.51,0.171242,315116,212436
1621.49,0.169033,307217,208167
1624.47,0.167700,299481,203549
1627.44,0.167752,292112,198517
1630.41,0.166037,284245,193935
1634.36,0.164930,274079,187476
1637.32,0.163452,266916,183199
1640.27,0.162305,259612,178657
1643.22,0.162723,251804,173117
1646.16,0.161265,244348,168556
1649.1,0.160232,236703,163671
1652.04,0.159669,228171,157976
1655.95,0.155226,215408,150673
1658.88,0.151326,204937,144642
1661.8,0.147149,193395,137815
1664.72,0.142490,179728,129457
1667.63,0.130769,163642,121095
1670.54,0.116842,146312,111799
1673.44,0.103094,128451,101308
1677.31,0.088200,105080,85767
1680.21,0.077586,88906,74361
1683.1,0.076063,75033,62978
1685.99,0.077963,63520,53082
1688.87,0.080003,53714,44677
1691.75,0.085334,45653,37509
1694.62,0.086841,39137,32044
1697.49,0.098340,33776,26932
1701.31,0.099480,28175,22407