File: samples/wool/wool-000811/Column 1_050574_20150331_121120.csv
Method:,Column 1,,
Host Date-Time:,31/3/15 @ 12:11:20,,
Header Version:,1,,
System Temp (C):,34.17,,
Detector Temp (C):,34.36,,
Humidity (%):,1.66,,
Lamp PD:,3818,,
Shift Vector Coefficients:,-10.5391,0.0761263,-0.000134223,,
Pixel to Wavelength Coefficients:,1775.68,-0.916766,-0.000235065,,
Serial Number:,5510004,,
Scan Config Name:,Column 1,,
Scan Config Type:,Slew,,
Section 1,,
Start wavelength (nm):,900,,
End wavelength (nm):,1700,,
Pattern Pixel Width (nm):,   7.03,,,,
Exposure (ms):,  0.635,,,,
Digital Resolution:,228,,
Num Repeats:,6,,
PGA Gain:,64,,
Total Measurement Time in sec:,  2.673,,
Wavelength (nm),Absorbance (AU),Reference Signal (unitless),Sample Signal (unitless)
901.51,0.034554,108485,100188
905.376,0.042008,121306,110122
909.237,0.044432,131909,119081
913.095,0.044420,143299,129367
916.948,0.045382,156982,141406
922.079,0.047995,179937,161111
925.923,0.048303,200504,179399
929.762,0.050287,222660,198315
933.597,0.050201,244426,217744
937.427,0.048955,263972,235832
941.254,0.048267,281845,252199
945.076,0.047288,297271,266603
950.165,0.046922,315605,283284
953.978,0.045791,328029,295203
957.786,0.046715,340470,305748
961.59,0.046561,352317,316499
965.389,0.046522,363056,326176
969.185,0.047047,373162,334850
972.976,0.047590,382632,342919
976.763,0.048064,391202,350217
981.806,0.048403,400190,357984
985.583,0.049286,406088,362522
989.355,0.049446,410162,366024
993.124,0.049689,412868,368233
996.888,0.051059,414263,368313
1000.65,0.051593,415476,368938
1004.4,0.053294,415479,367498
1009.41,0.053925,414358,365974
1013.15,0.054745,412923,364019
1016.89,0.055475,411526,362178
1020.63,0.055508,409066,359986
1024.36,0.055074,406777,358329
1028.09,0.054587,404427,356659
1031.82,0.054629,401911,354406
1036.78,0.053952,398410,351867
1040.49,0.053656,396204,350157
1044.2,0.053438,394236,348593
1047.91,0.052807,392042,347157
1051.61,0.051970,389823,345858
1055.31,0.052343,388234,344152
1059,0.051180,387599,344511
1063.92,0.050177,386688,344496
1067.61,0.049288,386598,345121
1071.29,0.049318,387377,345793
1074.96,0.048792,388536,347248
1078.63,0.048048,389855,349024
1082.3,0.047163,391215,350956
1085.96,0.046732,393215,353100
1090.84,0.045874,396270,356547
1094.49,0.045389,398760,359189
1098.14,0.045008,400987,361512
1101.79,0.044600,403477,364098
1105.43,0.044761,406116,366344
1109.06,0.043777,407701,368608
1112.7,0.043581,409859,370726
1117.53,0.044244,412494,372541
1121.15,0.044894,414909,374161
1124.77,0.045417,416559,375197
1128.38,0.046406,418532,376117
1131.99,0.047771,419956,376212
1135.6,0.049680,421946,376337
1139.2,0.051673,423881,376332
1143.99,0.053640,426786,377199
1147.58,0.055021,428617,377614
1151.17,0.056129,431169,378895
1154.75,0.057573,433579,379748
1158.33,0.059043,436264,380808
1161.91,0.061439,439132,381203
1165.48,0.063181,442389,382493
1169.04,0.066208,446101,383023
1173.79,0.069553,451929,385050
1177.34,0.071984,456026,386372
1180.9,0.074537,461306,388555
1184.44,0.076213,467657,392387
1187.99,0.077210,473969,396771
1191.52,0.077063,479856,401835
1195.06,0.076975,487372,408212
1199.76,0.075853,497347,417644
1203.29,0.074739,504311,424580
1206.81,0.074478,511507,430897
1210.33,0.073697,519078,438062
1213.84,0.072550,527163,446062
1217.35,0.071805,534208,452799
1220.85,0.071019,540472,458938
1225.51,0.069972,549929,468096
1229.01,0.069603,556888,474422
1232.5,0.068970,562180,479629
1235.98,0.068395,567975,485215
1239.46,0.067207,574815,492403
1242.94,0.066079,582782,500526
1246.41,0.065463,591476,508715
1251.03,0.065486,604016,519472
1254.5,0.065727,612289,526295
1257.96,0.066410,619125,531335
1261.41,0.066662,624551,535680
1264.86,0.067633,629900,539062
1268.31,0.067989,634345,542421
1271.75,0.068731,638574,545105
1276.33,0.068945,642499,548186
1279.76,0.068726,645905,551369
1283.19,0.068323,648307,553934
1286.61,0.068400,650446,555663
1290.03,0.067752,652132,557935
1293.44,0.066993,653907,560432
1296.85,0.066864,655963,562361
1301.39,0.066890,657349,563516
1304.8,0.066816,657558,563791
1308.19,0.066784,658515,564653
1311.58,0.067118,658804,564467
1314.97,0.067267,659011,564450
1318.36,0.068007,658272,562857
1321.73,0.067868,658022,562824
1326.23,0.069209,657870,560959
1329.6,0.069681,656482,559168
1332.97,0.070853,654926,556339
1336.33,0.072187,653727,553617
1339.69,0.073850,652497,550463
1343.04,0.075461,649913,546254
1346.39,0.077673,647671,541604
1349.73,0.079553,645338,537322
1354.18,0.082810,641175,529867
1357.52,0.084820,638376,525118
1360.85,0.087500,635805,519785
1364.17,0.089761,633413,515141
1367.49,0.092001,631026,510559
1370.81,0.094767,628050,504925
1374.12,0.096874,625034,500069
1378.54,0.100054,620272,492638
1381.84,0.103022,616892,486617
1385.14,0.107032,613613,479582
1388.43,0.111733,611526,472805
1391.72,0.115583,610663,467971
1395.01,0.120460,610634,462723
1398.29,0.125254,611700,458442
1402.66,0.132104,614051,453002
1405.93,0.137987,616268,448521
1409.2,0.143459,617795,444002
1412.46,0.148308,618872,439838
1415.72,0.152407,619795,436356
1418.98,0.156485,620495,432766
1422.23,0.159958,621087,429729
1426.56,0.164222,621375,425728
1429.8,0.166788,621616,423384
1433.04,0.170040,622129,420572
1436.27,0.172248,621526,418034
1439.5,0.173721,621113,416341
1442.72,0.176605,620921,413458
1445.94,0.179121,620270,410639
1450.23,0.182719,618860,406325
1453.44,0.185870,617697,402629
1456.64,0.189017,616264,398795
1459.85,0.192115,614413,394771
1463.04,0.194673,612307,391108
1466.24,0.198276,610032,386435
1469.43,0.202457,607345,381047
1473.67,0.208892,603789,373244
1476.85,0.214914,601175,366511
1480.02,0.221239,597737,359146
1483.19,0.228185,594479,351521
1486.36,0.234193,591232,344798
1489.52,0.239601,587853,338585
1492.68,0.243718,583875,333121
1496.89,0.246197,578062,327927
1500.03,0.246418,574159,325547
1503.18,0.246552,570285,323251
1506.32,0.246352,565444,320655
1509.45,0.244390,560571,319331
1512.58,0.241989,555821,318380
1515.71,0.240758,550344,316138
1519.87,0.237796,543983,314622
1522.99,0.234466,538764,314002
1526.1,0.231637,533692,313079
1529.21,0.228563,527902,311882
1532.32,0.225517,521886,310498
1535.42,0.222790,515888,308863
1538.51,0.219243,509987,307834
1541.6,0.216282,503936,306262
1545.72,0.211269,494694,304136
1548.8,0.208653,488378,302067
1551.88,0.205615,481832,300110
1554.95,0.203579,474989,297238
1558.02,0.201523,467818,294140
1561.08,0.200469,460730,290387
1564.15,0.200329,454170,286345
1568.22,0.199073,444181,280858
1571.27,0.198145,436947,276875
1574.32,0.197337,429598,272725
1577.36,0.195332,422039,269166
1580.4,0.194646,414375,264696
1583.43,0.192356,406354,260945
1586.46,0.191144,398475,256600
1590.49,0.188719,388982,251890
1593.51,0.186685,380708,247689
1596.53,0.184261,372727,243854
1599.54,0.181498,365060,240362
1602.55,0.179730,357543,236373
1605.55,0.178309,349495,231810
1608.55,0.176017,341154,227475
1612.54,0.173613,330877,221847
1615.53,0.171371,322904,217622
1618.51,0.170107,315116,212992
1621.49,0.168645,307217,208353
1624.47,0.167769,299481,203517
1627.44,0.166487,292112,199096
1630.41,0.165558,284245,194149
1634.36,0.164687,274079,187581
1637.32,0.163011,266916,183385
1640.27,0.161870,259612,178836
1643.22,0.161285,251804,173691
1646.16,0.160729,244348,168764
1649.1,0.160089,236703,163725
1652.04,0.158401,228171,158438
1655.95,0.154622,215408,150883
1658.88,0.152246,204937,144336
1661.8,0.147590,193395,137675
1664.72,0.141796,179728,129664
1667.63,0.129905,163642,121336
1670.54,0.115450,146312,112158
1673.44,0.101835,128451,101602
1677.31,0.084966,105080,86408
1680.21,0.074542,88906,74884
1683.1,0.070990,75033,63718
1685.99,0.073316,63520,53653
1688.87,0.077087,53714,44978
1691.75,0.081392,45653,37851
1694.62,0.087723,39137,31979
1697.49,0.091349,33776,27369
1701.31,0.097546,28175,22507