File: samples/wool/wool-000811/Column 1_050619_20150331_123248.csv
Method:,Column 1,,
Host Date-Time:,31/3/15 @ 12:32:48,,
Header Version:,1,,
System Temp (C):,34.11,,
Detector Temp (C):,35,,
Humidity (%):,1.66,,
Lamp PD:,3818,,
Shift Vector Coefficients:,-10.5391,0.0761263,-0.000134223,,
Pixel to Wavelength Coefficients:,1775.68,-0.916766,-0.000235065,,
Serial Number:,5510004,,
Scan Config Name:,Column 1,,
Scan Config Type:,Slew,,
Section 1,,
Start wavelength (nm):,900,,
End wavelength (nm):,1700,,
Pattern Pixel Width (nm):,   7.03,,,,
Exposure (ms):,  0.635,,,,
Digital Resolution:,228,,
Num Repeats:,6,,
PGA Gain:,64,,
Total Measurement Time in sec:,  2.680,,
Wavelength (nm),Absorbance (AU),Reference Signal (unitless),Sample Signal (unitless)
901.51,0.068506,108485,92654
905.376,0.073209,121306,102488
909.237,0.076245,131909,110670
913.095,0.078341,143299,119647
916.948,0.078181,156982,131120
922.079,0.079878,179937,149707
925.923,0.080988,200504,166393
929.762,0.081999,222660,184350
933.597,0.081707,244426,202507
937.427,0.080276,263972,219423
941.254,0.079749,281845,234564
945.076,0.078932,297271,247868
950.165,0.078647,315605,263328
953.978,0.077036,328029,274711
957.786,0.076832,340470,285264
961.59,0.077391,352317,294810
965.389,0.077752,363056,303544
969.185,0.076913,373162,312597
972.976,0.077449,382632,320134
976.763,0.078475,391202,326532
981.806,0.078815,400190,333773
985.583,0.079787,406088,337935
989.355,0.079388,410162,341639
993.124,0.079835,412868,343539
996.888,0.080589,414263,344102
1000.65,0.081149,415476,344665
1004.4,0.082894,415479,343285
1009.41,0.083233,414358,342092
1013.15,0.084195,412923,340153
1016.89,0.085117,411526,338283
1020.63,0.083933,409066,337179
1024.36,0.084096,406777,335166
1028.09,0.084571,404427,332866
1031.82,0.084511,401911,330841
1036.78,0.083709,398410,328565
1040.49,0.083242,396204,327097
1044.2,0.083331,394236,325406
1047.91,0.083598,392042,323396
1051.61,0.082883,389823,322095
1055.31,0.082756,388234,320876
1059,0.081677,387599,321148
1063.92,0.081924,386688,320211
1067.61,0.080853,386598,320927
1071.29,0.080019,387377,322192
1074.96,0.079446,388536,323583
1078.63,0.079247,389855,324830
1082.3,0.077893,391215,326981
1085.96,0.077307,393215,329096
1090.84,0.076389,396270,332355
1094.49,0.075973,398760,334764
1098.14,0.075453,400987,337037
1101.79,0.075053,403477,339442
1105.43,0.074656,406116,341975
1109.06,0.072931,407701,344676
1112.7,0.073722,409859,345870
1117.53,0.072882,412494,348767
1121.15,0.072984,414909,350727
1124.77,0.073659,416559,351575
1128.38,0.075089,418532,352079
1131.99,0.075414,419956,353012
1135.6,0.076734,421946,353609
1139.2,0.078041,423881,354163
1143.99,0.080244,426786,354786
1147.58,0.080981,428617,355704
1151.17,0.082047,431169,356944
1154.75,0.083129,433579,358046
1158.33,0.084279,436264,359311
1161.91,0.086434,439132,359883
1165.48,0.087539,442389,361631
1169.04,0.089856,446101,362725
1173.79,0.094018,451929,363959
1177.34,0.095860,456026,365704
1180.9,0.097732,461306,368347
1184.44,0.099576,467657,371836
1187.99,0.100495,473969,376058
1191.52,0.100243,479856,380950
1195.06,0.100677,487372,386530
1199.76,0.100124,497347,394944
1203.29,0.099359,504311,401180
1206.81,0.098856,511507,407376
1210.33,0.098145,519078,414083
1213.84,0.097169,527163,421479
1217.35,0.097084,534208,427195
1220.85,0.095725,540472,433559
1225.51,0.095518,549929,441356
1229.01,0.094959,556888,447516
1232.5,0.094238,562180,452520
1235.98,0.093662,567975,457791
1239.46,0.092547,574815,464495
1242.94,0.092199,582782,471310
1246.41,0.091443,591476,479175
1251.03,0.091445,604016,489332
1254.5,0.091304,612289,496195
1257.96,0.091923,619125,501020
1261.41,0.092055,624551,505258
1264.86,0.092919,629900,508572
1268.31,0.093246,634345,511775
1271.75,0.093913,638574,514397
1276.33,0.094277,642499,517125
1279.76,0.094352,645905,519777
1283.19,0.093326,648307,522944
1286.61,0.093193,650446,524829
1290.03,0.092744,652132,526734
1293.44,0.092133,653907,528911
1296.85,0.091957,655963,530790
1301.39,0.091683,657349,532247
1304.8,0.091390,657558,532775
1308.19,0.091974,658515,532834
1311.58,0.092182,658804,532812
1314.97,0.092209,659011,532946
1318.36,0.092701,658272,531746
1321.73,0.092608,658022,531658
1326.23,0.094040,657870,529785
1329.6,0.094611,656482,527973
1332.97,0.095661,654926,525450
1336.33,0.096101,653727,523957
1339.69,0.097644,652497,521116
1343.04,0.099288,649913,517091
1346.39,0.101053,647671,513217
1349.73,0.103238,645338,508803
1354.18,0.105663,641175,502706
1357.52,0.108051,638376,497766
1360.85,0.109654,635805,493935
1364.17,0.111488,633413,490003
1367.49,0.114093,631026,485237
1370.81,0.116513,628050,480265
1374.12,0.118421,625034,475864
1378.54,0.121225,620272,469199
1381.84,0.123754,616892,463933
1385.14,0.126838,613613,458202
1388.43,0.130312,611526,453005
1391.72,0.134256,610663,448276
1395.01,0.138315,610634,444085
1398.29,0.142196,611700,440902
1402.66,0.148343,614051,436377
1405.93,0.152974,616268,433307
1409.2,0.157511,617795,429866
1412.46,0.161533,618872,426646
1415.72,0.165782,619795,423122
1418.98,0.168826,620495,420642
1422.23,0.171800,621087,418170
1426.56,0.176240,621375,414108
1429.8,0.178382,621616,412231
1433.04,0.180959,622129,410130
1436.27,0.183058,621526,407757
1439.5,0.184986,621113,405681
1442.72,0.187725,620921,403006
1445.94,0.189988,620270,400491
1450.23,0.193265,618860,396577
1453.44,0.196795,617697,392627
1456.64,0.199109,616264,389635
1459.85,0.202211,614413,385700
1463.04,0.205070,612307,381856
1466.24,0.208201,610032,377704
1469.43,0.212229,607345,372569
1473.67,0.219096,603789,364577
1476.85,0.225038,601175,358066
1480.02,0.230564,597737,351517
1483.19,0.237400,594479,344141
1486.36,0.243364,591232,337593
1489.52,0.248561,587853,331671
1492.68,0.251419,583875,327266
1496.89,0.253622,578062,322368
1500.03,0.254568,574159,319495
1503.18,0.254164,570285,317635
1506.32,0.253715,565444,315264
1509.45,0.252375,560571,313513
1512.58,0.251110,555821,311763
1515.71,0.248159,550344,310796
1519.87,0.244758,543983,309619
1522.99,0.242356,538764,308349
1526.1,0.240183,533692,306978
1529.21,0.237710,527902,305382
1532.32,0.234221,521886,304337
1535.42,0.232219,515888,302229
1538.51,0.228750,509987,301168
1541.6,0.224879,503936,300259
1545.72,0.221275,494694,297209
1548.8,0.218896,488378,295026
1551.88,0.216221,481832,292870
1554.95,0.215604,474989,289121
1558.02,0.213011,467818,286461
1561.08,0.212214,460730,282639
1564.15,0.211779,454170,278894
1568.22,0.210460,444181,273590
1571.27,0.209105,436947,269975
1574.32,0.209536,429598,265171
1577.36,0.207690,422039,261615
1580.4,0.206542,414375,257544
1583.43,0.204865,406354,253536
1586.46,0.204026,398475,249101
1590.49,0.202282,388982,244145
1593.51,0.200949,380708,239686
1596.53,0.198514,372727,235981
1599.54,0.196179,365060,232373
1602.55,0.194262,357543,228595
1605.55,0.191353,349495,224951
1608.55,0.190228,341154,220152
1612.54,0.188300,330877,214470
1615.53,0.186108,322904,210361
1618.51,0.185369,315116,205637
1621.49,0.183558,307217,201320
1624.47,0.184022,299481,196041
1627.44,0.182364,292112,191949
1630.41,0.181526,284245,187140
1634.36,0.180540,274079,180857
1637.32,0.179273,266916,176645
1640.27,0.178549,259612,172098
1643.22,0.177946,251804,167154
1646.16,0.176907,244348,162593
1649.1,0.175670,236703,157955
1652.04,0.174669,228171,152613
1655.95,0.171418,215408,145159
1658.88,0.168078,204937,139169
1661.8,0.162368,193395,133069
1664.72,0.154604,179728,125896
1667.63,0.142197,163642,117950
1670.54,0.128487,146312,108841
1673.44,0.109429,128451,99841
1677.31,0.089062,105080,85597
1680.21,0.079336,88906,74062
1683.1,0.073458,75033,63357
1685.99,0.074662,63520,53487
1688.87,0.077319,53714,44954
1691.75,0.075976,45653,38326
1694.62,0.077297,39137,32756
1697.49,0.088550,33776,27546
1701.31,0.095314,28175,22623