File: samples/wool/wool-000811/Column 1_050576_20150331_121226.csv
Method:,Column 1,,
Host Date-Time:,31/3/15 @ 12:12:26,,
Header Version:,1,,
System Temp (C):,33.83,,
Detector Temp (C):,34.67,,
Humidity (%):,2.54,,
Lamp PD:,3818,,
Shift Vector Coefficients:,-10.5391,0.0761263,-0.000134223,,
Pixel to Wavelength Coefficients:,1775.68,-0.916766,-0.000235065,,
Serial Number:,5510004,,
Scan Config Name:,Column 1,,
Scan Config Type:,Slew,,
Section 1,,
Start wavelength (nm):,900,,
End wavelength (nm):,1700,,
Pattern Pixel Width (nm):,   7.03,,,,
Exposure (ms):,  0.635,,,,
Digital Resolution:,228,,
Num Repeats:,6,,
PGA Gain:,64,,
Total Measurement Time in sec:,  2.682,,
Wavelength (nm),Absorbance (AU),Reference Signal (unitless),Sample Signal (unitless)
901.51,0.071690,108485,91977
905.376,0.079630,121306,100984
909.237,0.078629,131909,110064
913.095,0.081935,143299,118661
916.948,0.082492,156982,129825
922.079,0.083002,179937,148634
925.923,0.083748,200504,165339
929.762,0.085823,222660,182734
933.597,0.085031,244426,200963
937.427,0.083295,263972,217903
941.254,0.084098,281845,232227
945.076,0.082511,297271,245834
950.165,0.082402,315605,261061
953.978,0.081118,328029,272141
957.786,0.081488,340470,282222
961.59,0.081200,352317,292236
965.389,0.081096,363056,301216
969.185,0.081593,373162,309246
972.976,0.081619,382632,317075
976.763,0.082387,391202,323604
981.806,0.082251,400190,331143
985.583,0.083531,406088,335034
989.355,0.084374,410162,337739
993.124,0.084187,412868,340114
996.888,0.084749,414263,340822
1000.65,0.085804,415476,340990
1004.4,0.087057,415479,340010
1009.41,0.087936,414358,338407
1013.15,0.088055,412923,337143
1016.89,0.088261,411526,335843
1020.63,0.088290,409066,333813
1024.36,0.088862,406777,331508
1028.09,0.088109,404427,330165
1031.82,0.088492,401911,327822
1036.78,0.088194,398410,325189
1040.49,0.088132,396204,323435
1044.2,0.087961,394236,321955
1047.91,0.087944,392042,320176
1051.61,0.087222,389823,318893
1055.31,0.087225,388234,317591
1059,0.086514,387599,317591
1063.92,0.085893,386688,317298
1067.61,0.084718,386598,318084
1071.29,0.084688,387377,318747
1074.96,0.084340,388536,319957
1078.63,0.084117,389855,321208
1082.3,0.082709,391215,323375
1085.96,0.082231,393215,325386
1090.84,0.081148,396270,328733
1094.49,0.080724,398760,331122
1098.14,0.080501,400987,333142
1101.79,0.079443,403477,336028
1105.43,0.079511,406116,338173
1109.06,0.078703,407701,340125
1112.7,0.078367,409859,342190
1117.53,0.078336,412494,344415
1121.15,0.079269,414909,345688
1124.77,0.078695,416559,347521
1128.38,0.079670,418532,348384
1131.99,0.080858,419956,348615
1135.6,0.082331,421946,349081
1139.2,0.084154,423881,349213
1143.99,0.085993,426786,350120
1147.58,0.087061,428617,350759
1151.17,0.088312,431169,351832
1154.75,0.088694,433579,353488
1158.33,0.090216,436264,354432
1161.91,0.092379,439132,354990
1165.48,0.094661,442389,355749
1169.04,0.096749,446101,357013
1173.79,0.099620,451929,359294
1177.34,0.101537,456026,360955
1180.9,0.104248,461306,362862
1184.44,0.105839,467657,366512
1187.99,0.106368,473969,371007
1191.52,0.106539,479856,375467
1195.06,0.106581,487372,381311
1199.76,0.105489,497347,390095
1203.29,0.104969,504311,396031
1206.81,0.104596,511507,402027
1210.33,0.103716,519078,408805
1213.84,0.103421,527163,415455
1217.35,0.103113,534208,421306
1220.85,0.102410,540472,426936
1225.51,0.101547,549929,435271
1229.01,0.101024,556888,441310
1232.5,0.100345,562180,446201
1235.98,0.100363,567975,450782
1239.46,0.098516,574815,458155
1242.94,0.097650,582782,465432
1246.41,0.097322,591476,472732
1251.03,0.097247,604016,482838
1254.5,0.097552,612289,489108
1257.96,0.098283,619125,493737
1261.41,0.098446,624551,497877
1264.86,0.099011,629900,501488
1268.31,0.099330,634345,504656
1271.75,0.100180,638574,507027
1276.33,0.100321,642499,509978
1279.76,0.100647,645905,512297
1283.19,0.099879,648307,515112
1286.61,0.099157,650446,517671
1290.03,0.099156,652132,519014
1293.44,0.098812,653907,520840
1296.85,0.098416,655963,522954
1301.39,0.097895,657349,524688
1304.8,0.098369,657558,524282
1308.19,0.098777,658515,524552
1311.58,0.098740,658804,524827
1314.97,0.099503,659011,524070
1318.36,0.099601,658272,523365
1321.73,0.100011,658022,522672
1326.23,0.100987,657870,521379
1329.6,0.102060,656482,518994
1332.97,0.103100,654926,516526
1336.33,0.104651,653727,513743
1339.69,0.105956,652497,511237
1343.04,0.108062,649913,506749
1346.39,0.109652,647671,503156
1349.73,0.111988,645338,498654
1354.18,0.114824,641175,492212
1357.52,0.116903,638376,487723
1360.85,0.118584,635805,483883
1364.17,0.120796,633413,479613
1367.49,0.123222,631026,475144
1370.81,0.125454,628050,470479
1374.12,0.127483,625034,466037
1378.54,0.131043,620272,458711
1381.84,0.134913,616892,452164
1385.14,0.138339,613613,446227
1388.43,0.142833,611526,440131
1391.72,0.147696,610663,434616
1395.01,0.152794,610634,429524
1398.29,0.158798,611700,424366
1402.66,0.166873,614051,418149
1405.93,0.172870,616268,413904
1409.2,0.178414,617795,409666
1412.46,0.183848,618872,405278
1415.72,0.189096,619795,401007
1418.98,0.193045,620495,397826
1422.23,0.197082,621087,394521
1426.56,0.201354,621375,390841
1429.8,0.204291,621616,388357
1433.04,0.207240,622129,386047
1436.27,0.209543,621526,383633
1439.5,0.211796,621113,381395
1442.72,0.213851,620921,379477
1445.94,0.216523,620270,376754
1450.23,0.219497,618860,373332
1453.44,0.222088,617697,370414
1456.64,0.224954,616264,367124
1459.85,0.227016,614413,364288
1463.04,0.229918,612307,360621
1466.24,0.232495,610032,357156
1469.43,0.235218,607345,353360
1473.67,0.240318,603789,347190
1476.85,0.243982,601175,342783
1480.02,0.249223,597737,336734
1483.19,0.254647,594479,330742
1486.36,0.259219,591232,325491
1489.52,0.262810,587853,320966
1492.68,0.266325,583875,316224
1496.89,0.267465,578062,312255
1500.03,0.267969,574159,309787
1503.18,0.268161,570285,307561
1506.32,0.267073,565444,305715
1509.45,0.266410,560571,303543
1512.58,0.264467,555821,302321
1515.71,0.262706,550344,300558
1519.87,0.259387,543983,299363
1522.99,0.257095,538764,298060
1526.1,0.255442,533692,296380
1529.21,0.251664,527902,295726
1532.32,0.249392,521886,293889
1535.42,0.246474,515888,292470
1538.51,0.244373,509987,290527
1541.6,0.240580,503936,289598
1545.72,0.237033,494694,286618
1548.8,0.234231,488378,284790
1551.88,0.231836,481832,282527
1554.95,0.229425,474989,280065
1558.02,0.228584,467818,276371
1561.08,0.226445,460730,273528
1564.15,0.225871,454170,269990
1568.22,0.224119,444181,265119
1571.27,0.224279,436947,260705
1574.32,0.222496,429598,257375
1577.36,0.221572,422039,253385
1580.4,0.219791,414375,249806
1583.43,0.218356,406354,245781
1586.46,0.217141,398475,241691
1590.49,0.215183,388982,236999
1593.51,0.212326,380708,233489
1596.53,0.211053,372727,229265
1599.54,0.208948,365060,225640
1602.55,0.207437,357543,221764
1605.55,0.205218,349495,217883
1608.55,0.203262,341154,213643
1612.54,0.201155,330877,208215
1615.53,0.198401,322904,204490
1618.51,0.197745,315116,199860
1621.49,0.197163,307217,195111
1624.47,0.195994,299481,190711
1627.44,0.195145,292112,186382
1630.41,0.194202,284245,181757
1634.36,0.192089,274079,176111
1637.32,0.191114,266916,171894
1640.27,0.190860,259612,167288
1643.22,0.189897,251804,162617
1646.16,0.189052,244348,158109
1649.1,0.187957,236703,153549
1652.04,0.186572,228171,148487
1655.95,0.183258,215408,141255
1658.88,0.179396,204937,135589
1661.8,0.173509,193395,129699
1664.72,0.167101,179728,122325
1667.63,0.154562,163642,114639
1670.54,0.141945,146312,105520
1673.44,0.124629,128451,96407
1677.31,0.104356,105080,82635
1680.21,0.095458,88906,71363
1683.1,0.088806,75033,61157
1685.99,0.091382,63520,51467
1688.87,0.097772,53714,42886
1691.75,0.100581,45653,36215
1694.62,0.110271,39137,30361
1697.49,0.107284,33776,26383
1701.31,0.128949,28175,20937