File: samples/wool/wool-000811/Column 1_050558_20150331_120339.csv
Method:,Column 1,,
Host Date-Time:,31/3/15 @ 12:3:39,,
Header Version:,1,,
System Temp (C):,33.6,,
Detector Temp (C):,32.94,,
Humidity (%):,2.25,,
Lamp PD:,3819,,
Shift Vector Coefficients:,-10.5391,0.0761263,-0.000134223,,
Pixel to Wavelength Coefficients:,1775.68,-0.916766,-0.000235065,,
Serial Number:,5510004,,
Scan Config Name:,Column 1,,
Scan Config Type:,Slew,,
Section 1,,
Start wavelength (nm):,900,,
End wavelength (nm):,1700,,
Pattern Pixel Width (nm):,   7.03,,,,
Exposure (ms):,  0.635,,,,
Digital Resolution:,228,,
Num Repeats:,6,,
PGA Gain:,64,,
Total Measurement Time in sec:,  2.679,,
Wavelength (nm),Absorbance (AU),Reference Signal (unitless),Sample Signal (unitless)
901.51,0.033359,108485,100464
905.376,0.040343,121306,110545
909.237,0.042790,131909,119532
913.095,0.043256,143299,129714
916.948,0.043867,156982,141900
922.079,0.044818,179937,162294
925.923,0.047331,200504,179801
929.762,0.047197,222660,199731
933.597,0.046938,244426,219386
937.427,0.046659,263972,237082
941.254,0.046928,281845,252978
945.076,0.045915,297271,267447
950.165,0.046862,315605,283323
953.978,0.045156,328029,295635
957.786,0.045932,340470,306300
961.59,0.045984,352317,316920
965.389,0.046603,363056,326115
969.185,0.046714,373162,335107
972.976,0.046479,382632,343797
976.763,0.047397,391202,350755
981.806,0.047882,400190,358413
985.583,0.049233,406088,362566
989.355,0.049568,410162,365921
993.124,0.050041,412868,367934
996.888,0.050610,414263,368694
1000.65,0.050943,415476,369490
1004.4,0.052947,415479,367792
1009.41,0.054096,414358,365830
1013.15,0.054063,412923,364591
1016.89,0.055461,411526,362190
1020.63,0.054787,409066,360584
1024.36,0.054419,406777,358870
1028.09,0.054678,404427,356584
1031.82,0.055068,401911,354048
1036.78,0.053548,398410,352194
1040.49,0.053025,396204,350666
1044.2,0.053251,394236,348743
1047.91,0.052988,392042,347012
1051.61,0.052706,389823,345272
1055.31,0.051462,388234,344851
1059,0.051444,387599,344301
1063.92,0.050602,386688,344159
1067.61,0.048960,386598,345382
1071.29,0.048572,387377,346387
1074.96,0.048594,388536,347406
1078.63,0.047931,389855,349118
1082.3,0.047181,391215,350941
1085.96,0.046774,393215,353066
1090.84,0.045697,396270,356693
1094.49,0.045473,398760,359119
1098.14,0.045173,400987,361374
1101.79,0.044470,403477,364207
1105.43,0.044515,406116,366552
1109.06,0.044243,407701,368213
1112.7,0.044609,409859,369850
1117.53,0.044430,412494,372381
1121.15,0.045065,414909,374014
1124.77,0.045374,416559,375234
1128.38,0.046418,418532,376106
1131.99,0.048462,419956,375614
1135.6,0.049799,421946,376234
1139.2,0.051706,423881,376303
1143.99,0.054398,426786,376541
1147.58,0.055407,428617,377279
1151.17,0.056616,431169,378470
1154.75,0.058295,433579,379117
1158.33,0.059418,436264,380480
1161.91,0.061826,439132,380863
1165.48,0.064131,442389,381657
1169.04,0.066897,446101,382416
1173.79,0.071034,451929,383739
1177.34,0.072585,456026,385838
1180.9,0.075207,461306,387956
1184.44,0.076803,467657,391854
1187.99,0.078387,473969,395697
1191.52,0.077830,479856,401126
1195.06,0.077309,487372,407898
1199.76,0.076455,497347,417066
1203.29,0.075543,504311,423795
1206.81,0.075074,511507,430306
1210.33,0.073999,519078,437758
1213.84,0.073802,527163,444778
1217.35,0.072440,534208,452137
1220.85,0.071499,540472,458431
1225.51,0.070754,549929,467254
1229.01,0.070670,556888,473258
1232.5,0.069668,562180,478859
1235.98,0.069049,567975,484485
1239.46,0.067691,574815,491855
1242.94,0.066514,582782,500025
1246.41,0.066576,591476,507412
1251.03,0.066337,604016,518456
1254.5,0.066225,612289,525692
1257.96,0.066288,619125,531484
1261.41,0.067202,624551,535015
1264.86,0.067643,629900,539049
1268.31,0.068239,634345,542109
1271.75,0.069201,638574,544516
1276.33,0.069621,642499,547333
1279.76,0.069685,645905,550153
1283.19,0.069215,648307,552797
1286.61,0.068486,650446,555553
1290.03,0.068104,652132,557483
1293.44,0.067523,653907,559749
1296.85,0.067509,655963,561527
1301.39,0.067328,657349,562947
1304.8,0.067508,657558,562893
1308.19,0.067305,658515,563976
1311.58,0.067697,658804,563714
1314.97,0.068437,659011,562932
1318.36,0.069015,658272,561552
1321.73,0.068947,658022,561427
1326.23,0.070179,657870,559707
1329.6,0.071450,656482,556895
1332.97,0.072169,654926,554655
1336.33,0.073426,653727,552040
1339.69,0.075435,652497,548458
1343.04,0.077198,649913,544073
1346.39,0.079187,647671,539719
1349.73,0.081550,645338,534856
1354.18,0.084899,641175,527324
1357.52,0.086964,638376,522531
1360.85,0.089266,635805,517676
1364.17,0.091361,633413,513247
1367.49,0.094038,631026,508170
1370.81,0.096316,628050,503128
1374.12,0.098687,625034,497985
1378.54,0.102547,620272,489819
1381.84,0.105438,616892,483917
1385.14,0.110157,613613,476143
1388.43,0.114480,611526,469824
1391.72,0.119626,610663,463634
1395.01,0.124630,610634,458301
1398.29,0.130317,611700,453129
1402.66,0.137767,614051,447134
1405.93,0.143851,616268,442505
1409.2,0.149668,617795,437700
1412.46,0.154827,618872,433285
1415.72,0.159964,619795,428829
1418.98,0.164124,620495,425221
1422.23,0.168007,621087,421838
1426.56,0.172323,621375,417860
1429.8,0.175521,621616,414955
1433.04,0.178935,622129,412046
1436.27,0.180309,621526,410346
1439.5,0.182984,621113,407555
1442.72,0.185436,620921,405136
1445.94,0.187998,620270,402330
1450.23,0.191349,618860,398330
1453.44,0.194642,617697,394579
1456.64,0.197294,616264,391267
1459.85,0.200401,614413,387311
1463.04,0.203650,612307,383106
1466.24,0.206362,610032,379307
1469.43,0.209797,607345,374661
1473.67,0.215092,603789,367954
1476.85,0.220158,601175,362112
1480.02,0.226803,597737,354574
1483.19,0.232395,594479,348130
1486.36,0.238748,591232,341201
1489.52,0.243622,587853,335465
1492.68,0.247130,583875,330514
1496.89,0.249257,578062,325625
1500.03,0.249859,574159,322978
1503.18,0.250433,570285,320375
1506.32,0.248879,565444,318794
1509.45,0.248043,560571,316656
1512.58,0.246630,555821,314996
1515.71,0.244372,550344,313518
1519.87,0.239959,543983,313059
1522.99,0.238309,538764,311236
1526.1,0.236253,533692,309769
1529.21,0.232511,527902,309060
1532.32,0.229124,521886,307930
1535.42,0.226302,515888,306375
1538.51,0.222639,509987,305436
1541.6,0.220386,503936,303382
1545.72,0.215659,494694,301077
1548.8,0.212580,488378,299348
1551.88,0.210168,481832,296980
1554.95,0.208011,474989,294220
1558.02,0.206341,467818,290895
1561.08,0.204623,460730,287623
1564.15,0.204168,454170,283825
1568.22,0.202771,444181,278477
1571.27,0.202372,436947,274193
1574.32,0.201253,429598,270277
1577.36,0.199131,422039,266822
1580.4,0.197360,414375,263047
1583.43,0.195954,406354,258792
1586.46,0.195077,398475,254287
1590.49,0.192205,388982,249876
1593.51,0.190038,380708,245784
1596.53,0.187739,372727,241909
1599.54,0.185282,365060,238277
1602.55,0.183058,357543,234569
1605.55,0.181460,349495,230134
1608.55,0.179679,341154,225565
1612.54,0.176792,330877,220229
1615.53,0.175787,322904,215420
1618.51,0.173271,315116,211446
1621.49,0.172999,307217,206275
1624.47,0.171308,299481,201865
1627.44,0.169310,292112,197806
1630.41,0.167843,284245,193130
1634.36,0.166794,274079,186673
1637.32,0.165960,266916,182144
1640.27,0.165844,259612,177207
1643.22,0.164659,251804,172347
1646.16,0.163636,244348,167638
1649.1,0.162232,236703,162919
1652.04,0.162225,228171,157049
1655.95,0.159688,215408,149133
1658.88,0.157078,204937,142739
1661.8,0.152383,193395,136164
1664.72,0.147969,179728,127834
1667.63,0.136800,163642,119425
1670.54,0.128376,146312,108869
1673.44,0.116462,128451,98237
1677.31,0.102871,105080,82918
1680.21,0.098726,88906,70828
1683.1,0.097630,75033,59927
1685.99,0.103012,63520,50107
1688.87,0.104343,53714,42242
1691.75,0.113285,45653,35171
1694.62,0.116365,39137,29938
1697.49,0.123176,33776,25435
1701.31,0.128390,28175,20964