File: samples/wool/wool-000811/Column 1_050585_20150331_121636.csv
Method:,Column 1,,
Host Date-Time:,31/3/15 @ 12:16:36,,
Header Version:,1,,
System Temp (C):,33.76,,
Detector Temp (C):,34.57,,
Humidity (%):,1.86,,
Lamp PD:,3819,,
Shift Vector Coefficients:,-10.5391,0.0761263,-0.000134223,,
Pixel to Wavelength Coefficients:,1775.68,-0.916766,-0.000235065,,
Serial Number:,5510004,,
Scan Config Name:,Column 1,,
Scan Config Type:,Slew,,
Section 1,,
Start wavelength (nm):,900,,
End wavelength (nm):,1700,,
Pattern Pixel Width (nm):,   7.03,,,,
Exposure (ms):,  0.635,,,,
Digital Resolution:,228,,
Num Repeats:,6,,
PGA Gain:,64,,
Total Measurement Time in sec:,  2.732,,
Wavelength (nm),Absorbance (AU),Reference Signal (unitless),Sample Signal (unitless)
901.51,0.070074,108485,92320
905.376,0.074368,121306,102215
909.237,0.077774,131909,110281
913.095,0.078665,143299,119558
916.948,0.079089,156982,130846
922.079,0.081119,179937,149280
925.923,0.082397,200504,165854
929.762,0.082487,222660,184143
933.597,0.082280,244426,202240
937.427,0.081941,263972,218583
941.254,0.080796,281845,233999
945.076,0.080429,297271,247015
950.165,0.079429,315605,262854
953.978,0.078750,328029,273629
957.786,0.079500,340470,283517
961.59,0.079728,352317,293228
965.389,0.079515,363056,302314
969.185,0.079591,373162,310675
972.976,0.079897,382632,318335
976.763,0.080090,391202,325320
981.806,0.080195,400190,332714
985.583,0.081172,406088,336859
989.355,0.082287,410162,339366
993.124,0.082171,412868,341696
996.888,0.082633,414263,342486
1000.65,0.083442,415476,342850
1004.4,0.084886,415479,341714
1009.41,0.085842,414358,340043
1013.15,0.086608,412923,338268
1016.89,0.087428,411526,336488
1020.63,0.087126,409066,334709
1024.36,0.087099,406777,332857
1028.09,0.086482,404427,331404
1031.82,0.086417,401911,329392
1036.78,0.085830,398410,326964
1040.49,0.086132,396204,324928
1044.2,0.086230,394236,323241
1047.91,0.085683,392042,321847
1051.61,0.084824,389823,320659
1055.31,0.084672,388234,319464
1059,0.084501,387599,319067
1063.92,0.084127,386688,318591
1067.61,0.082884,386598,319430
1071.29,0.082774,387377,320155
1074.96,0.082068,388536,321635
1078.63,0.081581,389855,323089
1082.3,0.080611,391215,324941
1085.96,0.080240,393215,326881
1090.84,0.079179,396270,330227
1094.49,0.078313,398760,332965
1098.14,0.078272,400987,334856
1101.79,0.077548,403477,337498
1105.43,0.077043,406116,340100
1109.06,0.076396,407701,341937
1112.7,0.076353,409859,343781
1117.53,0.075751,412494,346471
1121.15,0.076676,414909,347758
1124.77,0.076727,416559,349100
1128.38,0.078077,418532,349665
1131.99,0.078237,419956,350725
1135.6,0.079785,421946,351133
1139.2,0.081398,423881,351436
1143.99,0.083624,426786,352035
1147.58,0.084766,428617,352617
1151.17,0.084987,431169,354536
1154.75,0.086318,433579,355427
1158.33,0.088171,436264,356105
1161.91,0.089764,439132,357134
1165.48,0.091498,442389,358349
1169.04,0.093824,446101,359426
1173.79,0.097140,451929,361352
1177.34,0.098904,456026,363150
1180.9,0.101311,461306,365324
1184.44,0.103257,467657,368698
1187.99,0.103545,473969,373426
1191.52,0.104874,479856,376909
1195.06,0.103838,487372,383727
1199.76,0.102997,497347,392340
1203.29,0.102489,504311,398299
1206.81,0.102011,511507,404427
1210.33,0.101793,519078,410620
1213.84,0.101135,527163,417648
1217.35,0.100642,534208,423710
1220.85,0.099962,540472,429350
1225.51,0.098770,549929,438063
1229.01,0.098487,556888,443896
1232.5,0.097919,562180,448700
1235.98,0.097183,567975,454095
1239.46,0.096514,574815,460272
1242.94,0.095252,582782,468009
1246.41,0.094777,591476,475511
1251.03,0.094808,604016,485557
1254.5,0.094478,612289,492582
1257.96,0.095559,619125,496843
1261.41,0.095550,624551,501208
1264.86,0.096059,629900,504908
1268.31,0.096676,634345,507750
1271.75,0.097375,638574,510313
1276.33,0.097553,642499,513239
1279.76,0.097619,645905,515881
1283.19,0.097135,648307,518377
1286.61,0.096956,650446,520302
1290.03,0.096492,652132,522208
1293.44,0.096219,653907,523959
1296.85,0.096027,655963,525838
1301.39,0.095584,657349,527487
1304.8,0.095512,657558,527742
1308.19,0.095534,658515,528484
1311.58,0.096113,658804,528011
1314.97,0.096711,659011,527451
1318.36,0.097072,658272,526421
1321.73,0.097669,658022,525498
1326.23,0.098078,657870,524883
1329.6,0.099065,656482,522586
1332.97,0.100017,654926,520206
1336.33,0.100924,653727,518170
1339.69,0.102872,652497,514881
1343.04,0.104331,649913,511122
1346.39,0.106208,647671,507162
1349.73,0.108440,645338,502744
1354.18,0.111146,641175,496399
1357.52,0.113232,638376,491863
1360.85,0.115411,635805,487431
1364.17,0.117176,633413,483627
1367.49,0.119598,631026,479125
1370.81,0.122002,628050,474234
1374.12,0.123748,625034,470062
1378.54,0.127066,620272,462931
1381.84,0.130027,616892,457280
1385.14,0.133730,613613,450988
1388.43,0.137993,611526,445063
1391.72,0.142666,610663,439679
1395.01,0.147557,610634,434734
1398.29,0.152157,611700,430905
1402.66,0.159303,614051,425502
1405.93,0.165053,616268,421421
1409.2,0.170134,617795,417552
1412.46,0.174962,618872,413656
1415.72,0.179385,619795,410075
1418.98,0.182919,620495,407211
1422.23,0.186665,621087,404099
1426.56,0.191108,621375,400171
1429.8,0.193723,621616,397923
1433.04,0.196305,622129,395891
1436.27,0.198464,621526,393546
1439.5,0.200510,621113,391436
1442.72,0.202797,620921,389260
1445.94,0.205299,620270,386618
1450.23,0.208633,618860,382789
1453.44,0.211476,617697,379577
1456.64,0.214637,616264,375950
1459.85,0.216407,614413,373296
1463.04,0.218919,612307,369871
1466.24,0.222591,610032,365394
1469.43,0.225338,607345,361491
1473.67,0.230997,603789,354722
1476.85,0.236480,601175,348755
1480.02,0.240784,597737,343341
1483.19,0.247128,594479,336518
1486.36,0.252626,591232,330470
1489.52,0.256881,587853,325378
1492.68,0.259582,583875,321172
1496.89,0.261822,578062,316339
1500.03,0.262147,574159,313968
1503.18,0.261944,570285,311995
1506.32,0.261390,565444,309742
1509.45,0.259640,560571,308312
1512.58,0.258200,555821,306715
1515.71,0.256740,550344,304715
1519.87,0.253102,543983,303727
1522.99,0.250413,538764,302681
1526.1,0.248630,533692,301065
1529.21,0.245856,527902,299707
1532.32,0.242422,521886,298644
1535.42,0.240010,515888,296856
1538.51,0.237109,509987,295427
1541.6,0.234821,503936,293464
1545.72,0.230662,494694,290854
1548.8,0.227459,488378,289266
1551.88,0.225224,481832,286861
1554.95,0.222836,474989,284346
1558.02,0.221358,467818,281008
1561.08,0.220025,460730,277601
1564.15,0.220034,454170,273643
1568.22,0.218918,444181,268313
1571.27,0.217632,436947,264726
1574.32,0.217278,429598,260486
1577.36,0.215002,422039,257247
1580.4,0.214288,414375,252991
1583.43,0.212363,406354,249196
1586.46,0.211579,398475,244806
1590.49,0.209393,388982,240180
1593.51,0.206937,380708,236404
1596.53,0.205400,372727,232269
1599.54,0.202705,365060,228907
1602.55,0.201578,357543,224776
1605.55,0.199255,349495,220895
1608.55,0.196791,341154,216850
1612.54,0.194699,330877,211333
1615.53,0.192656,322904,207213
1618.51,0.193403,315116,201868
1621.49,0.190703,307217,198035
1624.47,0.190445,299481,193163
1627.44,0.188996,292112,189040
1630.41,0.187788,284245,184461
1634.36,0.186422,274079,178424
1637.32,0.186737,266916,173635
1640.27,0.185370,259612,169416
1643.22,0.184504,251804,164649
1646.16,0.183306,244348,160215
1649.1,0.183360,236703,155183
1652.04,0.181877,228171,150101
1655.95,0.178601,215408,142778
1658.88,0.175201,204937,136905
1661.8,0.169346,193395,130948
1664.72,0.162429,179728,123648
1667.63,0.150603,163642,115689
1670.54,0.134798,146312,107271
1673.44,0.120473,128451,97334
1677.31,0.100135,105080,83442
1680.21,0.089559,88906,72339
1683.1,0.086250,75033,61518
1685.99,0.084932,63520,52237
1688.87,0.085807,53714,44084
1691.75,0.092690,45653,36879
1694.62,0.093932,39137,31525
1697.49,0.098082,33776,26948
1701.31,0.105491,28175,22099