File: samples/wool/wool-000811/Column 1_050557_20150331_120305.csv
Method:,Column 1,,
Host Date-Time:,31/3/15 @ 12:3:5,,
Header Version:,1,,
System Temp (C):,33.54,,
Detector Temp (C):,32.76,,
Humidity (%):,2.34,,
Lamp PD:,3820,,
Shift Vector Coefficients:,-10.5391,0.0761263,-0.000134223,,
Pixel to Wavelength Coefficients:,1775.68,-0.916766,-0.000235065,,
Serial Number:,5510004,,
Scan Config Name:,Column 1,,
Scan Config Type:,Slew,,
Section 1,,
Start wavelength (nm):,900,,
End wavelength (nm):,1700,,
Pattern Pixel Width (nm):,   7.03,,,,
Exposure (ms):,  0.635,,,,
Digital Resolution:,228,,
Num Repeats:,6,,
PGA Gain:,64,,
Total Measurement Time in sec:,  2.673,,
Wavelength (nm),Absorbance (AU),Reference Signal (unitless),Sample Signal (unitless)
901.51,0.031715,108485,100845
905.376,0.037676,121306,111226
909.237,0.040753,131909,120094
913.095,0.042677,143299,129887
916.948,0.041986,156982,142516
922.079,0.044077,179937,162571
925.923,0.043989,200504,181190
929.762,0.045355,222660,200580
933.597,0.045742,244426,219991
937.427,0.044775,263972,238113
941.254,0.046166,281845,253422
945.076,0.045241,297271,267862
950.165,0.044785,315605,284681
953.978,0.044719,328029,295933
957.786,0.045165,340470,306841
961.59,0.045256,352317,317452
965.389,0.045464,363056,326971
969.185,0.045981,373162,335673
972.976,0.046780,382632,343559
976.763,0.047725,391202,350490
981.806,0.047408,400190,358805
985.583,0.048586,406088,363107
989.355,0.049162,410162,366263
993.124,0.049906,412868,368049
996.888,0.050322,414263,368939
1000.65,0.050662,415476,369729
1004.4,0.052520,415479,368154
1009.41,0.053188,414358,366596
1013.15,0.053776,412923,364832
1016.89,0.054617,411526,362894
1020.63,0.053935,409066,361292
1024.36,0.054485,406777,358816
1028.09,0.053627,404427,357448
1031.82,0.054258,401911,354709
1036.78,0.053509,398410,352226
1040.49,0.052880,396204,350783
1044.2,0.053043,394236,348910
1047.91,0.052265,392042,347590
1051.61,0.051854,389823,345950
1055.31,0.051268,388234,345005
1059,0.050710,387599,344884
1063.92,0.049810,386688,344787
1067.61,0.048668,386598,345614
1071.29,0.048706,387377,346280
1074.96,0.048359,388536,347594
1078.63,0.046963,389855,349897
1082.3,0.046420,391215,351557
1085.96,0.046004,393215,353693
1090.84,0.045204,396270,357098
1094.49,0.044911,398760,359584
1098.14,0.044984,400987,361532
1101.79,0.044463,403477,364213
1105.43,0.044589,406116,366489
1109.06,0.044139,407701,368301
1112.7,0.043583,409859,370725
1117.53,0.044119,412494,372648
1121.15,0.044455,414909,374540
1124.77,0.044778,416559,375750
1128.38,0.046271,418532,376234
1131.99,0.047823,419956,376167
1135.6,0.049449,421946,376537
1139.2,0.051774,423881,376244
1143.99,0.053169,426786,377608
1147.58,0.054991,428617,377640
1151.17,0.056350,431169,378702
1154.75,0.057678,433579,379656
1158.33,0.059122,436264,380739
1161.91,0.061724,439132,380953
1165.48,0.063869,442389,381887
1169.04,0.066523,446101,382746
1173.79,0.070529,451929,384186
1177.34,0.072498,456026,385915
1180.9,0.074592,461306,388505
1184.44,0.076351,467657,392262
1187.99,0.077804,473969,396229
1191.52,0.077222,479856,401688
1195.06,0.076741,487372,408432
1199.76,0.076023,497347,417481
1203.29,0.075123,504311,424205
1206.81,0.074205,511507,431168
1210.33,0.072821,519078,438947
1213.84,0.072669,527163,445939
1217.35,0.071834,534208,452769
1220.85,0.071306,540472,458635
1225.51,0.070483,549929,467545
1229.01,0.069669,556888,474350
1232.5,0.069005,562180,479590
1235.98,0.068546,567975,485046
1239.46,0.067696,574815,491849
1242.94,0.066671,582782,499845
1246.41,0.066138,591476,507925
1251.03,0.065959,604016,518907
1254.5,0.065676,612289,526357
1257.96,0.066246,619125,531535
1261.41,0.066709,624551,535623
1264.86,0.067556,629900,539158
1268.31,0.068040,634345,542357
1271.75,0.068950,638574,544830
1276.33,0.069264,642499,547783
1279.76,0.068966,645905,551065
1283.19,0.068505,648307,553702
1286.61,0.068360,650446,555714
1290.03,0.067720,652132,557976
1293.44,0.067468,653907,559820
1296.85,0.067226,655963,561893
1301.39,0.066962,657349,563422
1304.8,0.066942,657558,563628
1308.19,0.067491,658515,563735
1311.58,0.067774,658804,563614
1314.97,0.067897,659011,563632
1318.36,0.068723,658272,561930
1321.73,0.068820,658022,561592
1326.23,0.069951,657870,560001
1329.6,0.070941,656482,557547
1332.97,0.071982,654926,554894
1336.33,0.073118,653727,552432
1339.69,0.075026,652497,548975
1343.04,0.076953,649913,544380
1346.39,0.079228,647671,539668
1349.73,0.081389,645338,535055
1354.18,0.084814,641175,527427
1357.52,0.086734,638376,522808
1360.85,0.089018,635805,517972
1364.17,0.091037,633413,513630
1367.49,0.093587,631026,508698
1370.81,0.096098,628050,503380
1374.12,0.098879,625034,497765
1378.54,0.102373,620272,490015
1381.84,0.105808,616892,483505
1385.14,0.109835,613613,476496
1388.43,0.114588,611526,469707
1391.72,0.119322,610663,463959
1395.01,0.124926,610634,457989
1398.29,0.130297,611700,453149
1402.66,0.137951,614051,446944
1405.93,0.144212,616268,442138
1409.2,0.149773,617795,437594
1412.46,0.155437,618872,432677
1415.72,0.160138,619795,428657
1418.98,0.164841,620495,424519
1422.23,0.168159,621087,421690
1426.56,0.172734,621375,417465
1429.8,0.175627,621616,414854
1433.04,0.178726,622129,412244
1436.27,0.180859,621526,409827
1439.5,0.183398,621113,407167
1442.72,0.185983,620921,404626
1445.94,0.188207,620270,402137
1450.23,0.191801,618860,397916
1453.44,0.194713,617697,394514
1456.64,0.197236,616264,391319
1459.85,0.200461,614413,387257
1463.04,0.203490,612307,383247
1466.24,0.206562,610032,379132
1469.43,0.209880,607345,374589
1473.67,0.215778,603789,367373
1476.85,0.220793,601175,361583
1480.02,0.226343,597737,354950
1483.19,0.232711,594479,347877
1486.36,0.238787,591232,341170
1489.52,0.243504,587853,335556
1492.68,0.247046,583875,330578
1496.89,0.249386,578062,325528
1500.03,0.249975,574159,322892
1503.18,0.249499,570285,321065
1506.32,0.248749,565444,318890
1509.45,0.247821,560571,316818
1512.58,0.246584,555821,315029
1515.71,0.243973,550344,313806
1519.87,0.240901,543983,312381
1522.99,0.237740,538764,311644
1526.1,0.235305,533692,310446
1529.21,0.232307,527902,309205
1532.32,0.228847,521886,308126
1535.42,0.228248,515888,305005
1538.51,0.222572,509987,305483
1541.6,0.219755,503936,303823
1545.72,0.215557,494694,301148
1548.8,0.212046,488378,299716
1551.88,0.209518,481832,297425
1554.95,0.207208,474989,294765
1558.02,0.205713,467818,291316
1561.08,0.204639,460730,287612
1564.15,0.203952,454170,283966
1568.22,0.202613,444181,278578
1571.27,0.201701,436947,274617
1574.32,0.200481,429598,270758
1577.36,0.198000,422039,267518
1580.4,0.197459,414375,262987
1583.43,0.196530,406354,258449
1586.46,0.194428,398475,254667
1590.49,0.191337,388982,250376
1593.51,0.188992,380708,246377
1596.53,0.187658,372727,241954
1599.54,0.185211,365060,238316
1602.55,0.182884,357543,234663
1605.55,0.180932,349495,230414
1608.55,0.178183,341154,226343
1612.54,0.176240,330877,220509
1615.53,0.173293,322904,216661
1618.51,0.173725,315116,211225
1621.49,0.171991,307217,206754
1624.47,0.169753,299481,202589
1627.44,0.169549,292112,197697
1630.41,0.168178,284245,192981
1634.36,0.166797,274079,186672
1637.32,0.165533,266916,182323
1640.27,0.165942,259612,177167
1643.22,0.163650,251804,172748
1646.16,0.162914,244348,167917
1649.1,0.161835,236703,163068
1652.04,0.160030,228171,157845
1655.95,0.158751,215408,149455
1658.88,0.155068,204937,143401
1661.8,0.152922,193395,135995
1664.72,0.145902,179728,128444
1667.63,0.136803,163642,119424
1670.54,0.125937,146312,109482
1673.44,0.114715,128451,98633
1677.31,0.101251,105080,83228
1680.21,0.094522,88906,71517
1683.1,0.094388,75033,60376
1685.99,0.097286,63520,50772
1688.87,0.101392,53714,42530
1691.75,0.109033,45653,35517
1694.62,0.105987,39137,30662
1697.49,0.109495,33776,26249
1701.31,0.117648,28175,21489