File: samples/wool/wool-000811/Column 1_050582_20150331_121459.csv
Method:,Column 1,,
Host Date-Time:,31/3/15 @ 12:14:59,,
Header Version:,1,,
System Temp (C):,33.74,,
Detector Temp (C):,34.54,,
Humidity (%):,1.95,,
Lamp PD:,3819,,
Shift Vector Coefficients:,-10.5391,0.0761263,-0.000134223,,
Pixel to Wavelength Coefficients:,1775.68,-0.916766,-0.000235065,,
Serial Number:,5510004,,
Scan Config Name:,Column 1,,
Scan Config Type:,Slew,,
Section 1,,
Start wavelength (nm):,900,,
End wavelength (nm):,1700,,
Pattern Pixel Width (nm):,   7.03,,,,
Exposure (ms):,  0.635,,,,
Digital Resolution:,228,,
Num Repeats:,6,,
PGA Gain:,64,,
Total Measurement Time in sec:,  2.676,,
Wavelength (nm),Absorbance (AU),Reference Signal (unitless),Sample Signal (unitless)
901.51,0.070931,108485,92138
905.376,0.075857,121306,101865
909.237,0.077667,131909,110308
913.095,0.080145,143299,119151
916.948,0.080110,156982,130539
922.079,0.082728,179937,148728
925.923,0.083215,200504,165542
929.762,0.083566,222660,183686
933.597,0.083859,244426,201506
937.427,0.082472,263972,218316
941.254,0.082869,281845,232885
945.076,0.081715,297271,246285
950.165,0.080655,315605,262113
953.978,0.079826,328029,272952
957.786,0.080196,340470,283063
961.59,0.080854,352317,292469
965.389,0.080897,363056,301354
969.185,0.080819,373162,309798
972.976,0.080604,382632,317817
976.763,0.081639,391202,324162
981.806,0.081840,400190,331456
985.583,0.082587,406088,335763
989.355,0.083472,410162,338441
993.124,0.082777,412868,341220
996.888,0.083885,414263,341500
1000.65,0.084519,415476,342001
1004.4,0.085448,415479,341272
1009.41,0.086870,414358,339239
1013.15,0.087954,412923,337221
1016.89,0.087916,411526,336110
1020.63,0.087557,409066,334377
1024.36,0.087688,406777,332406
1028.09,0.087602,404427,330551
1031.82,0.087198,401911,328800
1036.78,0.087049,398410,326048
1040.49,0.086594,396204,324582
1044.2,0.087376,394236,322389
1047.91,0.086641,392042,321138
1051.61,0.085860,389823,319895
1055.31,0.086149,388234,318379
1059,0.085497,387599,318336
1063.92,0.085088,386688,317887
1067.61,0.083879,386598,318699
1071.29,0.083480,387377,319635
1074.96,0.083331,388536,320701
1078.63,0.082672,389855,322278
1082.3,0.082178,391215,323771
1085.96,0.080567,393215,326635
1090.84,0.080156,396270,329485
1094.49,0.079240,398760,332255
1098.14,0.078956,400987,334329
1101.79,0.078919,403477,336434
1105.43,0.078514,406116,338950
1109.06,0.077938,407701,340725
1112.7,0.077176,409859,343130
1117.53,0.077117,412494,345383
1121.15,0.077194,414909,347343
1124.77,0.077558,416559,348432
1128.38,0.078809,418532,349076
1131.99,0.079137,419956,349999
1135.6,0.081212,421946,349981
1139.2,0.082308,423881,350700
1143.99,0.084833,426786,351057
1147.58,0.085048,428617,352388
1151.17,0.086423,431169,353366
1154.75,0.087474,433579,354482
1158.33,0.088806,436264,355585
1161.91,0.091007,439132,356113
1165.48,0.093621,442389,356602
1169.04,0.094881,446101,358552
1173.79,0.098437,451929,360274
1177.34,0.100675,456026,361672
1180.9,0.102414,461306,364397
1184.44,0.104459,467657,367679
1187.99,0.105076,473969,372112
1191.52,0.105053,479856,376754
1195.06,0.104798,487372,382880
1199.76,0.104588,497347,390905
1203.29,0.104068,504311,396854
1206.81,0.103824,511507,402743
1210.33,0.102492,519078,409959
1213.84,0.102191,527163,416633
1217.35,0.101504,534208,422870
1220.85,0.100786,540472,428536
1225.51,0.100013,549929,436811
1229.01,0.099305,556888,443060
1232.5,0.098759,562180,447833
1235.98,0.098444,567975,452778
1239.46,0.097747,574815,458967
1242.94,0.096769,582782,466377
1246.41,0.095901,591476,474281
1251.03,0.095756,604016,484499
1254.5,0.095799,612289,491086
1257.96,0.096233,619125,496073
1261.41,0.096736,624551,499841
1264.86,0.096960,629900,503862
1268.31,0.097545,634345,506735
1271.75,0.098337,638574,509183
1276.33,0.098846,642499,511713
1279.76,0.098453,645905,514891
1283.19,0.097910,648307,517453
1286.61,0.097904,650446,519167
1290.03,0.097227,652132,521325
1293.44,0.096797,653907,523262
1296.85,0.096919,655963,524760
1301.39,0.096706,657349,526126
1304.8,0.096666,657558,526342
1308.19,0.096751,658515,527005
1311.58,0.097214,658804,526674
1314.97,0.097904,659011,526004
1318.36,0.098165,658272,525098
1321.73,0.098222,658022,524830
1326.23,0.099677,657870,522953
1329.6,0.100478,656482,520888
1332.97,0.101769,654926,518111
1336.33,0.102329,653727,516497
1339.69,0.104073,652497,513459
1343.04,0.105577,649913,509657
1346.39,0.107356,647671,505823
1349.73,0.109343,645338,501700
1354.18,0.112462,641175,494897
1357.52,0.114574,638376,490346
1360.85,0.116965,635805,485690
1364.17,0.118728,633413,481902
1367.49,0.120986,631026,477597
1370.81,0.123291,628050,472828
1374.12,0.125418,625034,468259
1378.54,0.128538,620272,461364
1381.84,0.131631,616892,455594
1385.14,0.136069,613613,448565
1388.43,0.139979,611526,443033
1391.72,0.144972,610663,437350
1395.01,0.149596,610634,432698
1398.29,0.155104,611700,427991
1402.66,0.161756,614051,423105
1405.93,0.167449,616268,419103
1409.2,0.173317,617795,414503
1412.46,0.178580,618872,410224
1415.72,0.183063,619795,406617
1418.98,0.187021,620495,403383
1422.23,0.190824,621087,400247
1426.56,0.194792,621375,396791
1429.8,0.197950,621616,394069
1433.04,0.199985,622129,392550
1436.27,0.202420,621526,389977
1439.5,0.204735,621113,387646
1442.72,0.207039,620921,385476
1445.94,0.209440,620270,382949
1450.23,0.212271,618860,379596
1453.44,0.214825,617697,376661
1456.64,0.218058,616264,373000
1459.85,0.220162,614413,370082
1463.04,0.222539,612307,366801
1466.24,0.225764,610032,362734
1469.43,0.228831,607345,358595
1473.67,0.234230,603789,352091
1476.85,0.239241,601175,346545
1480.02,0.244755,597737,340216
1483.19,0.249217,594479,334903
1486.36,0.254911,591232,328736
1489.52,0.259918,587853,323110
1492.68,0.261530,583875,319735
1496.89,0.263970,578062,314778
1500.03,0.265125,574159,311822
1503.18,0.264403,570285,310234
1506.32,0.263436,565444,308286
1509.45,0.262175,560571,306518
1512.58,0.260910,555821,304807
1515.71,0.258408,550344,303547
1519.87,0.255481,543983,302068
1522.99,0.252542,538764,301201
1526.1,0.251120,533692,299344
1529.21,0.248368,527902,297979
1532.32,0.245706,521886,296394
1535.42,0.242786,515888,294964
1538.51,0.239501,509987,293804
1541.6,0.236630,503936,292244
1545.72,0.232603,494694,289557
1548.8,0.229558,488378,287871
1551.88,0.227766,481832,285187
1554.95,0.225038,474989,282908
1558.02,0.223470,467818,279645
1561.08,0.222785,460730,275843
1564.15,0.221709,454170,272590
1568.22,0.220579,444181,267289
1571.27,0.220184,436947,263175
1574.32,0.218783,429598,259585
1577.36,0.218084,422039,255428
1580.4,0.216869,414375,251492
1583.43,0.214337,406354,248066
1586.46,0.212476,398475,244301
1590.49,0.210358,388982,239647
1593.51,0.209439,380708,235046
1596.53,0.208168,372727,230793
1599.54,0.205413,365060,227484
1602.55,0.203959,357543,223547
1605.55,0.201263,349495,219876
1608.55,0.199765,341154,215370
1612.54,0.197594,330877,209929
1615.53,0.194987,322904,206104
1618.51,0.194027,315116,201578
1621.49,0.193729,307217,196660
1624.47,0.192225,299481,192373
1627.44,0.191526,292112,187942
1630.41,0.189986,284245,183530
1634.36,0.188748,274079,177471
1637.32,0.188411,266916,172967
1640.27,0.187220,259612,168696
1643.22,0.187094,251804,163670
1646.16,0.185978,244348,159232
1649.1,0.185874,236703,154287
1652.04,0.183375,228171,149584
1655.95,0.180100,215408,142286
1658.88,0.175963,204937,136665
1661.8,0.170256,193395,130674
1664.72,0.163829,179728,123250
1667.63,0.152175,163642,115271
1670.54,0.138257,146312,106420
1673.44,0.122517,128451,96877
1677.31,0.105098,105080,82494
1680.21,0.093273,88906,71723
1683.1,0.087678,75033,61316
1685.99,0.089143,63520,51733
1688.87,0.092148,53714,43445
1691.75,0.098451,45653,36393
1694.62,0.099646,39137,31113
1697.49,0.104675,33776,26542
1701.31,0.122117,28175,21269