File: samples/wool/wool-000811/Column 1_050561_20150331_120453.csv
Method:,Column 1,,
Host Date-Time:,31/3/15 @ 12:4:53,,
Header Version:,1,,
System Temp (C):,33.68,,
Detector Temp (C):,33.22,,
Humidity (%):,2.15,,
Lamp PD:,3819,,
Shift Vector Coefficients:,-10.5391,0.0761263,-0.000134223,,
Pixel to Wavelength Coefficients:,1775.68,-0.916766,-0.000235065,,
Serial Number:,5510004,,
Scan Config Name:,Column 1,,
Scan Config Type:,Slew,,
Section 1,,
Start wavelength (nm):,900,,
End wavelength (nm):,1700,,
Pattern Pixel Width (nm):,   7.03,,,,
Exposure (ms):,  0.635,,,,
Digital Resolution:,228,,
Num Repeats:,6,,
PGA Gain:,64,,
Total Measurement Time in sec:,  2.724,,
Wavelength (nm),Absorbance (AU),Reference Signal (unitless),Sample Signal (unitless)
901.51,0.032211,108485,100730
905.376,0.038505,121306,111014
909.237,0.041372,131909,119923
913.095,0.042995,143299,129792
916.948,0.044247,156982,141776
922.079,0.044671,179937,162349
925.923,0.046720,200504,180054
929.762,0.046708,222660,199956
933.597,0.047224,244426,219242
937.427,0.046165,263972,237352
941.254,0.046240,281845,253379
945.076,0.046319,297271,267198
950.165,0.046332,315605,283669
953.978,0.044930,328029,295789
957.786,0.045840,340470,306365
961.59,0.046258,352317,316720
965.389,0.046490,363056,326200
969.185,0.046255,373162,335461
972.976,0.047334,382632,343121
976.763,0.047522,391202,350654
981.806,0.048433,400190,357959
985.583,0.048718,406088,362996
989.355,0.049852,410162,365682
993.124,0.049579,412868,368326
996.888,0.050465,414263,368817
1000.65,0.051173,415476,369295
1004.4,0.052548,415479,368130
1009.41,0.053661,414358,366197
1013.15,0.054305,412923,364388
1016.89,0.055301,411526,362323
1020.63,0.054541,409066,360788
1024.36,0.054573,406777,358743
1028.09,0.054060,404427,357092
1031.82,0.054216,401911,354743
1036.78,0.053298,398410,352397
1040.49,0.052905,396204,350763
1044.2,0.053890,394236,348230
1047.91,0.052550,392042,347362
1051.61,0.052059,389823,345787
1055.31,0.051793,388234,344588
1059,0.050916,387599,344720
1063.92,0.049611,386688,344945
1067.61,0.049563,386598,344903
1071.29,0.048969,387377,346071
1074.96,0.048155,388536,347757
1078.63,0.047808,389855,349217
1082.3,0.046339,391215,351622
1085.96,0.046360,393215,353403
1090.84,0.045523,396270,356836
1094.49,0.045129,398760,359404
1098.14,0.045538,400987,361071
1101.79,0.044501,403477,364181
1105.43,0.044556,406116,366517
1109.06,0.044398,407701,368081
1112.7,0.044046,409859,370330
1117.53,0.044034,412494,372721
1121.15,0.044675,414909,374350
1124.77,0.045873,416559,374803
1128.38,0.046775,418532,375797
1131.99,0.048327,419956,375731
1135.6,0.050495,421946,375631
1139.2,0.051307,423881,376649
1143.99,0.054027,426786,376863
1147.58,0.055358,428617,377321
1151.17,0.056186,431169,378845
1154.75,0.057826,433579,379527
1158.33,0.059465,436264,380438
1161.91,0.061079,439132,381519
1165.48,0.063706,442389,382031
1169.04,0.066266,446101,382972
1173.79,0.070212,451929,384466
1177.34,0.072898,456026,385560
1180.9,0.074660,461306,388445
1184.44,0.076608,467657,392030
1187.99,0.077853,473969,396184
1191.52,0.077817,479856,401138
1195.06,0.077121,487372,408075
1199.76,0.075974,497347,417528
1203.29,0.074863,504311,424459
1206.81,0.074401,511507,430974
1210.33,0.073881,519078,437876
1213.84,0.072653,527163,445956
1217.35,0.072052,534208,452541
1220.85,0.071105,540472,458847
1225.51,0.070518,549929,467508
1229.01,0.069516,556888,474517
1232.5,0.069494,562180,479051
1235.98,0.068945,567975,484601
1239.46,0.067828,574815,491700
1242.94,0.066441,582782,500109
1246.41,0.065730,591476,508402
1251.03,0.065870,604016,519013
1254.5,0.065791,612289,526218
1257.96,0.066496,619125,531230
1261.41,0.066812,624551,535496
1264.86,0.067732,629900,538939
1268.31,0.068173,634345,542191
1271.75,0.069034,638574,544725
1276.33,0.069386,642499,547629
1279.76,0.069217,645905,550746
1283.19,0.068716,648307,553433
1286.61,0.068415,650446,555643
1290.03,0.067859,652132,557798
1293.44,0.067582,653907,559672
1296.85,0.067242,655963,561872
1301.39,0.067063,657349,563291
1304.8,0.066868,657558,563723
1308.19,0.067330,658515,563943
1311.58,0.067302,658804,564227
1314.97,0.068114,659011,563351
1318.36,0.068441,658272,562295
1321.73,0.068485,658022,562025
1326.23,0.069999,657870,559939
1329.6,0.070360,656482,558294
1332.97,0.071655,654926,555312
1336.33,0.073471,653727,551983
1339.69,0.074971,652497,549044
1343.04,0.076681,649913,544721
1346.39,0.079031,647671,539912
1349.73,0.080963,645338,535580
1354.18,0.084436,641175,527887
1357.52,0.086539,638376,523043
1360.85,0.088797,635805,518235
1364.17,0.090786,633413,513927
1367.49,0.093343,631026,508984
1370.81,0.095827,628050,503695
1374.12,0.098334,625034,498390
1378.54,0.102027,620272,490405
1381.84,0.105174,616892,484212
1385.14,0.109086,613613,477319
1388.43,0.113744,611526,470621
1391.72,0.119211,610663,464078
1395.01,0.123420,610634,459580
1398.29,0.129429,611700,454056
1402.66,0.136752,614051,448180
1405.93,0.142949,616268,443425
1409.2,0.148303,617795,439078
1412.46,0.153662,618872,434449
1415.72,0.158072,619795,430701
1418.98,0.162966,620495,426356
1422.23,0.166307,621087,423492
1426.56,0.170707,621375,419418
1429.8,0.173750,621616,416651
1433.04,0.175821,622129,415011
1436.27,0.178684,621526,411884
1439.5,0.180632,621113,409769
1442.72,0.183517,620921,406930
1445.94,0.186440,620270,403776
1450.23,0.189818,618860,399737
1453.44,0.192216,617697,396789
1456.64,0.195467,616264,392916
1459.85,0.198463,614413,389043
1463.04,0.201643,612307,384881
1466.24,0.204356,610032,381063
1469.43,0.207944,607345,376263
1473.67,0.213921,603789,368947
1476.85,0.219546,601175,362623
1480.02,0.225071,597737,355991
1483.19,0.232017,594479,348433
1486.36,0.237557,591232,342138
1489.52,0.242768,587853,336125
1492.68,0.246026,583875,331355
1496.89,0.248818,578062,325954
1500.03,0.248800,574159,323767
1503.18,0.249522,570285,321048
1506.32,0.247897,565444,319516
1509.45,0.247374,560571,317144
1512.58,0.244987,555821,316190
1515.71,0.243255,550344,314325
1519.87,0.239590,543983,313325
1522.99,0.237124,538764,312086
1526.1,0.234821,533692,310792
1529.21,0.231365,527902,309876
1532.32,0.228418,521886,308431
1535.42,0.225888,515888,306667
1538.51,0.222561,509987,305491
1541.6,0.219240,503936,304183
1545.72,0.214541,494694,301853
1548.8,0.211277,488378,300247
1551.88,0.209193,481832,297648
1554.95,0.206984,474989,294917
1558.02,0.205012,467818,291786
1561.08,0.204039,460730,288010
1564.15,0.203478,454170,284276
1568.22,0.202263,444181,278803
1571.27,0.200894,436947,275128
1574.32,0.200295,429598,270874
1577.36,0.198594,422039,267152
1580.4,0.198117,414375,262589
1583.43,0.196253,406354,258614
1586.46,0.193794,398475,255039
1590.49,0.191257,388982,250422
1593.51,0.189814,380708,245911
1596.53,0.186749,372727,242461
1599.54,0.184748,365060,238570
1602.55,0.182636,357543,234797
1605.55,0.180390,349495,230702
1608.55,0.177825,341154,226530
1612.54,0.176215,330877,220522
1615.53,0.174292,322904,216163
1618.51,0.172030,315116,212051
1621.49,0.172405,307217,206557
1624.47,0.170309,299481,202330
1627.44,0.168687,292112,198090
1630.41,0.168174,284245,192983
1634.36,0.166541,274079,186782
1637.32,0.165843,266916,182193
1640.27,0.164889,259612,177597
1643.22,0.163489,251804,172812
1646.16,0.162276,244348,168164
1649.1,0.161915,236703,163038
1652.04,0.160236,228171,157770
1655.95,0.157324,215408,149947
1658.88,0.155808,204937,143157
1661.8,0.151373,193395,136481
1664.72,0.146020,179728,128409
1667.63,0.135772,163642,119708
1670.54,0.125172,146312,109675
1673.44,0.112589,128451,99117
1677.31,0.098183,105080,83818
1680.21,0.090262,88906,72222
1683.1,0.088416,75033,61212
1685.99,0.093759,63520,51186
1688.87,0.100678,53714,42600
1691.75,0.102805,45653,36030
1694.62,0.102109,39137,30937
1697.49,0.118624,33776,25703
1701.31,0.116638,28175,21539