File: samples/wool/wool-000811/Column 1_050535_20150331_115241.csv
Method:,Column 1,,
Host Date-Time:,31/3/15 @ 11:52:41,,
Header Version:,1,,
System Temp (C):,31.26,,
Detector Temp (C):,30.17,,
Humidity (%):,3.9,,
Lamp PD:,3828,,
Shift Vector Coefficients:,-10.5391,0.0761263,-0.000134223,,
Pixel to Wavelength Coefficients:,1775.68,-0.916766,-0.000235065,,
Serial Number:,5510004,,
Scan Config Name:,Column 1,,
Scan Config Type:,Slew,,
Section 1,,
Start wavelength (nm):,900,,
End wavelength (nm):,1700,,
Pattern Pixel Width (nm):,   7.03,,,,
Exposure (ms):,  0.635,,,,
Digital Resolution:,228,,
Num Repeats:,6,,
PGA Gain:,64,,
Total Measurement Time in sec:,  2.677,,
Wavelength (nm),Absorbance (AU),Reference Signal (unitless),Sample Signal (unitless)
901.51,0.043143,108485,98226
905.376,0.048136,121306,108579
909.237,0.050632,131909,117393
913.095,0.050638,143299,127528
916.948,0.051111,156982,139553
922.079,0.049272,179937,160638
925.923,0.050947,200504,178310
929.762,0.050839,222660,198063
933.597,0.052742,244426,216474
937.427,0.052931,263972,233683
941.254,0.052881,281845,249534
945.076,0.052502,297271,263421
950.165,0.053238,315605,279194
953.978,0.052617,328029,290600
957.786,0.053152,340470,301250
961.59,0.054369,352317,310860
965.389,0.053883,363056,320694
969.185,0.055037,373162,328746
972.976,0.055305,382632,336881
976.763,0.056088,391202,343806
981.806,0.057271,400190,350748
985.583,0.057884,406088,355415
989.355,0.057734,410162,359105
993.124,0.058374,412868,360942
996.888,0.059287,414263,361401
1000.65,0.059753,415476,362070
1004.4,0.061167,415479,360896
1009.41,0.062776,414358,358591
1013.15,0.063538,412923,356723
1016.89,0.063763,411526,355332
1020.63,0.063505,409066,353418
1024.36,0.063973,406777,351062
1028.09,0.062696,404427,350061
1031.82,0.062743,401911,347846
1036.78,0.061998,398410,345408
1040.49,0.061538,396204,343859
1044.2,0.060852,394236,342692
1047.91,0.060050,392042,341415
1051.61,0.059442,389823,339958
1055.31,0.059112,388234,338830
1059,0.058407,387599,338825
1063.92,0.056897,386688,339206
1067.61,0.055979,386598,339845
1071.29,0.055157,387377,341175
1074.96,0.054800,388536,342477
1078.63,0.054496,389855,343880
1082.3,0.053709,391215,345706
1085.96,0.052284,393215,348615
1090.84,0.051751,396270,351755
1094.49,0.051926,398760,353823
1098.14,0.051204,400987,356391
1101.79,0.050298,403477,359353
1105.43,0.050716,406116,361355
1109.06,0.049987,407701,363375
1112.7,0.050041,409859,365253
1117.53,0.050024,412494,367615
1121.15,0.051469,414909,368539
1124.77,0.051700,416559,369808
1128.38,0.053427,418532,370085
1131.99,0.054591,419956,370350
1135.6,0.056641,421946,370353
1139.2,0.058964,423881,370067
1143.99,0.061851,426786,370134
1147.58,0.062883,428617,370840
1151.17,0.064634,431169,371547
1154.75,0.065872,433579,372560
1158.33,0.067780,436264,373224
1161.91,0.070674,439132,373182
1165.48,0.073055,442389,373895
1169.04,0.075937,446101,374538
1173.79,0.080656,451929,375331
1177.34,0.083110,456026,376599
1180.9,0.086016,461306,378419
1184.44,0.087221,467657,382566
1187.99,0.088500,473969,386589
1191.52,0.088241,479856,391625
1195.06,0.087461,487372,398474
1199.76,0.086056,497347,407947
1203.29,0.084946,504311,414718
1206.81,0.083863,511507,421685
1210.33,0.082484,519078,429288
1213.84,0.081455,527163,437009
1217.35,0.080550,534208,443773
1220.85,0.079291,540472,450280
1225.51,0.077859,549929,459672
1229.01,0.077658,556888,465704
1232.5,0.076158,562180,471756
1235.98,0.075447,567975,477400
1239.46,0.074198,574815,484541
1242.94,0.072951,582782,492669
1246.41,0.072177,591476,500911
1251.03,0.071958,604016,511788
1254.5,0.071629,612289,519191
1257.96,0.072040,619125,524491
1261.41,0.072843,624551,528111
1264.86,0.073281,629900,532097
1268.31,0.074158,634345,534770
1271.75,0.074983,638574,537314
1276.33,0.075462,642499,540021
1279.76,0.075047,645905,543402
1283.19,0.074233,648307,546447
1286.61,0.073864,650446,548716
1290.03,0.073908,652132,550082
1293.44,0.073224,653907,552449
1296.85,0.072909,655963,554588
1301.39,0.072686,657349,556045
1304.8,0.072891,657558,555960
1308.19,0.073307,658515,556236
1311.58,0.073216,658804,556596
1314.97,0.074161,659011,555561
1318.36,0.074775,658272,554154
1321.73,0.075182,658022,553425
1326.23,0.076591,657870,551504
1329.6,0.077253,656482,549503
1332.97,0.078334,654926,546837
1336.33,0.079988,653727,543762
1339.69,0.081913,652497,540338
1343.04,0.084054,649913,535552
1346.39,0.086410,647671,530816
1349.73,0.089094,645338,525646
1354.18,0.092250,641175,518474
1357.52,0.094495,638376,513549
1360.85,0.097388,635805,508084
1364.17,0.099739,633413,503440
1367.49,0.102782,631026,498041
1370.81,0.105254,628050,492879
1374.12,0.107913,625034,487518
1378.54,0.112246,620272,479001
1381.84,0.115823,616892,472483
1385.14,0.120935,613613,464472
1388.43,0.126171,611526,457345
1391.72,0.132225,610663,450377
1395.01,0.138482,610634,443914
1398.29,0.144330,611700,438741
1402.66,0.153802,614051,430926
1405.93,0.161095,616268,425280
1409.2,0.167692,617795,419906
1412.46,0.173936,618872,414634
1415.72,0.179719,619795,409760
1418.98,0.184259,620495,405956
1422.23,0.188594,621087,402308
1426.56,0.193738,621375,397755
1429.8,0.196940,621616,394986
1433.04,0.199708,622129,392801
1436.27,0.202658,621526,389764
1439.5,0.205165,621113,387263
1442.72,0.207399,620921,385157
1445.94,0.210449,620270,382060
1450.23,0.213551,618860,378479
1453.44,0.216580,617697,375142
1456.64,0.219442,616264,371813
1459.85,0.222412,614413,368170
1463.04,0.224882,612307,364827
1466.24,0.227701,610032,361120
1469.43,0.230856,607345,356927
1473.67,0.235103,603789,351384
1476.85,0.239967,601175,345966
1480.02,0.245439,597737,339681
1483.19,0.251833,594479,332892
1486.36,0.257222,591232,326991
1489.52,0.261325,587853,322065
1492.68,0.265631,583875,316730
1496.89,0.268410,578062,311576
1500.03,0.269477,574159,308713
1503.18,0.269548,570285,306580
1506.32,0.269129,565444,304271
1509.45,0.267518,560571,302770
1512.58,0.266019,555821,301242
1515.71,0.264042,550344,299635
1519.87,0.261510,543983,297903
1522.99,0.258287,538764,297243
1526.1,0.254776,533692,296835
1529.21,0.252881,527902,294898
1532.32,0.249855,521886,293576
1535.42,0.246066,515888,292745
1538.51,0.242711,509987,291641
1541.6,0.239849,503936,290086
1545.72,0.234575,494694,288245
1548.8,0.231522,488378,286572
1551.88,0.228914,481832,284434
1554.95,0.226701,474989,281827
1558.02,0.224207,467818,279171
1561.08,0.222736,460730,275874
1564.15,0.222053,454170,272374
1568.22,0.220857,444181,267118
1571.27,0.220199,436947,263166
1574.32,0.218809,429598,259569
1577.36,0.217199,422039,255949
1580.4,0.215666,414375,252190
1583.43,0.213924,406354,248302
1586.46,0.212030,398475,244552
1590.49,0.208554,388982,240644
1593.51,0.206619,380708,236577
1596.53,0.204469,372727,232767
1599.54,0.202241,365060,229152
1602.55,0.200078,357543,225554
1605.55,0.197338,349495,221872
1608.55,0.195066,341154,217713
1612.54,0.192567,330877,212373
1615.53,0.190022,322904,208474
1618.51,0.188289,315116,204259
1621.49,0.187128,307217,199672
1624.47,0.186268,299481,195030
1627.44,0.183519,292112,191439
1630.41,0.182900,284245,186549
1634.36,0.181083,274079,180631
1637.32,0.180457,266916,176164
1640.27,0.179542,259612,171705
1643.22,0.177977,251804,167142
1646.16,0.177653,244348,162314
1649.1,0.176984,236703,157478
1652.04,0.175381,228171,152363
1655.95,0.173893,215408,144334
1658.88,0.173615,204937,137406
1661.8,0.172626,193395,129963
1664.72,0.170934,179728,121250
1667.63,0.168259,163642,111080
1670.54,0.163806,146312,100340
1673.44,0.162590,128451,88338
1677.31,0.159401,105080,72798
1680.21,0.158618,88906,61704
1683.1,0.163605,75033,51481
1685.99,0.166965,63520,43246
1688.87,0.174642,53714,35929
1691.75,0.181249,45653,30076
1694.62,0.185571,39137,25528
1697.49,0.183215,33776,22151
1701.31,0.181380,28175,18556