File: samples/wool/wool-000811/Column 1_050592_20150331_121953.csv
Method:,Column 1,,
Host Date-Time:,31/3/15 @ 12:19:53,,
Header Version:,1,,
System Temp (C):,33.92,,
Detector Temp (C):,34.59,,
Humidity (%):,1.76,,
Lamp PD:,3818,,
Shift Vector Coefficients:,-10.5391,0.0761263,-0.000134223,,
Pixel to Wavelength Coefficients:,1775.68,-0.916766,-0.000235065,,
Serial Number:,5510004,,
Scan Config Name:,Column 1,,
Scan Config Type:,Slew,,
Section 1,,
Start wavelength (nm):,900,,
End wavelength (nm):,1700,,
Pattern Pixel Width (nm):,   7.03,,,,
Exposure (ms):,  0.635,,,,
Digital Resolution:,228,,
Num Repeats:,6,,
PGA Gain:,64,,
Total Measurement Time in sec:,  2.678,,
Wavelength (nm),Absorbance (AU),Reference Signal (unitless),Sample Signal (unitless)
901.51,0.069341,108485,92476
905.376,0.074844,121306,102103
909.237,0.077762,131909,110284
913.095,0.078432,143299,119622
916.948,0.079654,156982,130676
922.079,0.081331,179937,149207
925.923,0.081848,200504,166064
929.762,0.083060,222660,183900
933.597,0.082940,244426,201933
937.427,0.082542,263972,218281
941.254,0.081002,281845,233888
945.076,0.081165,297271,246597
950.165,0.079699,315605,262691
953.978,0.078445,328029,273821
957.786,0.078958,340470,283871
961.59,0.079083,352317,293664
965.389,0.078953,363056,302706
969.185,0.079644,373162,310637
972.976,0.079319,382632,318759
976.763,0.079674,391202,325632
981.806,0.080529,400190,332458
985.583,0.081376,406088,336701
989.355,0.081626,410162,339883
993.124,0.082295,412868,341599
996.888,0.082171,414263,342851
1000.65,0.082862,415476,343308
1004.4,0.084006,415479,342407
1009.41,0.085676,414358,340173
1013.15,0.085905,412923,338816
1016.89,0.086774,411526,336995
1020.63,0.086010,409066,335570
1024.36,0.086116,406777,333611
1028.09,0.086473,404427,331411
1031.82,0.085666,401911,329962
1036.78,0.085332,398410,327339
1040.49,0.085751,396204,325213
1044.2,0.085340,394236,323904
1047.91,0.084938,392042,322400
1051.61,0.084789,389823,320685
1055.31,0.084355,388234,319697
1059,0.083792,387599,319588
1063.92,0.082439,386688,319832
1067.61,0.082277,386598,319877
1071.29,0.082379,387377,320446
1074.96,0.081664,388536,321934
1078.63,0.080931,389855,323573
1082.3,0.080338,391215,325145
1085.96,0.079429,393215,327492
1090.84,0.078821,396270,330499
1094.49,0.077896,398760,333285
1098.14,0.077557,400987,335408
1101.79,0.076613,403477,338225
1105.43,0.076431,406116,340580
1109.06,0.075584,407701,342577
1112.7,0.075666,409859,344325
1117.53,0.075599,412494,346592
1121.15,0.075680,414909,348556
1124.77,0.076315,416559,349431
1128.38,0.077486,418532,350141
1131.99,0.077605,419956,351236
1135.6,0.079439,421946,351413
1139.2,0.080809,423881,351913
1143.99,0.083166,426786,352407
1147.58,0.083390,428617,353736
1151.17,0.084977,431169,354544
1154.75,0.085962,433579,355718
1158.33,0.087073,436264,357007
1161.91,0.088934,439132,357817
1165.48,0.091044,442389,358724
1169.04,0.092899,446101,360192
1173.79,0.096420,451929,361951
1177.34,0.098113,456026,363812
1180.9,0.100633,461306,365895
1184.44,0.102458,467657,369377
1187.99,0.102737,473969,374122
1191.52,0.103521,479856,378085
1195.06,0.102807,487372,384639
1199.76,0.102320,497347,392952
1203.29,0.101535,504311,399175
1206.81,0.101090,511507,405286
1210.33,0.100709,519078,411646
1213.84,0.100246,527163,418503
1217.35,0.099026,534208,425289
1220.85,0.098696,540472,430603
1225.51,0.097940,549929,438901
1229.01,0.097764,556888,444635
1232.5,0.097006,562180,449645
1235.98,0.096485,567975,454825
1239.46,0.095225,574815,461640
1242.94,0.094632,582782,468677
1246.41,0.094123,591476,476227
1251.03,0.093939,604016,486530
1254.5,0.094008,612289,493115
1257.96,0.094614,619125,497925
1261.41,0.095234,624551,501573
1264.86,0.095575,629900,505471
1268.31,0.095787,634345,508790
1271.75,0.096527,638574,511310
1276.33,0.096654,642499,514302
1279.76,0.096532,645905,517174
1283.19,0.095955,648307,519787
1286.61,0.096067,650446,521368
1290.03,0.095420,652132,523499
1293.44,0.095225,653907,525159
1296.85,0.094798,655963,527329
1301.39,0.094561,657349,528731
1304.8,0.094704,657558,528725
1308.19,0.094908,658515,529246
1311.58,0.094455,658804,530031
1314.97,0.095325,659011,529137
1318.36,0.095693,658272,528096
1321.73,0.096181,658022,527302
1326.23,0.097195,657870,525951
1329.6,0.097960,656482,523918
1332.97,0.098768,654926,521704
1336.33,0.099970,653727,519310
1339.69,0.101694,652497,516279
1343.04,0.103054,649913,512627
1346.39,0.104869,647671,508728
1349.73,0.107398,645338,503952
1354.18,0.109778,641175,497965
1357.52,0.111890,638376,493386
1360.85,0.113672,635805,489387
1364.17,0.115937,633413,485009
1367.49,0.118025,631026,480864
1370.81,0.120112,628050,476302
1374.12,0.122359,625034,471568
1378.54,0.125556,620272,464543
1381.84,0.128163,616892,459247
1385.14,0.131820,613613,452975
1388.43,0.136141,611526,446965
1391.72,0.140184,610663,442199
1395.01,0.144997,610634,437305
1398.29,0.149180,611700,433869
1402.66,0.156260,614051,428494
1405.93,0.161746,616268,424643
1409.2,0.166697,617795,420869
1412.46,0.171145,618872,417307
1415.72,0.175212,619795,414034
1418.98,0.179554,620495,410378
1422.23,0.182867,621087,407648
1426.56,0.186413,621375,404521
1429.8,0.189289,621616,402007
1433.04,0.191909,622129,399918
1436.27,0.194070,621526,397548
1439.5,0.196041,621113,395485
1442.72,0.198415,620921,393207
1445.94,0.200996,620270,390467
1450.23,0.204071,618860,386831
1453.44,0.206701,617697,383773
1456.64,0.209551,616264,380378
1459.85,0.211691,614413,377372
1463.04,0.214675,612307,373503
1466.24,0.218260,610032,369056
1469.43,0.221306,607345,364863
1473.67,0.227765,603789,357372
1476.85,0.231950,601175,352412
1480.02,0.238193,597737,345396
1483.19,0.243682,594479,339199
1486.36,0.249080,591232,333179
1489.52,0.254864,587853,326892
1492.68,0.257304,583875,322861
1496.89,0.259509,578062,318028
1500.03,0.259584,574159,315826
1503.18,0.259913,570285,313458
1506.32,0.259305,565444,311232
1509.45,0.257699,560571,309693
1512.58,0.255877,555821,308360
1515.71,0.253916,550344,306703
1519.87,0.251426,543983,304901
1522.99,0.248641,538764,303919
1526.1,0.245990,533692,302901
1529.21,0.243067,527902,301638
1532.32,0.240566,521886,299923
1535.42,0.237310,515888,298707
1538.51,0.234621,509987,297124
1541.6,0.232040,503936,295349
1545.72,0.228450,494694,292339
1548.8,0.224603,488378,291174
1551.88,0.222586,481832,288609
1554.95,0.220372,474989,285964
1558.02,0.218831,467818,282648
1561.08,0.218208,460730,278765
1564.15,0.217084,454170,275508
1568.22,0.216495,444181,269814
1571.27,0.215884,436947,265794
1574.32,0.214769,429598,261995
1577.36,0.213889,422039,257907
1580.4,0.211673,414375,254519
1583.43,0.210095,406354,250501
1586.46,0.209717,398475,245858
1590.49,0.207759,388982,241085
1593.51,0.205358,380708,237265
1596.53,0.202972,372727,233571
1599.54,0.201262,365060,229669
1602.55,0.199716,357543,225742
1605.55,0.197031,349495,222029
1608.55,0.195953,341154,217269
1612.54,0.194463,330877,211448
1615.53,0.191351,322904,207837
1618.51,0.190517,315116,203214
1621.49,0.189534,307217,198569
1624.47,0.188055,299481,194229
1627.44,0.187761,292112,189578
1630.41,0.186944,284245,184820
1634.36,0.183976,274079,179432
1637.32,0.184174,266916,174663
1640.27,0.183871,259612,170002
1643.22,0.182574,251804,165382
1646.16,0.182012,244348,160693
1649.1,0.182535,236703,155478
1652.04,0.179928,228171,150776
1655.95,0.177458,215408,143154
1658.88,0.172251,204937,137838
1661.8,0.167678,193395,131452
1664.72,0.160774,179728,124120
1667.63,0.147233,163642,116590
1670.54,0.132593,146312,107817
1673.44,0.118887,128451,97690
1677.31,0.100948,105080,83286
1680.21,0.088695,88906,72483
1683.1,0.086455,75033,61489
1685.99,0.083670,63520,52389
1688.87,0.086467,53714,44017
1691.75,0.094236,45653,36748
1694.62,0.097571,39137,31262
1697.49,0.098953,33776,26894
1701.31,0.101325,28175,22312