File: samples/wool/wool-000811/Column 1_050622_20150331_123417.csv
Method:,Column 1,,
Host Date-Time:,31/3/15 @ 12:34:17,,
Header Version:,1,,
System Temp (C):,34.13,,
Detector Temp (C):,35.01,,
Humidity (%):,1.56,,
Lamp PD:,3817,,
Shift Vector Coefficients:,-10.5391,0.0761263,-0.000134223,,
Pixel to Wavelength Coefficients:,1775.68,-0.916766,-0.000235065,,
Serial Number:,5510004,,
Scan Config Name:,Column 1,,
Scan Config Type:,Slew,,
Section 1,,
Start wavelength (nm):,900,,
End wavelength (nm):,1700,,
Pattern Pixel Width (nm):,   7.03,,,,
Exposure (ms):,  0.635,,,,
Digital Resolution:,228,,
Num Repeats:,6,,
PGA Gain:,64,,
Total Measurement Time in sec:,  2.726,,
Wavelength (nm),Absorbance (AU),Reference Signal (unitless),Sample Signal (unitless)
901.51,0.068032,108485,92755
905.376,0.075065,121306,102051
909.237,0.076276,131909,110662
913.095,0.077794,143299,119798
916.948,0.079053,156982,130857
922.079,0.080357,179937,149542
925.923,0.082010,200504,166002
929.762,0.082645,222660,184076
933.597,0.082635,244426,202075
937.427,0.081368,263972,218872
941.254,0.080474,281845,234173
945.076,0.079439,297271,247579
950.165,0.078520,315605,263405
953.978,0.077316,328029,274534
957.786,0.077728,340470,284676
961.59,0.077593,352317,294673
965.389,0.077304,363056,303857
969.185,0.077984,373162,311827
972.976,0.077763,382632,319903
976.763,0.078506,391202,326509
981.806,0.079361,400190,333354
985.583,0.079344,406088,338280
989.355,0.080010,410162,341150
993.124,0.080391,412868,343100
996.888,0.080795,414263,343939
1000.65,0.081378,415476,344483
1004.4,0.082746,415479,343402
1009.41,0.084639,414358,340986
1013.15,0.084681,412923,339772
1016.89,0.084899,411526,338453
1020.63,0.083791,409066,337289
1024.36,0.084872,406777,334568
1028.09,0.084140,404427,333196
1031.82,0.083885,401911,331318
1036.78,0.084036,398410,328318
1040.49,0.083453,396204,326938
1044.2,0.083901,394236,324979
1047.91,0.083331,392042,323595
1051.61,0.082920,389823,322068
1055.31,0.082848,388234,320808
1059,0.082675,387599,320411
1063.92,0.081102,386688,320818
1067.61,0.080780,386598,320981
1071.29,0.080321,387377,321968
1074.96,0.079307,388536,323686
1078.63,0.079354,389855,324750
1082.3,0.077897,391215,326978
1085.96,0.077121,393215,329237
1090.84,0.076577,396270,332211
1094.49,0.076155,398760,334624
1098.14,0.075971,400987,336635
1101.79,0.074826,403477,339620
1105.43,0.074821,406116,341845
1109.06,0.074074,407701,343770
1112.7,0.073557,409859,346001
1117.53,0.073030,412494,348648
1121.15,0.073767,414909,350095
1124.77,0.074084,416559,351231
1128.38,0.074411,418532,352629
1131.99,0.075029,419956,353325
1135.6,0.076818,421946,353540
1139.2,0.078458,423881,353823
1143.99,0.080375,426786,354679
1147.58,0.080823,428617,355833
1151.17,0.082119,431169,356885
1154.75,0.083040,433579,358120
1158.33,0.083949,436264,359584
1161.91,0.085710,439132,360483
1165.48,0.088350,442389,360956
1169.04,0.090106,446101,362516
1173.79,0.093689,451929,364235
1177.34,0.095503,456026,366005
1180.9,0.097894,461306,368210
1184.44,0.099793,467657,371650
1187.99,0.100646,473969,375927
1191.52,0.100592,479856,380644
1195.06,0.100444,487372,386738
1199.76,0.100081,497347,394983
1203.29,0.099407,504311,401136
1206.81,0.099137,511507,407113
1210.33,0.098018,519078,414204
1213.84,0.097694,527163,420970
1217.35,0.097470,534208,426816
1220.85,0.096120,540472,433165
1225.51,0.095553,549929,441320
1229.01,0.095332,556888,447132
1232.5,0.094482,562180,452265
1235.98,0.093681,567975,457771
1239.46,0.092769,574815,464258
1242.94,0.092014,582782,471511
1246.41,0.091572,591476,479033
1251.03,0.091569,604016,489192
1254.5,0.091072,612289,496460
1257.96,0.091870,619125,501082
1261.41,0.092375,624551,504885
1264.86,0.092803,629900,508708
1268.31,0.093550,634345,511417
1271.75,0.093859,638574,514461
1276.33,0.094169,642499,517253
1279.76,0.093632,645905,520639
1283.19,0.093650,648307,522554
1286.61,0.093216,650446,524802
1290.03,0.092861,652132,526592
1293.44,0.092474,653907,528496
1296.85,0.092169,655963,530531
1301.39,0.091639,657349,532301
1304.8,0.091358,657558,532814
1308.19,0.092024,658515,532772
1311.58,0.091842,658804,533229
1314.97,0.092515,659011,532571
1318.36,0.092864,658272,531547
1321.73,0.093090,658022,531068
1326.23,0.093891,657870,529967
1329.6,0.094913,656482,527606
1332.97,0.095301,654926,525885
1336.33,0.096574,653727,523386
1339.69,0.097990,652497,520701
1343.04,0.099099,649913,517316
1346.39,0.100830,647671,513481
1349.73,0.102600,645338,509550
1354.18,0.105745,641175,502611
1357.52,0.107915,638376,497922
1360.85,0.109701,635805,493882
1364.17,0.111545,633413,489939
1367.49,0.113692,631026,485686
1370.81,0.115966,628050,480871
1374.12,0.118171,625034,476138
1378.54,0.120863,620272,469590
1381.84,0.123665,616892,464028
1385.14,0.126705,613613,458342
1388.43,0.130111,611526,453215
1391.72,0.134030,610663,448509
1395.01,0.137950,610634,444458
1398.29,0.141919,611700,441184
1402.66,0.147484,614051,437241
1405.93,0.152530,616268,433750
1409.2,0.156915,617795,430457
1412.46,0.161262,618872,426912
1415.72,0.165159,619795,423730
1418.98,0.168306,620495,421146
1422.23,0.171503,621087,418456
1426.56,0.175387,621375,414922
1429.8,0.177941,621616,412649
1433.04,0.180355,622129,410701
1436.27,0.182736,621526,408059
1439.5,0.184499,621113,406136
1442.72,0.187042,620921,403640
1445.94,0.189690,620270,400766
1450.23,0.193508,618860,396355
1453.44,0.195663,617697,393652
1456.64,0.198887,616264,389834
1459.85,0.201381,614413,386438
1463.04,0.204490,612307,382366
1466.24,0.208127,610032,377768
1469.43,0.211444,607345,373243
1473.67,0.218150,603789,365372
1476.85,0.224096,601175,358843
1480.02,0.230606,597737,351483
1483.19,0.236853,594479,344575
1486.36,0.243715,591232,337321
1489.52,0.248379,587853,331810
1492.68,0.251703,583875,327052
1496.89,0.253748,578062,322275
1500.03,0.254624,574159,319454
1503.18,0.254359,570285,317492
1506.32,0.253686,565444,315285
1509.45,0.251801,560571,313928
1512.58,0.250288,555821,312354
1515.71,0.248300,550344,310695
1519.87,0.244683,543983,309672
1522.99,0.242511,538764,308239
1526.1,0.240118,533692,307024
1529.21,0.237939,527902,305221
1532.32,0.234579,521886,304086
1535.42,0.231697,515888,302593
1538.51,0.228131,509987,301598
1541.6,0.225411,503936,299892
1545.72,0.221743,494694,296889
1548.8,0.219363,488378,294709
1551.88,0.216273,481832,292835
1554.95,0.214951,474989,289556
1558.02,0.212776,467818,286616
1561.08,0.211545,460730,283075
1564.15,0.211384,454170,279148
1568.22,0.210599,444181,273502
1571.27,0.209260,436947,269879
1574.32,0.208635,429598,265722
1577.36,0.208020,422039,261416
1580.4,0.206133,414375,257787
1583.43,0.205083,406354,253409
1586.46,0.203334,398475,249498
1590.49,0.202193,388982,244195
1593.51,0.199582,380708,240442
1596.53,0.198059,372727,236228
1599.54,0.195629,365060,232667
1602.55,0.193694,357543,228894
1605.55,0.192228,349495,224498
1608.55,0.189774,341154,220382
1612.54,0.187928,330877,214654
1615.53,0.186540,322904,210152
1618.51,0.184901,315116,205859
1621.49,0.185600,307217,200376
1624.47,0.183792,299481,196145
1627.44,0.183093,292112,191627
1630.41,0.181652,284245,187086
1634.36,0.180274,274079,180968
1637.32,0.179352,266916,176613
1640.27,0.179357,259612,171778
1643.22,0.178060,251804,167110
1646.16,0.176477,244348,162754
1649.1,0.176863,236703,157522
1652.04,0.174319,228171,152736
1655.95,0.171295,215408,145200
1658.88,0.167482,204937,139360
1661.8,0.163718,193395,132656
1664.72,0.155253,179728,125708
1667.63,0.143225,163642,117671
1670.54,0.127057,146312,109200
1673.44,0.112835,128451,99061
1677.31,0.090658,105080,85283
1680.21,0.077154,88906,74435
1683.1,0.071065,75033,63707
1685.99,0.074654,63520,53488
1688.87,0.076036,53714,45087
1691.75,0.080738,45653,37908
1694.62,0.092543,39137,31626
1697.49,0.087605,33776,27606
1701.31,0.093551,28175,22715