File: samples/wool/wool-000811/Column 1_050589_20150331_121813.csv
Method:,Column 1,,
Host Date-Time:,31/3/15 @ 12:18:13,,
Header Version:,1,,
System Temp (C):,33.83,,
Detector Temp (C):,34.54,,
Humidity (%):,1.86,,
Lamp PD:,3819,,
Shift Vector Coefficients:,-10.5391,0.0761263,-0.000134223,,
Pixel to Wavelength Coefficients:,1775.68,-0.916766,-0.000235065,,
Serial Number:,5510004,,
Scan Config Name:,Column 1,,
Scan Config Type:,Slew,,
Section 1,,
Start wavelength (nm):,900,,
End wavelength (nm):,1700,,
Pattern Pixel Width (nm):,   7.03,,,,
Exposure (ms):,  0.635,,,,
Digital Resolution:,228,,
Num Repeats:,6,,
PGA Gain:,64,,
Total Measurement Time in sec:,  2.723,,
Wavelength (nm),Absorbance (AU),Reference Signal (unitless),Sample Signal (unitless)
901.51,0.069054,108485,92537
905.376,0.075653,121306,101913
909.237,0.078057,131909,110209
913.095,0.078970,143299,119474
916.948,0.079159,156982,130825
922.079,0.082372,179937,148850
925.923,0.082038,200504,165991
929.762,0.083072,222660,183895
933.597,0.082422,244426,202174
937.427,0.081052,263972,219031
941.254,0.081571,281845,233582
945.076,0.080202,297271,247144
950.165,0.079046,315605,263086
953.978,0.078512,328029,273779
957.786,0.079270,340470,283667
961.59,0.079425,352317,293433
965.389,0.078925,363056,302725
969.185,0.079383,373162,310824
972.976,0.079913,382632,318323
976.763,0.080018,391202,325374
981.806,0.080334,400190,332608
985.583,0.081341,406088,336728
989.355,0.081265,410162,340166
993.124,0.081612,412868,342136
996.888,0.082512,414263,342582
1000.65,0.083121,415476,343103
1004.4,0.084489,415479,342027
1009.41,0.085778,414358,340093
1013.15,0.085981,412923,338757
1016.89,0.086483,411526,337221
1020.63,0.086142,409066,335468
1024.36,0.086391,406777,333400
1028.09,0.086236,404427,331592
1031.82,0.086365,401911,329431
1036.78,0.085512,398410,327204
1040.49,0.085784,396204,325188
1044.2,0.085333,394236,323909
1047.91,0.085277,392042,322148
1051.61,0.084732,389823,320727
1055.31,0.084613,388234,319507
1059,0.084245,387599,319255
1063.92,0.082825,386688,319548
1067.61,0.082213,386598,319924
1071.29,0.082206,387377,320574
1074.96,0.081770,388536,321856
1078.63,0.081221,389855,323357
1082.3,0.080754,391215,324834
1085.96,0.079655,393215,327322
1090.84,0.078800,396270,330515
1094.49,0.077543,398760,333556
1098.14,0.077588,400987,335384
1101.79,0.077348,403477,337653
1105.43,0.077296,406116,339902
1109.06,0.076264,407701,342041
1112.7,0.075892,409859,344146
1117.53,0.075717,412494,346498
1121.15,0.075900,414909,348380
1124.77,0.076411,416559,349354
1128.38,0.076792,418532,350701
1131.99,0.077954,419956,350954
1135.6,0.079351,421946,351484
1139.2,0.080827,423881,351898
1143.99,0.083067,426786,352487
1147.58,0.083650,428617,353524
1151.17,0.085003,431169,354523
1154.75,0.085329,433579,356237
1158.33,0.087419,436264,356722
1161.91,0.089192,439132,357605
1165.48,0.091126,442389,358656
1169.04,0.093550,446101,359653
1173.79,0.096472,451929,361908
1177.34,0.098596,456026,363407
1180.9,0.100624,461306,365902
1184.44,0.102934,467657,368972
1187.99,0.103180,473969,373740
1191.52,0.103424,479856,378170
1195.06,0.103161,487372,384326
1199.76,0.102591,497347,392707
1203.29,0.102328,504311,398447
1206.81,0.101447,511507,404953
1210.33,0.101045,519078,411327
1213.84,0.100678,527163,418087
1217.35,0.100221,534208,424121
1220.85,0.099009,540472,430293
1225.51,0.098438,549929,438398
1229.01,0.097643,556888,444759
1232.5,0.097503,562180,449130
1235.98,0.096799,567975,454496
1239.46,0.095493,574815,461355
1242.94,0.094877,582782,468413
1246.41,0.094083,591476,476271
1251.03,0.094161,604016,486281
1254.5,0.093992,612289,493134
1257.96,0.094276,619125,498313
1261.41,0.095354,624551,501434
1264.86,0.095553,629900,505497
1268.31,0.095906,634345,508650
1271.75,0.096771,638574,511023
1276.33,0.097006,642499,513886
1279.76,0.097089,645905,516511
1283.19,0.096268,648307,519413
1286.61,0.095891,650446,521579
1290.03,0.095890,652132,522932
1293.44,0.095567,653907,524746
1296.85,0.094981,655963,527107
1301.39,0.095077,657349,528104
1304.8,0.095350,657558,527939
1308.19,0.094835,658515,529335
1311.58,0.095016,658804,529347
1314.97,0.095611,659011,528788
1318.36,0.096233,658272,527439
1321.73,0.096574,658022,526825
1326.23,0.097321,657870,525798
1329.6,0.098154,656482,523684
1332.97,0.099172,654926,521219
1336.33,0.100494,653727,518684
1339.69,0.102051,652497,515855
1343.04,0.103526,649913,512070
1346.39,0.105298,647671,508226
1349.73,0.107669,645338,503638
1354.18,0.110683,641175,496928
1357.52,0.112725,638376,492438
1360.85,0.114573,635805,488372
1364.17,0.116465,633413,484420
1367.49,0.118893,631026,479904
1370.81,0.120716,628050,475640
1374.12,0.122941,625034,470937
1378.54,0.125795,620272,464288
1381.84,0.128736,616892,458641
1385.14,0.132939,613613,451810
1388.43,0.136608,611526,446485
1391.72,0.141489,610663,440872
1395.01,0.145676,610634,436621
1398.29,0.150385,611700,432667
1402.66,0.157813,614051,426964
1405.93,0.162918,616268,423498
1409.2,0.168258,617795,419359
1412.46,0.173208,618872,415330
1415.72,0.177297,619795,412051
1418.98,0.181011,620495,409004
1422.23,0.184639,621087,405988
1426.56,0.188263,621375,402801
1429.8,0.191464,621616,399998
1433.04,0.193817,622129,398165
1436.27,0.196335,621526,395480
1439.5,0.198084,621113,393629
1442.72,0.200185,620921,391608
1445.94,0.203115,620270,388567
1450.23,0.206263,618860,384884
1453.44,0.208763,617697,381955
1456.64,0.211309,616264,378842
1459.85,0.214231,614413,375171
1463.04,0.216682,612307,371781
1466.24,0.219870,610032,367691
1469.43,0.223358,607345,363143
1473.67,0.229052,603789,356314
1476.85,0.234362,601175,350460
1480.02,0.239549,597737,344319
1483.19,0.245605,594479,337700
1486.36,0.250980,591232,331725
1489.52,0.255190,587853,326647
1492.68,0.258603,583875,321897
1496.89,0.260171,578062,317544
1500.03,0.260730,574159,314994
1503.18,0.260507,570285,313029
1506.32,0.260078,565444,310679
1509.45,0.259260,560571,308582
1512.58,0.257408,555821,307275
1515.71,0.254726,550344,306132
1519.87,0.252418,543983,304206
1522.99,0.250184,538764,302841
1526.1,0.247649,533692,301746
1529.21,0.244690,527902,300513
1532.32,0.241534,521886,299255
1535.42,0.238809,515888,297678
1538.51,0.235280,509987,296674
1541.6,0.232708,503936,294895
1545.72,0.229171,494694,291854
1548.8,0.225166,488378,290797
1551.88,0.223175,481832,288218
1554.95,0.221449,474989,285256
1558.02,0.220167,467818,281780
1561.08,0.219464,460730,277960
1564.15,0.217999,454170,274928
1568.22,0.217866,444181,268964
1571.27,0.216439,436947,265454
1574.32,0.215868,429598,261333
1577.36,0.214312,422039,257656
1580.4,0.213029,414375,253726
1583.43,0.212228,406354,249274
1586.46,0.209669,398475,245885
1590.49,0.208028,388982,240936
1593.51,0.206179,380708,236817
1596.53,0.204063,372727,232985
1599.54,0.202201,365060,229173
1602.55,0.200396,357543,225389
1605.55,0.198312,349495,221375
1608.55,0.196751,341154,216870
1612.54,0.194753,330877,211307
1615.53,0.192137,322904,207461
1618.51,0.190359,315116,203288
1621.49,0.189799,307217,198448
1624.47,0.188498,299481,194031
1627.44,0.188089,292112,189435
1630.41,0.186502,284245,185008
1634.36,0.185513,274079,178798
1637.32,0.185526,266916,174120
1640.27,0.184500,259612,169756
1643.22,0.183281,251804,165113
1646.16,0.183194,244348,160256
1649.1,0.181815,236703,155736
1652.04,0.180046,228171,150735
1655.95,0.176598,215408,143438
1658.88,0.174497,204937,137127
1661.8,0.167896,193395,131386
1664.72,0.160089,179728,124316
1667.63,0.148438,163642,116267
1670.54,0.134988,146312,107224
1673.44,0.119070,128451,97649
1677.31,0.101621,105080,83157
1680.21,0.089739,88906,72309
1683.1,0.086045,75033,61547
1685.99,0.081446,63520,52658
1688.87,0.088683,53714,43793
1691.75,0.091021,45653,37021
1694.62,0.101338,39137,30992
1697.49,0.095335,33776,27119
1701.31,0.108964,28175,21923