File: samples/wool/wool-000811/Column 1_050559_20150331_120422.csv
Method:,Column 1,,
Host Date-Time:,31/3/15 @ 12:4:22,,
Header Version:,1,,
System Temp (C):,33.67,,
Detector Temp (C):,33.11,,
Humidity (%):,2.15,,
Lamp PD:,3819,,
Shift Vector Coefficients:,-10.5391,0.0761263,-0.000134223,,
Pixel to Wavelength Coefficients:,1775.68,-0.916766,-0.000235065,,
Serial Number:,5510004,,
Scan Config Name:,Column 1,,
Scan Config Type:,Slew,,
Section 1,,
Start wavelength (nm):,900,,
End wavelength (nm):,1700,,
Pattern Pixel Width (nm):,   7.03,,,,
Exposure (ms):,  0.635,,,,
Digital Resolution:,228,,
Num Repeats:,6,,
PGA Gain:,64,,
Total Measurement Time in sec:,  2.662,,
Wavelength (nm),Absorbance (AU),Reference Signal (unitless),Sample Signal (unitless)
901.51,0.034905,108485,100107
905.376,0.039601,121306,110734
909.237,0.041441,131909,119904
913.095,0.043129,143299,129752
916.948,0.044005,156982,141855
922.079,0.045790,179937,161931
925.923,0.046113,200504,180306
929.762,0.046799,222660,199914
933.597,0.048289,244426,218705
937.427,0.047347,263972,236707
941.254,0.046626,281845,253154
945.076,0.045741,297271,267554
950.165,0.046035,315605,283863
953.978,0.045518,328029,295389
957.786,0.046006,340470,306248
961.59,0.046543,352317,316512
965.389,0.046206,363056,326413
969.185,0.046452,373162,335309
972.976,0.047190,382632,343235
976.763,0.047791,391202,350437
981.806,0.047916,400190,358385
985.583,0.049109,406088,362670
989.355,0.049684,410162,365823
993.124,0.050204,412868,367796
996.888,0.050837,414263,368501
1000.65,0.051502,415476,369015
1004.4,0.052699,415479,368002
1009.41,0.054102,414358,365825
1013.15,0.054393,412923,364314
1016.89,0.054898,411526,362660
1020.63,0.054966,409066,360435
1024.36,0.055031,406777,358365
1028.09,0.054623,404427,356629
1031.82,0.054261,401911,354706
1036.78,0.053892,398410,351915
1040.49,0.053511,396204,350274
1044.2,0.053334,394236,348676
1047.91,0.052808,392042,347156
1051.61,0.052230,389823,345651
1055.31,0.051918,388234,344489
1059,0.050861,387599,344764
1063.92,0.050650,386688,344121
1067.61,0.049293,386598,345117
1071.29,0.048905,387377,346122
1074.96,0.048238,388536,347691
1078.63,0.047854,389855,349180
1082.3,0.047264,391215,350874
1085.96,0.046734,393215,353099
1090.84,0.046151,396270,356320
1094.49,0.045283,398760,359276
1098.14,0.044644,400987,361815
1101.79,0.044351,403477,364307
1105.43,0.044872,406116,366250
1109.06,0.044427,407701,368057
1112.7,0.044416,409859,370014
1117.53,0.044126,412494,372642
1121.15,0.045283,414909,373826
1124.77,0.045382,416559,375227
1128.38,0.046572,418532,375973
1131.99,0.048118,419956,375912
1135.6,0.049725,421946,376298
1139.2,0.051779,423881,376240
1143.99,0.054348,426786,376584
1147.58,0.055224,428617,377438
1151.17,0.056451,431169,378614
1154.75,0.058311,433579,379103
1158.33,0.059527,436264,380384
1161.91,0.061798,439132,380888
1165.48,0.064338,442389,381475
1169.04,0.066609,446101,382670
1173.79,0.070436,451929,384268
1177.34,0.072943,456026,385520
1180.9,0.075032,461306,388112
1184.44,0.076941,467657,391730
1187.99,0.078008,473969,396043
1191.52,0.077600,479856,401339
1195.06,0.077215,487372,407986
1199.76,0.076443,497347,417077
1203.29,0.075637,504311,423703
1206.81,0.075160,511507,430221
1210.33,0.074085,519078,437671
1213.84,0.073374,527163,445216
1217.35,0.072458,534208,452119
1220.85,0.071717,540472,458201
1225.51,0.070111,549929,467946
1229.01,0.069685,556888,474332
1232.5,0.069410,562180,479143
1235.98,0.068534,567975,485060
1239.46,0.067900,574815,491618
1242.94,0.066575,582782,499955
1246.41,0.066107,591476,507961
1251.03,0.065849,604016,519038
1254.5,0.066092,612289,525853
1257.96,0.066718,619125,530958
1261.41,0.066968,624551,535303
1264.86,0.067611,629900,539089
1268.31,0.068257,634345,542087
1271.75,0.068851,638574,544954
1276.33,0.069289,642499,547751
1279.76,0.069538,645905,550340
1283.19,0.068685,648307,553472
1286.61,0.068533,650446,555492
1290.03,0.068022,652132,557588
1293.44,0.067352,653907,559969
1296.85,0.067513,655963,561521
1301.39,0.067298,657349,562986
1304.8,0.067436,657558,562986
1308.19,0.067440,658515,563801
1311.58,0.067772,658804,563617
1314.97,0.068224,659011,563208
1318.36,0.069073,658272,561477
1321.73,0.069281,658022,560995
1326.23,0.070168,657870,559721
1329.6,0.071162,656482,557264
1332.97,0.071801,654926,555125
1336.33,0.073448,653727,552012
1339.69,0.075031,652497,548968
1343.04,0.076856,649913,544502
1346.39,0.079088,647671,539842
1349.73,0.081118,645338,535389
1354.18,0.084594,641175,527695
1357.52,0.086477,638376,523118
1360.85,0.088962,635805,518038
1364.17,0.091171,633413,513471
1367.49,0.094158,631026,508030
1370.81,0.095997,628050,503497
1374.12,0.098676,625034,497998
1378.54,0.102183,620272,490229
1381.84,0.105542,616892,483801
1385.14,0.109499,613613,476865
1388.43,0.114484,611526,469819
1391.72,0.119242,610663,464044
1395.01,0.123766,610634,459214
1398.29,0.129651,611700,453824
1402.66,0.137414,614051,447497
1405.93,0.143509,616268,442854
1409.2,0.148780,617795,438596
1412.46,0.154469,618872,433642
1415.72,0.158752,619795,430027
1418.98,0.163388,620495,425942
1422.23,0.166685,621087,423124
1426.56,0.171986,621375,418184
1429.8,0.174208,621616,416212
1433.04,0.177585,622129,413329
1436.27,0.179666,621526,410954
1439.5,0.181344,621113,409097
1442.72,0.183880,620921,406590
1445.94,0.186679,620270,403554
1450.23,0.190308,618860,399286
1453.44,0.192776,617697,396278
1456.64,0.196660,616264,391838
1459.85,0.199150,614413,388428
1463.04,0.202522,612307,384103
1466.24,0.204680,610032,380779
1469.43,0.208879,607345,375454
1473.67,0.214593,603789,368377
1476.85,0.219853,601175,362366
1480.02,0.225746,597737,355438
1483.19,0.232129,594479,348343
1486.36,0.237971,591232,341812
1489.52,0.243029,587853,335923
1492.68,0.246975,583875,330632
1496.89,0.249099,578062,325743
1500.03,0.249628,574159,323150
1503.18,0.249421,570285,321123
1506.32,0.248821,565444,318837
1509.45,0.247336,560571,317172
1512.58,0.245996,555821,315456
1515.71,0.243454,550344,314181
1519.87,0.240507,543983,312664
1522.99,0.237291,538764,311966
1526.1,0.234525,533692,311004
1529.21,0.231740,527902,309609
1532.32,0.228768,521886,308182
1535.42,0.225693,515888,306805
1538.51,0.222220,509987,305731
1541.6,0.219873,503936,303740
1545.72,0.214653,494694,301775
1548.8,0.212483,488378,299415
1551.88,0.209412,481832,297498
1554.95,0.207169,474989,294791
1558.02,0.205595,467818,291395
1561.08,0.204256,460730,287866
1564.15,0.203463,454170,284286
1568.22,0.202470,444181,278670
1571.27,0.201393,436947,274812
1574.32,0.200877,429598,270511
1577.36,0.199465,422039,266617
1580.4,0.198306,414375,262475
1583.43,0.195824,406354,258869
1586.46,0.194437,398475,254662
1590.49,0.192153,388982,249906
1593.51,0.189339,380708,246180
1596.53,0.187036,372727,242301
1599.54,0.185528,365060,238142
1602.55,0.183868,357543,234132
1605.55,0.181232,349495,230255
1608.55,0.177767,341154,226560
1612.54,0.176624,330877,220314
1615.53,0.174537,322904,216041
1618.51,0.172901,315116,211626
1621.49,0.172269,307217,206622
1624.47,0.170749,299481,202125
1627.44,0.169560,292112,197692
1630.41,0.167522,284245,193273
1634.36,0.166604,274079,186755
1637.32,0.167173,266916,181636
1640.27,0.166074,259612,177113
1643.22,0.163607,251804,172765
1646.16,0.164303,244348,167381
1649.1,0.162910,236703,162665
1652.04,0.160740,228171,157587
1655.95,0.157738,215408,149804
1658.88,0.157169,204937,142709
1661.8,0.151933,193395,136305
1664.72,0.147114,179728,128086
1667.63,0.137458,163642,119244
1670.54,0.126013,146312,109463
1673.44,0.114614,128451,98656
1677.31,0.101496,105080,83181
1680.21,0.092649,88906,71826
1683.1,0.094683,75033,60335
1685.99,0.100747,63520,50369
1688.87,0.102384,53714,42433
1691.75,0.107788,45653,35619
1694.62,0.109485,39137,30416
1697.49,0.119047,33776,25678
1701.31,0.128867,28175,20941