File: samples/wool/wool-000811/Column 1_050574_20150331_121117.csv
Method:,Column 1,,
Host Date-Time:,31/3/15 @ 12:11:17,,
Header Version:,1,,
System Temp (C):,34.17,,
Detector Temp (C):,34.4,,
Humidity (%):,1.66,,
Lamp PD:,3818,,
Shift Vector Coefficients:,-10.5391,0.0761263,-0.000134223,,
Pixel to Wavelength Coefficients:,1775.68,-0.916766,-0.000235065,,
Serial Number:,5510004,,
Scan Config Name:,Column 1,,
Scan Config Type:,Slew,,
Section 1,,
Start wavelength (nm):,900,,
End wavelength (nm):,1700,,
Pattern Pixel Width (nm):,   7.03,,,,
Exposure (ms):,  0.635,,,,
Digital Resolution:,228,,
Num Repeats:,6,,
PGA Gain:,64,,
Total Measurement Time in sec:,  2.692,,
Wavelength (nm),Absorbance (AU),Reference Signal (unitless),Sample Signal (unitless)
901.51,0.033939,108485,100330
905.376,0.040453,121306,110517
909.237,0.043230,131909,119411
913.095,0.044235,143299,129422
916.948,0.044728,156982,141619
922.079,0.047772,179937,161194
925.923,0.049542,200504,178888
929.762,0.050769,222660,198095
933.597,0.049964,244426,217863
937.427,0.048821,263972,235905
941.254,0.048307,281845,252176
945.076,0.047323,297271,266581
950.165,0.046824,315605,283348
953.978,0.046590,328029,294661
957.786,0.046262,340470,306067
961.59,0.046795,352317,316329
965.389,0.047149,363056,325705
969.185,0.047047,373162,334850
972.976,0.047113,382632,343296
976.763,0.047681,391202,350526
981.806,0.048416,400190,357973
985.583,0.049098,406088,362679
989.355,0.050553,410162,365092
993.124,0.050782,412868,367307
996.888,0.050652,414263,368658
1000.65,0.051736,415476,368816
1004.4,0.052648,415479,368045
1009.41,0.054309,414358,365651
1013.15,0.054688,412923,364067
1016.89,0.054713,411526,362814
1020.63,0.055252,409066,360198
1024.36,0.054821,406777,358538
1028.09,0.054519,404427,356715
1031.82,0.054516,401911,354498
1036.78,0.053994,398410,351833
1040.49,0.053487,396204,350293
1044.2,0.053233,394236,348757
1047.91,0.052608,392042,347316
1051.61,0.052564,389823,345385
1055.31,0.051558,388234,344775
1059,0.052001,387599,343860
1063.92,0.050513,386688,344229
1067.61,0.049152,386598,345229
1071.29,0.048674,387377,346306
1074.96,0.048510,388536,347473
1078.63,0.048636,389855,348552
1082.3,0.047270,391215,350869
1085.96,0.046939,393215,352932
1090.84,0.045868,396270,356552
1094.49,0.045571,398760,359038
1098.14,0.045015,400987,361506
1101.79,0.044627,403477,364076
1105.43,0.044795,406116,366315
1109.06,0.044066,407701,368363
1112.7,0.044141,409859,370249
1117.53,0.043927,412494,372813
1121.15,0.044812,414909,374232
1124.77,0.045173,416559,375408
1128.38,0.046485,418532,376048
1131.99,0.047483,419956,376462
1135.6,0.049859,421946,376182
1139.2,0.051429,423881,376543
1143.99,0.053756,426786,377098
1147.58,0.055364,428617,377316
1151.17,0.056107,431169,378914
1154.75,0.057362,433579,379932
1158.33,0.058771,436264,381047
1161.91,0.061032,439132,381560
1165.48,0.063508,442389,382205
1169.04,0.066123,446101,383098
1173.79,0.070395,451929,384304
1177.34,0.071924,456026,386425
1180.9,0.074585,461306,388512
1184.44,0.076744,467657,391907
1187.99,0.077474,473969,396530
1191.52,0.076864,479856,402019
1195.06,0.077012,487372,408177
1199.76,0.075448,497347,418034
1203.29,0.074679,504311,424639
1206.81,0.073768,511507,431602
1210.33,0.073135,519078,438629
1213.84,0.072689,527163,445919
1217.35,0.071704,534208,452904
1220.85,0.071296,540472,458646
1225.51,0.070076,549929,467984
1229.01,0.069831,556888,474173
1232.5,0.069010,562180,479585
1235.98,0.068251,567975,485376
1239.46,0.066984,574815,492656
1242.94,0.066441,582782,500110
1246.41,0.065459,591476,508719
1251.03,0.065326,604016,519664
1254.5,0.065844,612289,526153
1257.96,0.066207,619125,531583
1261.41,0.066294,624551,536135
1264.86,0.067247,629900,539541
1268.31,0.068015,634345,542388
1271.75,0.068745,638574,545088
1276.33,0.069017,642499,548094
1279.76,0.068896,645905,551154
1283.19,0.068539,648307,553658
1286.61,0.067941,650446,556250
1290.03,0.067697,652132,558006
1293.44,0.066914,653907,560534
1296.85,0.066880,655963,562341
1301.39,0.066368,657349,564193
1304.8,0.066320,657558,564435
1308.19,0.066716,658515,564742
1311.58,0.066999,658804,564621
1314.97,0.067963,659011,563547
1318.36,0.068308,658272,562467
1321.73,0.068414,658022,562116
1326.23,0.069418,657870,560689
1329.6,0.069783,656482,559036
1332.97,0.070838,654926,556358
1336.33,0.071982,653727,553878
1339.69,0.073764,652497,550572
1343.04,0.075505,649913,546198
1346.39,0.077742,647671,541518
1349.73,0.079310,645338,537622
1354.18,0.082839,641175,529831
1357.52,0.084989,638376,524913
1360.85,0.087327,635805,519992
1364.17,0.089341,633413,515639
1367.49,0.091930,631026,510643
1370.81,0.094373,628050,505384
1374.12,0.096848,625034,500099
1378.54,0.100254,620272,492411
1381.84,0.103362,616892,486236
1385.14,0.106913,613613,479713
1388.43,0.111433,611526,473132
1391.72,0.115940,610663,467586
1395.01,0.120641,610634,462530
1398.29,0.125464,611700,458220
1402.66,0.132660,614051,452423
1405.93,0.138000,616268,448507
1409.2,0.142949,617795,444524
1412.46,0.147864,618872,440288
1415.72,0.152972,619795,435789
1418.98,0.156685,620495,432567
1422.23,0.160267,621087,429423
1426.56,0.164652,621375,425306
1429.8,0.166941,621616,423235
1433.04,0.169407,622129,421186
1436.27,0.172210,621526,418070
1439.5,0.174480,621113,415614
1442.72,0.176510,620921,413548
1445.94,0.178857,620270,410888
1450.23,0.183097,618860,405971
1453.44,0.186180,617697,402342
1456.64,0.188918,616264,398886
1459.85,0.192301,614413,394602
1463.04,0.195119,612307,390706
1466.24,0.198601,610032,386146
1469.43,0.202398,607345,381099
1473.67,0.208485,603789,373594
1476.85,0.214666,601175,366720
1480.02,0.221054,597737,359299
1483.19,0.228203,594479,351507
1486.36,0.234793,591232,344322
1489.52,0.239520,587853,338648
1492.68,0.243189,583875,333527
1496.89,0.245964,578062,328103
1500.03,0.246485,574159,325497
1503.18,0.247157,570285,322801
1506.32,0.245943,565444,320957
1509.45,0.244111,560571,319536
1512.58,0.243130,555821,317545
1515.71,0.240786,550344,316117
1519.87,0.237074,543983,315146
1522.99,0.234339,538764,314094
1526.1,0.232220,533692,312659
1529.21,0.228935,527902,311615
1532.32,0.225510,521886,310503
1535.42,0.222739,515888,308899
1538.51,0.219375,509987,307740
1541.6,0.216533,503936,306085
1545.72,0.211659,494694,303863
1548.8,0.208695,488378,302038
1551.88,0.205654,481832,300083
1554.95,0.203490,474989,297299
1558.02,0.201518,467818,294143
1561.08,0.200454,460730,290397
1564.15,0.200039,454170,286536
1568.22,0.199282,444181,280723
1571.27,0.198274,436947,276793
1574.32,0.197458,429598,272649
1577.36,0.195302,422039,269185
1580.4,0.194380,414375,264858
1583.43,0.192694,406354,260742
1586.46,0.191231,398475,256549
1590.49,0.187997,388982,252309
1593.51,0.186738,380708,247659
1596.53,0.183898,372727,244058
1599.54,0.182247,365060,239948
1602.55,0.179394,357543,236556
1605.55,0.178438,349495,231741
1608.55,0.175683,341154,227650
1612.54,0.174263,330877,221515
1615.53,0.171283,322904,217666
1618.51,0.171028,315116,212541
1621.49,0.169065,307217,208152
1624.47,0.167969,299481,203423
1627.44,0.167017,292112,198853
1630.41,0.165889,284245,194001
1634.36,0.164152,274079,187812
1637.32,0.163829,266916,183040
1640.27,0.163266,259612,178262
1643.22,0.160716,251804,173919
1646.16,0.159714,244348,169159
1649.1,0.159824,236703,163825
1652.04,0.157590,228171,158734
1655.95,0.155777,215408,150482
1658.88,0.152324,204937,144310
1661.8,0.147300,193395,137767
1664.72,0.141037,179728,129891
1667.63,0.129340,163642,121494
1670.54,0.116229,146312,111957
1673.44,0.103064,128451,101315
1677.31,0.084404,105080,86520
1680.21,0.075175,88906,74775
1683.1,0.069629,75033,63918
1685.99,0.070943,63520,53947
1688.87,0.077744,53714,44910
1691.75,0.082472,45653,37757
1694.62,0.082754,39137,32347
1697.49,0.094439,33776,27175
1701.31,0.102553,28175,22249