File: samples/wool/wool-000811/Column 1_050545_20150331_115743.csv
Method:,Column 1,,
Host Date-Time:,31/3/15 @ 11:57:43,,
Header Version:,1,,
System Temp (C):,32.93,,
Detector Temp (C):,31.43,,
Humidity (%):,2.54,,
Lamp PD:,3823,,
Shift Vector Coefficients:,-10.5391,0.0761263,-0.000134223,,
Pixel to Wavelength Coefficients:,1775.68,-0.916766,-0.000235065,,
Serial Number:,5510004,,
Scan Config Name:,Column 1,,
Scan Config Type:,Slew,,
Section 1,,
Start wavelength (nm):,900,,
End wavelength (nm):,1700,,
Pattern Pixel Width (nm):,   7.03,,,,
Exposure (ms):,  0.635,,,,
Digital Resolution:,228,,
Num Repeats:,6,,
PGA Gain:,64,,
Total Measurement Time in sec:,  2.675,,
Wavelength (nm),Absorbance (AU),Reference Signal (unitless),Sample Signal (unitless)
901.51,0.044889,108485,97832
905.376,0.051356,121306,107777
909.237,0.052237,131909,116960
913.095,0.053117,143299,126802
916.948,0.053961,156982,138640
922.079,0.053456,179937,159098
925.923,0.054850,200504,176715
929.762,0.055114,222660,196123
933.597,0.055990,244426,214861
937.427,0.055995,263972,232040
941.254,0.056212,281845,247627
945.076,0.055417,297271,261659
950.165,0.054754,315605,278221
953.978,0.054945,328029,289046
957.786,0.054777,340470,300125
961.59,0.055620,352317,309966
965.389,0.055476,363056,319520
969.185,0.056420,373162,327701
972.976,0.056438,382632,336003
976.763,0.057362,391202,342799
981.806,0.058422,400190,349820
985.583,0.058830,406088,354642
989.355,0.059398,410162,357732
993.124,0.059593,412868,359930
996.888,0.060256,414263,360595
1000.65,0.061068,415476,360976
1004.4,0.062224,415479,360019
1009.41,0.063939,414358,357632
1013.15,0.064141,412923,356228
1016.89,0.064646,411526,354610
1020.63,0.063894,409066,353101
1024.36,0.063692,406777,351289
1028.09,0.064134,404427,348904
1031.82,0.063439,401911,347289
1036.78,0.062894,398410,344696
1040.49,0.062815,396204,342850
1044.2,0.062124,394236,341690
1047.91,0.061671,392042,340143
1051.61,0.060800,389823,338897
1055.31,0.059546,388234,338491
1059,0.058961,387599,338393
1063.92,0.058363,386688,338063
1067.61,0.056374,386598,339536
1071.29,0.056243,387377,340323
1074.96,0.055780,388536,341705
1078.63,0.055053,389855,343439
1082.3,0.053726,391215,345692
1085.96,0.053080,393215,347977
1090.84,0.052925,396270,350805
1094.49,0.052315,398760,353506
1098.14,0.051332,400987,356286
1101.79,0.051525,403477,358339
1105.43,0.051216,406116,360939
1109.06,0.050738,407701,362747
1112.7,0.050896,409859,364534
1117.53,0.050762,412494,366991
1121.15,0.051588,414909,368438
1124.77,0.052231,416559,369356
1128.38,0.053345,418532,370155
1131.99,0.055219,419956,369815
1135.6,0.057639,421946,369503
1139.2,0.059434,423881,369666
1143.99,0.062697,426786,369414
1147.58,0.063595,428617,370232
1151.17,0.064895,431169,371324
1154.75,0.066595,433579,371940
1158.33,0.068100,436264,372949
1161.91,0.070588,439132,373256
1165.48,0.074356,442389,372776
1169.04,0.076495,446101,374057
1173.79,0.080792,451929,375213
1177.34,0.083626,456026,376152
1180.9,0.086233,461306,378230
1184.44,0.088132,467657,381764
1187.99,0.088744,473969,386372
1191.52,0.088297,479856,391574
1195.06,0.087255,487372,398663
1199.76,0.086210,497347,407802
1203.29,0.085254,504311,414424
1206.81,0.083713,511507,421831
1210.33,0.082314,519078,429456
1213.84,0.081743,527163,436719
1217.35,0.080630,534208,443691
1220.85,0.079238,540472,450334
1225.51,0.078097,549929,459420
1229.01,0.077580,556888,465787
1232.5,0.076662,562180,471209
1235.98,0.075333,567975,477525
1239.46,0.074300,574815,484427
1242.94,0.073318,582782,492253
1246.41,0.072642,591476,500375
1251.03,0.071897,604016,511860
1254.5,0.071962,612289,518793
1257.96,0.072689,619125,523708
1261.41,0.073200,624551,527677
1264.86,0.073888,629900,531354
1268.31,0.074171,634345,534755
1271.75,0.075265,638574,536965
1276.33,0.075424,642499,540068
1279.76,0.075247,645905,543152
1283.19,0.074810,648307,545721
1286.61,0.074573,650446,547821
1290.03,0.074244,652132,549657
1293.44,0.073151,653907,552541
1296.85,0.073126,655963,554311
1301.39,0.072996,657349,555648
1304.8,0.073265,657558,555481
1308.19,0.073195,658515,556379
1311.58,0.073255,658804,556546
1314.97,0.074115,659011,555620
1318.36,0.074486,658272,554523
1321.73,0.075281,658022,553299
1326.23,0.076301,657870,551873
1329.6,0.077130,656482,549658
1332.97,0.078210,654926,546993
1336.33,0.079588,653727,544263
1339.69,0.080922,652497,541573
1343.04,0.083493,649913,536244
1346.39,0.086145,647671,531141
1349.73,0.088208,645338,526719
1354.18,0.091634,641175,519209
1357.52,0.093770,638376,514407
1360.85,0.096893,635805,508664
1364.17,0.098997,633413,504301
1367.49,0.102021,631026,498915
1370.81,0.104186,628050,494092
1374.12,0.107020,625034,488521
1378.54,0.111236,620272,480116
1381.84,0.114469,616892,473958
1385.14,0.119472,613613,466039
1388.43,0.123929,611526,459712
1391.72,0.130131,610663,452554
1395.01,0.135869,610634,446593
1398.29,0.141731,611700,441375
1402.66,0.150082,614051,434633
1405.93,0.156132,616268,430168
1409.2,0.162400,617795,425054
1412.46,0.168835,618872,419533
1415.72,0.173401,619795,415764
1418.98,0.178187,620495,411672
1422.23,0.182714,621087,407792
1426.56,0.187294,621375,403701
1429.8,0.190036,621616,401316
1433.04,0.192689,622129,399201
1436.27,0.195398,621526,396334
1439.5,0.197441,621113,394212
1442.72,0.201003,620921,390871
1445.94,0.202785,620270,388862
1450.23,0.206645,618860,384545
1453.44,0.210006,617697,380864
1456.64,0.212365,616264,377922
1459.85,0.215332,614413,374221
1463.04,0.217986,612307,370666
1466.24,0.220853,610032,366859
1469.43,0.224226,607345,362418
1473.67,0.230149,603789,355415
1476.85,0.235469,601175,349568
1480.02,0.240884,597737,343262
1483.19,0.248284,594479,335624
1486.36,0.254117,591232,329337
1489.52,0.258907,587853,323863
1492.68,0.262209,583875,319235
1496.89,0.265364,578062,313769
1500.03,0.265952,574159,311229
1503.18,0.266840,570285,308498
1506.32,0.265800,565444,306612
1509.45,0.265244,560571,304359
1512.58,0.263462,555821,303021
1515.71,0.261066,550344,301695
1519.87,0.257838,543983,300433
1522.99,0.255151,538764,299397
1526.1,0.252613,533692,298317
1529.21,0.249202,527902,297407
1532.32,0.245908,521886,296256
1535.42,0.243357,515888,294577
1538.51,0.239519,509987,293792
1541.6,0.236561,503936,292290
1545.72,0.231397,494694,290362
1548.8,0.227667,488378,289127
1551.88,0.224990,481832,287016
1554.95,0.223165,474989,284131
1558.02,0.221014,467818,281231
1561.08,0.219525,460730,277921
1564.15,0.218951,454170,274326
1568.22,0.217758,444181,269031
1571.27,0.217096,436947,265053
1574.32,0.215429,429598,261597
1577.36,0.214129,422039,257765
1580.4,0.213088,414375,253691
1583.43,0.211143,406354,249897
1586.46,0.209113,398475,246200
1590.49,0.205983,388982,242073
1593.51,0.204035,380708,237989
1596.53,0.201383,372727,234427
1599.54,0.199151,365060,230788
1602.55,0.196966,357543,227176
1605.55,0.195253,349495,222940
1608.55,0.191858,341154,219327
1612.54,0.189653,330877,213803
1615.53,0.186788,322904,210032
1618.51,0.186018,315116,205330
1621.49,0.184744,307217,200771
1624.47,0.182753,299481,196615
1627.44,0.181688,292112,192248
1630.41,0.180520,284245,187574
1634.36,0.178466,274079,181723
1637.32,0.177730,266916,177274
1640.27,0.176681,259612,172840
1643.22,0.175126,251804,168243
1646.16,0.173902,244348,163722
1649.1,0.172397,236703,159150
1652.04,0.172285,228171,153453
1655.95,0.170083,215408,145606
1658.88,0.168100,204937,139162
1661.8,0.165779,193395,132028
1664.72,0.162668,179728,123580
1667.63,0.154843,163642,114565
1670.54,0.147583,146312,104159
1673.44,0.141049,128451,92830
1677.31,0.133183,105080,77328
1680.21,0.131776,88906,65638
1683.1,0.131476,75033,55434
1685.99,0.138240,63520,46203
1688.87,0.139101,53714,38993
1691.75,0.146812,45653,32558
1694.62,0.152135,39137,27571
1697.49,0.148198,33776,24011
1701.31,0.155133,28175,19712