File: samples/wool/wool-000811/Column 1_050602_20150331_122429.csv
Method:,Column 1,,
Host Date-Time:,31/3/15 @ 12:24:29,,
Header Version:,1,,
System Temp (C):,34.01,,
Detector Temp (C):,34.77,,
Humidity (%):,1.76,,
Lamp PD:,3819,,
Shift Vector Coefficients:,-10.5391,0.0761263,-0.000134223,,
Pixel to Wavelength Coefficients:,1775.68,-0.916766,-0.000235065,,
Serial Number:,5510004,,
Scan Config Name:,Column 1,,
Scan Config Type:,Slew,,
Section 1,,
Start wavelength (nm):,900,,
End wavelength (nm):,1700,,
Pattern Pixel Width (nm):,   7.03,,,,
Exposure (ms):,  0.635,,,,
Digital Resolution:,228,,
Num Repeats:,6,,
PGA Gain:,64,,
Total Measurement Time in sec:,  2.669,,
Wavelength (nm),Absorbance (AU),Reference Signal (unitless),Sample Signal (unitless)
901.51,0.070931,108485,92138
905.376,0.074648,121306,102149
909.237,0.076044,131909,110721
913.095,0.077486,143299,119883
916.948,0.077532,156982,131316
922.079,0.080566,179937,149470
925.923,0.082449,200504,165834
929.762,0.082089,222660,184312
933.597,0.082493,244426,202141
937.427,0.080393,263972,219364
941.254,0.079977,281845,234441
945.076,0.079734,297271,247411
950.165,0.078780,315605,263247
953.978,0.077740,328029,274266
957.786,0.077707,340470,284690
961.59,0.078403,352317,294124
965.389,0.077779,363056,303525
969.185,0.077771,373162,311980
972.976,0.078773,382632,319160
976.763,0.078779,391202,326304
981.806,0.078793,400190,333790
985.583,0.079571,406088,338103
989.355,0.080187,410162,341011
993.124,0.080822,412868,342759
996.888,0.081267,414263,343565
1000.65,0.081608,415476,344301
1004.4,0.083166,415479,343070
1009.41,0.084253,414358,341289
1013.15,0.084825,412923,339660
1016.89,0.085506,411526,337980
1020.63,0.084937,409066,336400
1024.36,0.085046,406777,334434
1028.09,0.084798,404427,332692
1031.82,0.084831,401911,330597
1036.78,0.084471,398410,327989
1040.49,0.083750,396204,326715
1044.2,0.084449,394236,324569
1047.91,0.084107,392042,323017
1051.61,0.083603,389823,321562
1055.31,0.083196,388234,320551
1059,0.082778,387599,320335
1063.92,0.082151,386688,320044
1067.61,0.081330,386598,320575
1071.29,0.081043,387377,321433
1074.96,0.080319,388536,322933
1078.63,0.079354,389855,324750
1082.3,0.078691,391215,326381
1085.96,0.078005,393215,328568
1090.84,0.076820,396270,332025
1094.49,0.076423,398760,334417
1098.14,0.075810,400987,336760
1101.79,0.075161,403477,339358
1105.43,0.075013,406116,341694
1109.06,0.074368,407701,343537
1112.7,0.074150,409859,345529
1117.53,0.074187,412494,347721
1121.15,0.074446,414909,349548
1124.77,0.074217,416559,351123
1128.38,0.075537,418532,351716
1131.99,0.076771,419956,351911
1135.6,0.078299,421946,352337
1139.2,0.079448,423881,353017
1143.99,0.081289,426786,353933
1147.58,0.082120,428617,354772
1151.17,0.083189,431169,356007
1154.75,0.083871,433579,357435
1158.33,0.085573,436264,358242
1161.91,0.087377,439132,359102
1165.48,0.089323,442389,360148
1169.04,0.091575,446101,361292
1173.79,0.094865,451929,363250
1177.34,0.097122,456026,364643
1180.9,0.098682,461306,367542
1184.44,0.100920,467657,370687
1187.99,0.101697,473969,375019
1191.52,0.101071,479856,380224
1195.06,0.101906,487372,385438
1199.76,0.100963,497347,394182
1203.29,0.100037,504311,400554
1206.81,0.099694,511507,406591
1210.33,0.099381,519078,412906
1213.84,0.099027,527163,419680
1217.35,0.098428,534208,425875
1220.85,0.097317,540472,431973
1225.51,0.096412,549929,440448
1229.01,0.095777,556888,446674
1232.5,0.095654,562180,451047
1235.98,0.094504,567975,456904
1239.46,0.094163,574815,462770
1242.94,0.093112,582782,470321
1246.41,0.092325,591476,478203
1251.03,0.092100,604016,488594
1254.5,0.092326,612289,495029
1257.96,0.092868,619125,499931
1261.41,0.093664,624551,503389
1264.86,0.093835,629900,507501
1268.31,0.094523,634345,510273
1271.75,0.095214,638574,512858
1276.33,0.095410,642499,515777
1279.76,0.095153,645905,518819
1283.19,0.094530,648307,521496
1286.61,0.094342,650446,523443
1290.03,0.093770,652132,525491
1293.44,0.093337,653907,527447
1296.85,0.093118,655963,529372
1301.39,0.092549,657349,531187
1304.8,0.092908,657558,530916
1308.19,0.093023,658515,531548
1311.58,0.093171,658804,531600
1314.97,0.093640,659011,531194
1318.36,0.094175,658272,529945
1321.73,0.094522,658022,529320
1326.23,0.095107,657870,528485
1329.6,0.096139,656482,526119
1332.97,0.096822,654926,524047
1336.33,0.097960,653727,521719
1339.69,0.099293,652497,519141
1343.04,0.100841,649913,515245
1346.39,0.102454,647671,511565
1349.73,0.104814,645338,506960
1354.18,0.107740,641175,500307
1357.52,0.110000,638376,495538
1360.85,0.111563,635805,491769
1364.17,0.113611,633413,487614
1367.49,0.115959,631026,483157
1370.81,0.118061,628050,478556
1374.12,0.119993,625034,474144
1378.54,0.123350,620272,466909
1381.84,0.126556,616892,460949
1385.14,0.129482,613613,455420
1388.43,0.133134,611526,450071
1391.72,0.137110,610663,445340
1395.01,0.141452,610634,440889
1398.29,0.146159,611700,436897
1402.66,0.152271,614051,432448
1405.93,0.157277,616268,429035
1409.2,0.162045,617795,425402
1412.46,0.166499,618872,421795
1415.72,0.170168,619795,418871
1418.98,0.174101,620495,415563
1422.23,0.177318,621087,412890
1426.56,0.181540,621375,409085
1429.8,0.183988,621616,406944
1433.04,0.186296,622129,405121
1436.27,0.188567,621526,402617
1439.5,0.189963,621113,401058
1442.72,0.193448,620921,397730
1445.94,0.195753,620270,395210
1450.23,0.198903,618860,391462
1453.44,0.201044,617697,388805
1456.64,0.204254,616264,385046
1459.85,0.207069,614413,381409
1463.04,0.210294,612307,377290
1466.24,0.213138,610032,373435
1469.43,0.217043,607345,368462
1473.67,0.222592,603789,361654
1476.85,0.228367,601175,355332
1480.02,0.234083,597737,348680
1483.19,0.240904,594479,341376
1486.36,0.246217,591232,335383
1489.52,0.251027,587853,329793
1492.68,0.254064,583875,325279
1496.89,0.256959,578062,319901
1500.03,0.256636,574159,317977
1503.18,0.257186,570285,315432
1506.32,0.256310,565444,313386
1509.45,0.254633,560571,311887
1512.58,0.253120,555821,310324
1515.71,0.250697,550344,308985
1519.87,0.248055,543983,307277
1522.99,0.245541,538764,306096
1526.1,0.242521,533692,305330
1529.21,0.240410,527902,303489
1532.32,0.236952,521886,302429
1535.42,0.233905,515888,301058
1538.51,0.230954,509987,299644
1541.6,0.229365,503936,297174
1545.72,0.224606,494694,294938
1548.8,0.221880,488378,293006
1551.88,0.219624,481832,290584
1554.95,0.217222,474989,288046
1558.02,0.215310,467818,284949
1561.08,0.214379,460730,281234
1564.15,0.213733,454170,277642
1568.22,0.213459,444181,271707
1571.27,0.211897,436947,268245
1574.32,0.211618,429598,263903
1577.36,0.209850,422039,260317
1580.4,0.210015,414375,255493
1583.43,0.207158,406354,252201
1586.46,0.206170,398475,247874
1590.49,0.204593,388982,242849
1593.51,0.202152,380708,239023
1596.53,0.200728,372727,234781
1599.54,0.198677,365060,231040
1602.55,0.195826,357543,227773
1605.55,0.194718,349495,223215
1608.55,0.192152,341154,219179
1612.54,0.190804,330877,213237
1615.53,0.189143,322904,208896
1618.51,0.188145,315116,204327
1621.49,0.187446,307217,199526
1624.47,0.185585,299481,195337
1627.44,0.184596,292112,190965
1630.41,0.184278,284245,185958
1634.36,0.182726,274079,179949
1637.32,0.182001,266916,175539
1640.27,0.180796,259612,171210
1643.22,0.180053,251804,166345
1646.16,0.179785,244348,161519
1649.1,0.179645,236703,156516
1652.04,0.176674,228171,151910
1655.95,0.174269,215408,144209
1658.88,0.169986,204937,138559
1661.8,0.164908,193395,132293
1664.72,0.157734,179728,124992
1667.63,0.144712,163642,117269
1670.54,0.132089,146312,107942
1673.44,0.113238,128451,98969
1677.31,0.095347,105080,84367
1680.21,0.082992,88906,73441
1683.1,0.079692,75033,62454
1685.99,0.081372,63520,52667
1688.87,0.079586,53714,44720
1691.75,0.085693,45653,37478
1694.62,0.089628,39137,31839
1697.49,0.094822,33776,27151
1701.31,0.103746,28175,22188