File: samples/wool/wool-000811/Column 1_050614_20150331_123006.csv
Method:,Column 1,,
Host Date-Time:,31/3/15 @ 12:30:6,,
Header Version:,1,,
System Temp (C):,34.09,,
Detector Temp (C):,34.98,,
Humidity (%):,1.66,,
Lamp PD:,3818,,
Shift Vector Coefficients:,-10.5391,0.0761263,-0.000134223,,
Pixel to Wavelength Coefficients:,1775.68,-0.916766,-0.000235065,,
Serial Number:,5510004,,
Scan Config Name:,Column 1,,
Scan Config Type:,Slew,,
Section 1,,
Start wavelength (nm):,900,,
End wavelength (nm):,1700,,
Pattern Pixel Width (nm):,   7.03,,,,
Exposure (ms):,  0.635,,,,
Digital Resolution:,228,,
Num Repeats:,6,,
PGA Gain:,64,,
Total Measurement Time in sec:,  2.666,,
Wavelength (nm),Absorbance (AU),Reference Signal (unitless),Sample Signal (unitless)
901.51,0.069195,108485,92507
905.376,0.073727,121306,102366
909.237,0.077022,131909,110472
913.095,0.079606,143299,119299
916.948,0.078221,156982,131108
922.079,0.080285,179937,149567
925.923,0.082570,200504,165788
929.762,0.083134,222660,183869
933.597,0.082467,244426,202153
937.427,0.081098,263972,219008
941.254,0.080412,281845,234206
945.076,0.079932,297271,247298
950.165,0.078683,315605,263306
953.978,0.077248,328029,274577
957.786,0.077377,340470,284906
961.59,0.077592,352317,294674
965.389,0.077546,363056,303688
969.185,0.077904,373162,311884
972.976,0.078183,382632,319594
976.763,0.078821,391202,326272
981.806,0.079247,400190,333441
985.583,0.079499,406088,338159
989.355,0.080013,410162,341148
993.124,0.080807,412868,342771
996.888,0.080655,414263,344050
1000.65,0.081936,415476,344041
1004.4,0.082909,415479,343273
1009.41,0.083751,414358,341684
1013.15,0.084370,412923,340016
1016.89,0.084898,411526,338454
1020.63,0.084745,409066,336549
1024.36,0.084908,406777,334540
1028.09,0.084552,404427,332880
1031.82,0.084180,401911,331093
1036.78,0.084139,398410,328240
1040.49,0.083755,396204,326711
1044.2,0.084194,394236,324760
1047.91,0.083250,392042,323655
1051.61,0.083142,389823,321903
1055.31,0.083079,388234,320638
1059,0.081863,387599,321011
1063.92,0.081859,386688,320259
1067.61,0.080851,386598,320929
1071.29,0.080119,387377,322118
1074.96,0.079991,388536,323177
1078.63,0.078802,389855,325163
1082.3,0.078256,391215,326708
1085.96,0.077517,393215,328937
1090.84,0.076603,396270,332191
1094.49,0.076078,398760,334683
1098.14,0.075705,400987,336841
1101.79,0.074420,403477,339937
1105.43,0.075015,406116,341692
1109.06,0.074109,407701,343742
1112.7,0.074056,409859,345604
1117.53,0.073029,412494,348649
1121.15,0.073766,414909,350096
1124.77,0.074428,416559,350953
1128.38,0.074890,418532,352240
1131.99,0.075982,419956,352551
1135.6,0.077737,421946,352793
1139.2,0.078535,423881,353760
1143.99,0.080811,426786,354323
1147.58,0.082121,428617,354771
1151.17,0.083204,431169,355995
1154.75,0.083196,433579,357991
1158.33,0.084504,436264,359125
1161.91,0.086452,439132,359868
1165.48,0.088593,442389,360754
1169.04,0.089969,446101,362630
1173.79,0.093915,451929,364045
1177.34,0.096132,456026,365475
1180.9,0.098335,461306,367836
1184.44,0.100033,467657,371445
1187.99,0.101273,473969,375385
1191.52,0.100951,479856,380329
1195.06,0.100991,487372,386251
1199.76,0.100357,497347,394732
1203.29,0.099561,504311,400994
1206.81,0.099105,511507,407143
1210.33,0.098345,519078,413893
1213.84,0.098303,527163,420380
1217.35,0.097710,534208,426580
1220.85,0.096280,540472,433005
1225.51,0.096139,549929,440725
1229.01,0.095320,556888,447144
1232.5,0.094508,562180,452238
1235.98,0.093783,567975,457663
1239.46,0.093331,574815,463657
1242.94,0.092499,582782,470985
1246.41,0.091920,591476,478649
1251.03,0.091889,604016,488832
1254.5,0.091858,612289,495563
1257.96,0.092377,619125,500497
1261.41,0.092756,624551,504443
1264.86,0.093264,629900,508168
1268.31,0.093411,634345,511581
1271.75,0.094453,638574,513758
1276.33,0.094304,642499,517093
1279.76,0.094301,645905,519838
1283.19,0.094231,648307,521855
1286.61,0.093977,650446,523883
1290.03,0.093219,652132,526158
1293.44,0.092567,653907,528383
1296.85,0.092346,655963,530314
1301.39,0.092222,657349,531586
1304.8,0.091978,657558,532055
1308.19,0.092189,658515,532570
1311.58,0.092584,658804,532319
1314.97,0.092979,659011,532003
1318.36,0.093225,658272,531105
1321.73,0.093631,658022,530407
1326.23,0.094317,657870,529448
1329.6,0.095091,656482,527390
1332.97,0.095534,654926,525604
1336.33,0.096703,653727,523231
1339.69,0.098114,652497,520553
1343.04,0.099565,649913,516762
1346.39,0.101388,647671,512822
1349.73,0.103876,645338,508056
1354.18,0.106514,641175,501721
1357.52,0.108146,638376,497657
1360.85,0.110585,635805,492878
1364.17,0.112468,633413,488899
1367.49,0.114407,631026,484887
1370.81,0.116877,628050,479863
1374.12,0.118635,625034,475629
1378.54,0.121679,620272,468709
1381.84,0.124734,616892,462887
1385.14,0.127785,613613,457204
1388.43,0.131316,611526,451959
1391.72,0.134728,610663,447789
1395.01,0.138753,610634,443637
1398.29,0.143703,611700,439375
1402.66,0.149739,614051,434976
1405.93,0.154823,616268,431466
1409.2,0.158864,617795,428529
1412.46,0.162927,618872,425279
1415.72,0.166865,619795,422069
1418.98,0.170489,620495,419034
1422.23,0.173584,621087,416455
1426.56,0.177439,621375,412966
1429.8,0.179994,621616,410703
1433.04,0.182524,622129,408655
1436.27,0.184524,621526,406383
1439.5,0.187169,621113,403647
1442.72,0.189605,620921,401265
1445.94,0.191716,620270,398901
1450.23,0.194926,618860,395063
1453.44,0.197984,617697,391554
1456.64,0.200546,616264,388348
1459.85,0.203394,614413,384651
1463.04,0.205820,612307,381197
1466.24,0.209478,610032,376595
1469.43,0.214090,607345,370976
1473.67,0.220154,603789,363690
1476.85,0.225899,601175,357357
1480.02,0.231804,597737,350515
1483.19,0.238678,594479,343130
1486.36,0.244704,591232,336553
1489.52,0.249743,587853,330770
1492.68,0.252869,583875,326175
1496.89,0.254702,578062,321568
1500.03,0.255202,574159,319029
1503.18,0.255299,570285,316806
1506.32,0.254216,565444,314901
1509.45,0.252784,560571,313218
1512.58,0.251611,555821,311404
1515.71,0.249273,550344,310000
1519.87,0.246022,543983,308719
1522.99,0.243544,538764,307507
1526.1,0.241260,533692,306218
1529.21,0.238484,527902,304838
1532.32,0.235383,521886,303524
1535.42,0.232625,515888,301947
1538.51,0.229999,509987,300303
1541.6,0.227674,503936,298333
1545.72,0.221820,494694,296836
1548.8,0.219733,488378,294458
1551.88,0.217349,481832,292110
1554.95,0.215373,474989,289275
1558.02,0.214862,467818,285243
1561.08,0.212733,460730,282302
1564.15,0.212286,454170,278569
1568.22,0.211299,444181,273062
1571.27,0.210431,436947,269152
1574.32,0.210248,429598,264737
1577.36,0.209005,422039,260824
1580.4,0.208618,414375,256316
1583.43,0.206237,406354,252736
1586.46,0.204427,398475,248871
1590.49,0.202889,388982,243804
1593.51,0.201203,380708,239546
1596.53,0.199120,372727,235652
1599.54,0.196663,365060,232114
1602.55,0.194701,357543,228364
1605.55,0.193129,349495,224033
1608.55,0.191225,341154,219647
1612.54,0.190641,330877,213317
1615.53,0.187802,322904,209542
1618.51,0.186564,315116,205072
1621.49,0.185370,307217,200482
1624.47,0.184326,299481,195904
1627.44,0.183353,292112,191512
1630.41,0.181884,284245,186986
1634.36,0.181825,274079,180323
1637.32,0.180029,266916,176338
1640.27,0.180593,259612,171290
1643.22,0.178874,251804,166797
1646.16,0.178164,244348,162123
1649.1,0.177243,236703,157384
1652.04,0.176300,228171,152041
1655.95,0.173556,215408,144446
1658.88,0.169939,204937,138574
1661.8,0.164958,193395,132278
1664.72,0.156918,179728,125227
1667.63,0.144571,163642,117307
1670.54,0.128200,146312,108913
1673.44,0.112327,128451,99177
1677.31,0.094581,105080,84516
1680.21,0.080057,88906,73939
1683.1,0.079331,75033,62506
1685.99,0.080762,63520,52741
1688.87,0.078306,53714,44852
1691.75,0.082806,45653,37728
1694.62,0.091816,39137,31679
1697.49,0.094151,33776,27193
1701.31,0.103218,28175,22215