File: samples/wool/wool-000811/Column 1_050612_20150331_122911.csv
Method:,Column 1,,
Host Date-Time:,31/3/15 @ 12:29:11,,
Header Version:,1,,
System Temp (C):,34.07,,
Detector Temp (C):,34.9,,
Humidity (%):,1.66,,
Lamp PD:,3818,,
Shift Vector Coefficients:,-10.5391,0.0761263,-0.000134223,,
Pixel to Wavelength Coefficients:,1775.68,-0.916766,-0.000235065,,
Serial Number:,5510004,,
Scan Config Name:,Column 1,,
Scan Config Type:,Slew,,
Section 1,,
Start wavelength (nm):,900,,
End wavelength (nm):,1700,,
Pattern Pixel Width (nm):,   7.03,,,,
Exposure (ms):,  0.635,,,,
Digital Resolution:,228,,
Num Repeats:,6,,
PGA Gain:,64,,
Total Measurement Time in sec:,  2.725,,
Wavelength (nm),Absorbance (AU),Reference Signal (unitless),Sample Signal (unitless)
901.51,0.069947,108485,92347
905.376,0.075602,121306,101925
909.237,0.074670,131909,111072
913.095,0.077120,143299,119984
916.948,0.078257,156982,131097
922.079,0.080639,179937,149445
925.923,0.081121,200504,166342
929.762,0.081898,222660,184393
933.597,0.082173,244426,202290
937.427,0.080181,263972,219471
941.254,0.079940,281845,234461
945.076,0.079021,297271,247817
950.165,0.077234,315605,264186
953.978,0.077014,328029,274725
957.786,0.077085,340470,285098
961.59,0.077608,352317,294663
965.389,0.077214,363056,303920
969.185,0.077178,373162,312406
972.976,0.077740,382632,319920
976.763,0.078091,391202,326821
981.806,0.078395,400190,334096
985.583,0.079563,406088,338109
989.355,0.079944,410162,341202
993.124,0.080437,412868,343063
996.888,0.080953,414263,343814
1000.65,0.081437,415476,344436
1004.4,0.082424,415479,343657
1009.41,0.083747,414358,341687
1013.15,0.084342,412923,340038
1016.89,0.084724,411526,338589
1020.63,0.083737,409066,337331
1024.36,0.084279,406777,335025
1028.09,0.084609,404427,332837
1031.82,0.084454,401911,330884
1036.78,0.083492,398410,328729
1040.49,0.083463,396204,326931
1044.2,0.083928,394236,324959
1047.91,0.082864,392042,323943
1051.61,0.082827,389823,322137
1055.31,0.082342,388234,321182
1059,0.081844,387599,321025
1063.92,0.080872,386688,320988
1067.61,0.080694,386598,321045
1071.29,0.080068,387377,322156
1074.96,0.079824,388536,323301
1078.63,0.078992,389855,325021
1082.3,0.078526,391215,326505
1085.96,0.077451,393215,328987
1090.84,0.076321,396270,332407
1094.49,0.076571,398760,334303
1098.14,0.076034,400987,336586
1101.79,0.075355,403477,339206
1105.43,0.074397,406116,342179
1109.06,0.073886,407701,343919
1112.7,0.073418,409859,346112
1117.53,0.073404,412494,348348
1121.15,0.073566,414909,350257
1124.77,0.074310,416559,351048
1128.38,0.075291,418532,351915
1131.99,0.076253,419956,352331
1135.6,0.077182,421946,353244
1139.2,0.078632,423881,353681
1143.99,0.080588,426786,354505
1147.58,0.080593,428617,356022
1151.17,0.082144,431169,356865
1154.75,0.083068,433579,358097
1158.33,0.084632,436264,359019
1161.91,0.086177,439132,360096
1165.48,0.087892,442389,361337
1169.04,0.090011,446101,362595
1173.79,0.093650,451929,364267
1177.34,0.096001,456026,365585
1180.9,0.098289,461306,367875
1184.44,0.099777,467657,371664
1187.99,0.100964,473969,375652
1191.52,0.100864,479856,380406
1195.06,0.101128,487372,386129
1199.76,0.100357,497347,394732
1203.29,0.099388,504311,401153
1206.81,0.098865,511507,407368
1210.33,0.098443,519078,413799
1213.84,0.098172,527163,420507
1217.35,0.097460,534208,426826
1220.85,0.096567,540472,432719
1225.51,0.095799,549929,441070
1229.01,0.094989,556888,447485
1232.5,0.094498,562180,452249
1235.98,0.094157,567975,457270
1239.46,0.093511,574815,463465
1242.94,0.092035,582782,471488
1246.41,0.091617,591476,478983
1251.03,0.091089,604016,489733
1254.5,0.091776,612289,495656
1257.96,0.092389,619125,500483
1261.41,0.092291,624551,504983
1264.86,0.093027,629900,508446
1268.31,0.093599,634345,511360
1271.75,0.094130,638574,514140
1276.33,0.094763,642499,516546
1279.76,0.094400,645905,519719
1283.19,0.093822,648307,522347
1286.61,0.093442,650446,524529
1290.03,0.093275,652132,526091
1293.44,0.092581,653907,528366
1296.85,0.092330,655963,530334
1301.39,0.092382,657349,531391
1304.8,0.092002,657558,532025
1308.19,0.091937,658515,532879
1311.58,0.092003,658804,533032
1314.97,0.092693,659011,532353
1318.36,0.093039,658272,531333
1321.73,0.093248,658022,530875
1326.23,0.094132,657870,529673
1329.6,0.094697,656482,527869
1332.97,0.095968,654926,525079
1336.33,0.096642,653727,523305
1339.69,0.098266,652497,520370
1343.04,0.099492,649913,516849
1346.39,0.101617,647671,512552
1349.73,0.103052,645338,509020
1354.18,0.106319,641175,501947
1357.52,0.108277,638376,497507
1360.85,0.110479,635805,492998
1364.17,0.112246,633413,489149
1367.49,0.114506,631026,484776
1370.81,0.116606,628050,480162
1374.12,0.118430,625034,475854
1378.54,0.121219,620272,469206
1381.84,0.124568,616892,463064
1385.14,0.127481,613613,457524
1388.43,0.130967,611526,452322
1391.72,0.135477,610663,447018
1395.01,0.138878,610634,443510
1398.29,0.143313,611700,439770
1402.66,0.149665,614051,435050
1405.93,0.154320,616268,431966
1409.2,0.159158,617795,428239
1412.46,0.163200,618872,425012
1415.72,0.167309,619795,421637
1418.98,0.170944,620495,418595
1422.23,0.173486,621087,416549
1426.56,0.177687,621375,412731
1429.8,0.180299,621616,410415
1433.04,0.182651,622129,408535
1436.27,0.184893,621526,406038
1439.5,0.186886,621113,403910
1442.72,0.189328,620921,401521
1445.94,0.191748,620270,398871
1450.23,0.195672,618860,394385
1453.44,0.198593,617697,391005
1456.64,0.201094,616264,387858
1459.85,0.203624,614413,384447
1463.04,0.206362,612307,380721
1466.24,0.209668,610032,376430
1469.43,0.214069,607345,370994
1473.67,0.220245,603789,363614
1476.85,0.226311,601175,357018
1480.02,0.232017,597737,350343
1483.19,0.238382,594479,343364
1486.36,0.244190,591232,336952
1489.52,0.249190,587853,331191
1492.68,0.252344,583875,326570
1496.89,0.254633,578062,321619
1500.03,0.254961,574159,319206
1503.18,0.255430,570285,316710
1506.32,0.254485,565444,314706
1509.45,0.253789,560571,312494
1512.58,0.251491,555821,311490
1515.71,0.248855,550344,310298
1519.87,0.245843,543983,308846
1522.99,0.243640,538764,307439
1526.1,0.240699,533692,306614
1529.21,0.238026,527902,305160
1532.32,0.235404,521886,303509
1535.42,0.232215,515888,302232
1538.51,0.228941,509987,301036
1541.6,0.226623,503936,299056
1545.72,0.222530,494694,296351
1548.8,0.219489,488378,294623
1551.88,0.217241,481832,292183
1554.95,0.215077,474989,289472
1558.02,0.213715,467818,285997
1561.08,0.212328,460730,282565
1564.15,0.212549,454170,278400
1568.22,0.210819,444181,273364
1571.27,0.210102,436947,269356
1574.32,0.209790,429598,265016
1577.36,0.208421,422039,261175
1580.4,0.207224,414375,257140
1583.43,0.207061,406354,252257
1586.46,0.204411,398475,248880
1590.49,0.202166,388982,244210
1593.51,0.200737,380708,239803
1596.53,0.198043,372727,236237
1599.54,0.197032,365060,231917
1602.55,0.194674,357543,228378
1605.55,0.193567,349495,223807
1608.55,0.191734,341154,219390
1612.54,0.188640,330877,214302
1615.53,0.187802,322904,209542
1618.51,0.186179,315116,205254
1621.49,0.185368,307217,200483
1624.47,0.184548,299481,195804
1627.44,0.182875,292112,191723
1630.41,0.182037,284245,186920
1634.36,0.181579,274079,180425
1637.32,0.180273,266916,176239
1640.27,0.179651,259612,171662
1643.22,0.177193,251804,167444
1646.16,0.178824,244348,161877
1649.1,0.177992,236703,157113
1652.04,0.175384,228171,152362
1655.95,0.172062,215408,144944
1658.88,0.168965,204937,138885
1661.8,0.162953,193395,132890
1664.72,0.157043,179728,125191
1667.63,0.143824,163642,117509
1670.54,0.128136,146312,108929
1673.44,0.112489,128451,99140
1677.31,0.091473,105080,85123
1680.21,0.080528,88906,73859
1683.1,0.072034,75033,63565
1685.99,0.075809,63520,53346
1688.87,0.077213,53714,44965
1691.75,0.081128,45653,37874
1694.62,0.089301,39137,31863
1697.49,0.083160,33776,27890
1701.31,0.101442,28175,22306