File: samples/wool/wool-000811/Column 1_050611_20150331_122900.csv
Method:,Column 1,,
Host Date-Time:,31/3/15 @ 12:29:0,,
Header Version:,1,,
System Temp (C):,34.06,,
Detector Temp (C):,34.95,,
Humidity (%):,1.66,,
Lamp PD:,3818,,
Shift Vector Coefficients:,-10.5391,0.0761263,-0.000134223,,
Pixel to Wavelength Coefficients:,1775.68,-0.916766,-0.000235065,,
Serial Number:,5510004,,
Scan Config Name:,Column 1,,
Scan Config Type:,Slew,,
Section 1,,
Start wavelength (nm):,900,,
End wavelength (nm):,1700,,
Pattern Pixel Width (nm):,   7.03,,,,
Exposure (ms):,  0.635,,,,
Digital Resolution:,228,,
Num Repeats:,6,,
PGA Gain:,64,,
Total Measurement Time in sec:,  2.673,,
Wavelength (nm),Absorbance (AU),Reference Signal (unitless),Sample Signal (unitless)
901.51,0.069552,108485,92431
905.376,0.075435,121306,101964
909.237,0.076743,131909,110543
913.095,0.077888,143299,119772
916.948,0.079086,156982,130847
922.079,0.081547,179937,149133
925.923,0.082164,200504,165943
929.762,0.082148,222660,184287
933.597,0.082893,244426,201955
937.427,0.081300,263972,218906
941.254,0.080650,281845,234078
945.076,0.078717,297271,247991
950.165,0.078002,315605,263719
953.978,0.077020,328029,274721
957.786,0.077478,340470,284840
961.59,0.077358,352317,294833
965.389,0.077761,363056,303538
969.185,0.077865,373162,311912
972.976,0.077874,382632,319821
976.763,0.078195,391202,326743
981.806,0.078466,400190,334041
985.583,0.079751,406088,337963
989.355,0.080113,410162,341069
993.124,0.080142,412868,343296
996.888,0.080723,414263,343996
1000.65,0.081108,415476,344697
1004.4,0.083256,415479,342999
1009.41,0.083456,414358,341916
1013.15,0.084224,412923,340130
1016.89,0.084449,411526,338804
1020.63,0.084998,409066,336353
1024.36,0.084221,406777,335070
1028.09,0.084401,404427,332996
1031.82,0.084665,401911,330723
1036.78,0.084114,398410,328259
1040.49,0.083507,396204,326898
1044.2,0.083655,394236,325163
1047.91,0.083638,392042,323366
1051.61,0.083308,389823,321780
1055.31,0.083053,388234,320657
1059,0.082097,387599,320838
1063.92,0.081671,386688,320398
1067.61,0.080465,386598,321214
1071.29,0.080409,387377,321903
1074.96,0.080019,388536,323156
1078.63,0.079510,389855,324633
1082.3,0.078330,391215,326652
1085.96,0.077916,393215,328635
1090.84,0.076682,396270,332131
1094.49,0.076073,398760,334687
1098.14,0.075408,400987,337072
1101.79,0.074523,403477,339857
1105.43,0.074681,406116,341955
1109.06,0.073993,407701,343834
1112.7,0.073811,409859,345799
1117.53,0.073519,412494,348256
1121.15,0.073538,414909,350280
1124.77,0.073904,416559,351376
1128.38,0.074735,418532,352366
1131.99,0.075850,419956,352658
1135.6,0.077347,421946,353110
1139.2,0.078568,423881,353733
1143.99,0.080726,426786,354392
1147.58,0.081438,428617,355330
1151.17,0.082052,431169,356940
1154.75,0.083855,433579,357448
1158.33,0.084648,436264,359006
1161.91,0.086299,439132,359995
1165.48,0.088454,442389,360870
1169.04,0.090124,446101,362501
1173.79,0.094334,451929,363694
1177.34,0.096232,456026,365391
1180.9,0.098227,461306,367927
1184.44,0.099799,467657,371645
1187.99,0.101351,473969,375318
1191.52,0.101147,479856,380158
1195.06,0.100901,487372,386331
1199.76,0.100221,497347,394856
1203.29,0.099610,504311,400948
1206.81,0.099426,511507,406842
1210.33,0.098512,519078,413733
1213.84,0.098010,527163,420664
1217.35,0.097269,534208,427013
1220.85,0.096454,540472,432832
1225.51,0.095953,549929,440914
1229.01,0.095558,556888,446899
1232.5,0.094579,562180,452164
1235.98,0.094054,567975,457378
1239.46,0.093213,574815,463783
1242.94,0.092599,582782,470877
1246.41,0.091759,591476,478826
1251.03,0.091601,604016,489156
1254.5,0.092010,612289,495389
1257.96,0.091885,619125,501064
1261.41,0.092533,624551,504702
1264.86,0.092964,629900,508519
1268.31,0.093554,634345,511413
1271.75,0.094149,638574,514117
1276.33,0.094705,642499,516616
1279.76,0.094412,645905,519705
1283.19,0.093871,648307,522287
1286.61,0.093591,650446,524349
1290.03,0.093078,652132,526329
1293.44,0.093005,653907,527851
1296.85,0.092655,655963,529937
1301.39,0.092113,657349,531720
1304.8,0.092516,657558,531396
1308.19,0.092457,658515,532241
1311.58,0.092140,658804,532864
1314.97,0.093122,659011,531827
1318.36,0.093237,658272,531090
1321.73,0.093354,658022,530746
1326.23,0.094304,657870,529464
1329.6,0.095091,656482,527390
1332.97,0.095680,654926,525427
1336.33,0.096875,653727,523024
1339.69,0.098449,652497,520151
1343.04,0.100032,649913,516206
1346.39,0.102042,647671,512050
1349.73,0.103679,645338,508286
1354.18,0.106275,641175,501997
1357.52,0.108604,638376,497133
1360.85,0.110394,635805,493094
1364.17,0.112581,633413,488772
1367.49,0.114822,631026,484424
1370.81,0.116720,628050,480037
1374.12,0.118426,625034,475858
1378.54,0.121322,620272,469094
1381.84,0.124378,616892,463267
1385.14,0.127519,613613,457484
1388.43,0.130983,611526,452306
1391.72,0.135116,610663,447389
1395.01,0.139124,610634,443258
1398.29,0.143520,611700,439560
1402.66,0.149769,614051,434946
1405.93,0.154173,616268,432112
1409.2,0.159340,617795,428060
1412.46,0.163328,618872,424886
1415.72,0.167271,619795,421674
1418.98,0.170887,620495,418650
1422.23,0.174147,621087,415916
1426.56,0.178034,621375,412401
1429.8,0.180696,621616,410040
1433.04,0.182989,622129,408217
1436.27,0.184974,621526,405962
1439.5,0.187411,621113,403422
1442.72,0.189848,620921,401041
1445.94,0.192136,620270,398515
1450.23,0.195878,618860,394198
1453.44,0.198507,617697,391083
1456.64,0.201093,616264,387859
1459.85,0.203484,614413,384571
1463.04,0.206943,612307,380212
1466.24,0.210850,610032,375407
1469.43,0.214815,607345,370357
1473.67,0.220522,603789,363382
1476.85,0.226189,601175,357118
1480.02,0.232080,597737,350292
1483.19,0.238480,594479,343286
1486.36,0.244485,591232,336723
1489.52,0.249501,587853,330954
1492.68,0.252796,583875,326230
1496.89,0.255235,578062,321173
1500.03,0.255945,574159,318484
1503.18,0.255452,570285,316694
1506.32,0.254273,565444,314859
1509.45,0.252989,560571,313070
1512.58,0.251729,555821,311319
1515.71,0.249020,550344,310180
1519.87,0.246429,543983,308430
1522.99,0.243508,538764,307532
1526.1,0.241229,533692,306240
1529.21,0.238234,527902,305014
1532.32,0.235324,521886,303565
1535.42,0.232694,515888,301899
1538.51,0.230358,509987,300055
1541.6,0.226617,503936,299060
1545.72,0.223290,494694,295833
1548.8,0.220096,488378,294212
1551.88,0.217730,481832,291854
1554.95,0.215732,474989,289036
1558.02,0.214316,467818,285602
1561.08,0.212786,460730,282267
1564.15,0.212861,454170,278200
1568.22,0.211436,444181,272976
1571.27,0.210814,436947,268915
1574.32,0.209967,429598,264908
1577.36,0.208948,422039,260858
1580.4,0.207792,414375,256804
1583.43,0.206518,406354,252573
1586.46,0.205014,398475,248535
1590.49,0.203514,388982,243453
1593.51,0.200929,380708,239697
1596.53,0.199417,372727,235491
1599.54,0.196839,365060,232020
1602.55,0.195075,357543,228167
1605.55,0.192937,349495,224132
1608.55,0.190652,341154,219937
1612.54,0.189348,330877,213953
1615.53,0.187409,322904,209732
1618.51,0.186208,315116,205240
1621.49,0.186105,307217,200143
1624.47,0.184514,299481,195819
1627.44,0.183276,292112,191546
1630.41,0.183089,284245,186468
1634.36,0.180966,274079,180680
1637.32,0.181299,266916,175823
1640.27,0.181611,259612,170889
1643.22,0.179881,251804,166411
1646.16,0.178885,244348,161854
1649.1,0.178323,236703,156993
1652.04,0.175963,228171,152159
1655.95,0.173836,215408,144353
1658.88,0.169722,204937,138643
1661.8,0.163990,193395,132573
1664.72,0.157456,179728,125072
1667.63,0.143343,163642,117639
1670.54,0.128731,146312,108780
1673.44,0.111876,128451,99280
1677.31,0.093380,105080,84750
1680.21,0.079072,88906,74107
1683.1,0.075010,75033,63131
1685.99,0.077048,63520,53194
1688.87,0.077416,53714,44944
1691.75,0.083797,45653,37642
1694.62,0.089492,39137,31849
1697.49,0.094662,33776,27161
1701.31,0.100198,28175,22370