File: samples/wool/wool-000811/Column 1_050609_20150331_122740.csv
Method:,Column 1,,
Host Date-Time:,31/3/15 @ 12:27:40,,
Header Version:,1,,
System Temp (C):,34.04,,
Detector Temp (C):,34.9,,
Humidity (%):,1.66,,
Lamp PD:,3818,,
Shift Vector Coefficients:,-10.5391,0.0761263,-0.000134223,,
Pixel to Wavelength Coefficients:,1775.68,-0.916766,-0.000235065,,
Serial Number:,5510004,,
Scan Config Name:,Column 1,,
Scan Config Type:,Slew,,
Section 1,,
Start wavelength (nm):,900,,
End wavelength (nm):,1700,,
Pattern Pixel Width (nm):,   7.03,,,,
Exposure (ms):,  0.635,,,,
Digital Resolution:,228,,
Num Repeats:,6,,
PGA Gain:,64,,
Total Measurement Time in sec:,  2.672,,
Wavelength (nm),Absorbance (AU),Reference Signal (unitless),Sample Signal (unitless)
901.51,0.068210,108485,92717
905.376,0.074572,121306,102167
909.237,0.075656,131909,110820
913.095,0.077993,143299,119743
916.948,0.078671,156982,130972
922.079,0.079861,179937,149713
925.923,0.081385,200504,166241
929.762,0.081196,222660,184691
933.597,0.081429,244426,202637
937.427,0.081266,263972,218923
941.254,0.079771,281845,234552
945.076,0.078500,297271,248115
950.165,0.078822,315605,263222
953.978,0.077204,328029,274605
957.786,0.076693,340470,285355
961.59,0.077769,352317,294554
965.389,0.077775,363056,303528
969.185,0.077092,373162,312468
972.976,0.077926,382632,319783
976.763,0.077933,391202,326940
981.806,0.078446,400190,334057
985.583,0.079802,406088,337923
989.355,0.079897,410162,341239
993.124,0.080177,412868,343269
996.888,0.080280,414263,344347
1000.65,0.081159,415476,344657
1004.4,0.082560,415479,343549
1009.41,0.084009,414358,341481
1013.15,0.083757,412923,340496
1016.89,0.084313,411526,338910
1020.63,0.084641,409066,336630
1024.36,0.084558,406777,334810
1028.09,0.083958,404427,333336
1031.82,0.084054,401911,331189
1036.78,0.083424,398410,328781
1040.49,0.083419,396204,326964
1044.2,0.083496,394236,325282
1047.91,0.083454,392042,323503
1051.61,0.082646,389823,322271
1055.31,0.082838,388234,320816
1059,0.081983,387599,320922
1063.92,0.081577,386688,320467
1067.61,0.080682,386598,321054
1071.29,0.079984,387377,322218
1074.96,0.079519,388536,323528
1078.63,0.078751,389855,325201
1082.3,0.078084,391215,326837
1085.96,0.077752,393215,328759
1090.84,0.076822,396270,332024
1094.49,0.076284,398760,334524
1098.14,0.075790,400987,336775
1101.79,0.075456,403477,339127
1105.43,0.075257,406116,341502
1109.06,0.074036,407701,343800
1112.7,0.074147,409859,345531
1117.53,0.073267,412494,348458
1121.15,0.073781,414909,350084
1124.77,0.074376,416559,350995
1128.38,0.075346,418532,351870
1131.99,0.075499,419956,352943
1135.6,0.077149,421946,353271
1139.2,0.078941,423881,353430
1143.99,0.080480,426786,354593
1147.58,0.081897,428617,354954
1151.17,0.082483,431169,356586
1154.75,0.083203,433579,357985
1158.33,0.084501,436264,359127
1161.91,0.086494,439132,359833
1165.48,0.088082,442389,361179
1169.04,0.091089,446101,361696
1173.79,0.094350,451929,363681
1177.34,0.096269,456026,365360
1180.9,0.097848,461306,368249
1184.44,0.100104,467657,371384
1187.99,0.101320,473969,375344
1191.52,0.101484,479856,379863
1195.06,0.100671,487372,386536
1199.76,0.100592,497347,394519
1203.29,0.099660,504311,400902
1206.81,0.099150,511507,407100
1210.33,0.098860,519078,413402
1213.84,0.097993,527163,420680
1217.35,0.097199,534208,427082
1220.85,0.096624,540472,432662
1225.51,0.096046,549929,440819
1229.01,0.094901,556888,447576
1232.5,0.094637,562180,452104
1235.98,0.094432,567975,456980
1239.46,0.092976,574815,464036
1242.94,0.092199,582782,471311
1246.41,0.091550,591476,479057
1251.03,0.091539,604016,489226
1254.5,0.091533,612289,495934
1257.96,0.092300,619125,500586
1261.41,0.092755,624551,504444
1264.86,0.093045,629900,508425
1268.31,0.093715,634345,511223
1271.75,0.094616,638574,513565
1276.33,0.094634,642499,516700
1279.76,0.094611,645905,519467
1283.19,0.093825,648307,522343
1286.61,0.093789,650446,524110
1290.03,0.092846,652132,526610
1293.44,0.092506,653907,528458
1296.85,0.092344,655963,530317
1301.39,0.092097,657349,531740
1304.8,0.092457,657558,531468
1308.19,0.092337,658515,532388
1311.58,0.092159,658804,532841
1314.97,0.092490,659011,532602
1318.36,0.093390,658272,530903
1321.73,0.093384,658022,530709
1326.23,0.094091,657870,529723
1329.6,0.095002,656482,527498
1332.97,0.096216,654926,524779
1336.33,0.096737,653727,523190
1339.69,0.098594,652497,519977
1343.04,0.099910,649913,516351
1346.39,0.101955,647671,512153
1349.73,0.103996,645338,507915
1354.18,0.106780,641175,501414
1357.52,0.108810,638376,496897
1360.85,0.110813,635805,492619
1364.17,0.112832,633413,488489
1367.49,0.114958,631026,484272
1370.81,0.117097,628050,479620
1374.12,0.119025,625034,475202
1378.54,0.121441,620272,468966
1381.84,0.124408,616892,463235
1385.14,0.127950,613613,457030
1388.43,0.131432,611526,451838
1391.72,0.135515,610663,446978
1395.01,0.139511,610634,442864
1398.29,0.143656,611700,439423
1402.66,0.150403,614051,434312
1405.93,0.155443,616268,430851
1409.2,0.159665,617795,427740
1412.46,0.164208,618872,424026
1415.72,0.168168,619795,420804
1418.98,0.171531,620495,418030
1422.23,0.175111,621087,414994
1426.56,0.178913,621375,411567
1429.8,0.181031,621616,409724
1433.04,0.183166,622129,408051
1436.27,0.185746,621526,405241
1439.5,0.188023,621113,402854
1442.72,0.190075,620921,400831
1445.94,0.192596,620270,398093
1450.23,0.196265,618860,393847
1453.44,0.199203,617697,390456
1456.64,0.201682,616264,387333
1459.85,0.204126,614413,384003
1463.04,0.207604,612307,379634
1466.24,0.211131,610032,375164
1469.43,0.214568,607345,370568
1473.67,0.220882,603789,363081
1476.85,0.226821,601175,356599
1480.02,0.231525,597737,350740
1483.19,0.238991,594479,342883
1486.36,0.244386,591232,336800
1489.52,0.249863,587853,330678
1492.68,0.252942,583875,326120
1496.89,0.255302,578062,321124
1500.03,0.255645,574159,318704
1503.18,0.255299,570285,316806
1506.32,0.254465,565444,314720
1509.45,0.252618,560571,313338
1512.58,0.252302,555821,310909
1515.71,0.249773,550344,309643
1519.87,0.246302,543983,308520
1522.99,0.243929,538764,307234
1526.1,0.241774,533692,305856
1529.21,0.238952,527902,304510
1532.32,0.235408,521886,303506
1535.42,0.232641,515888,301936
1538.51,0.229959,509987,300331
1541.6,0.227005,503936,298793
1545.72,0.223610,494694,295615
1548.8,0.220212,488378,294133
1551.88,0.218339,481832,291445
1554.95,0.216310,474989,288651
1558.02,0.214908,467818,285213
1561.08,0.213359,460730,281895
1564.15,0.212328,454170,278542
1568.22,0.211429,444181,272980
1571.27,0.211983,436947,268192
1574.32,0.209846,429598,264982
1577.36,0.209250,422039,260677
1580.4,0.208100,414375,256622
1583.43,0.207263,406354,252140
1586.46,0.205082,398475,248496
1590.49,0.202602,388982,243965
1593.51,0.201301,380708,239492
1596.53,0.199784,372727,235292
1599.54,0.196526,365060,232187
1602.55,0.194775,357543,228325
1605.55,0.193026,349495,224086
1608.55,0.190984,341154,219769
1612.54,0.189996,330877,213634
1615.53,0.186809,322904,210022
1618.51,0.187126,315116,204807
1621.49,0.185747,307217,200308
1624.47,0.184719,299481,195727
1627.44,0.184536,292112,190991
1630.41,0.182325,284245,186796
1634.36,0.182408,274079,180081
1637.32,0.180827,266916,176014
1640.27,0.180758,259612,171225
1643.22,0.179570,251804,166530
1646.16,0.177902,244348,162221
1649.1,0.178099,236703,157074
1652.04,0.175504,228171,152320
1655.95,0.172862,215408,144677
1658.88,0.169309,204937,138775
1661.8,0.163712,193395,132658
1664.72,0.155823,179728,125543
1667.63,0.144253,163642,117393
1670.54,0.129250,146312,108650
1673.44,0.111552,128451,99354
1677.31,0.095461,105080,84345
1680.21,0.079693,88906,74001
1683.1,0.074604,75033,63190
1685.99,0.076876,63520,53215
1688.87,0.078509,53714,44831
1691.75,0.083013,45653,37710
1694.62,0.089546,39137,31845
1697.49,0.094167,33776,27192
1701.31,0.106830,28175,22031