File: samples/wool/wool-000811/Column 1_050558_20150331_120331.csv
Method:,Column 1,,
Host Date-Time:,31/3/15 @ 12:3:31,,
Header Version:,1,,
System Temp (C):,33.61,,
Detector Temp (C):,32.88,,
Humidity (%):,2.25,,
Lamp PD:,3820,,
Shift Vector Coefficients:,-10.5391,0.0761263,-0.000134223,,
Pixel to Wavelength Coefficients:,1775.68,-0.916766,-0.000235065,,
Serial Number:,5510004,,
Scan Config Name:,Column 1,,
Scan Config Type:,Slew,,
Section 1,,
Start wavelength (nm):,900,,
End wavelength (nm):,1700,,
Pattern Pixel Width (nm):,   7.03,,,,
Exposure (ms):,  0.635,,,,
Digital Resolution:,228,,
Num Repeats:,6,,
PGA Gain:,64,,
Total Measurement Time in sec:,  2.728,,
Wavelength (nm),Absorbance (AU),Reference Signal (unitless),Sample Signal (unitless)
901.51,0.033178,108485,100506
905.376,0.039903,121306,110657
909.237,0.042932,131909,119493
913.095,0.042918,143299,129815
916.948,0.042666,156982,142293
922.079,0.045750,179937,161946
925.923,0.046339,200504,180212
929.762,0.046187,222660,200196
933.597,0.047257,244426,219225
937.427,0.046813,263972,236998
941.254,0.047541,281845,252621
945.076,0.046714,297271,266955
950.165,0.045728,315605,284064
953.978,0.045159,328029,295633
957.786,0.045746,340470,306431
961.59,0.045898,352317,316983
965.389,0.046479,363056,326208
969.185,0.046349,373162,335389
972.976,0.047499,382632,342991
976.763,0.047604,391202,350588
981.806,0.048645,400190,357784
985.583,0.049419,406088,362411
989.355,0.049735,410162,365780
993.124,0.049981,412868,367985
996.888,0.051058,414263,368314
1000.65,0.051301,415476,369186
1004.4,0.052892,415479,367838
1009.41,0.053549,414358,366291
1013.15,0.054951,412923,363846
1016.89,0.055009,411526,362567
1020.63,0.054800,409066,360573
1024.36,0.054466,406777,358831
1028.09,0.054529,404427,356707
1031.82,0.053822,401911,355065
1036.78,0.053710,398410,352063
1040.49,0.053861,396204,349992
1044.2,0.053425,394236,348603
1047.91,0.052987,392042,347013
1051.61,0.052440,389823,345484
1055.31,0.051485,388234,344833
1059,0.051750,387599,344059
1063.92,0.050079,386688,344573
1067.61,0.049480,386598,344969
1071.29,0.049550,387377,345608
1074.96,0.048513,388536,347471
1078.63,0.047713,389855,349293
1082.3,0.046897,391215,351171
1085.96,0.046991,393215,352890
1090.84,0.045859,396270,356560
1094.49,0.045172,398760,359368
1098.14,0.044689,400987,361777
1101.79,0.044936,403477,363817
1105.43,0.045598,406116,365639
1109.06,0.044423,407701,368060
1112.7,0.044662,409859,369805
1117.53,0.043826,412494,372899
1121.15,0.045298,414909,373813
1124.77,0.045950,416559,374737
1128.38,0.047415,418532,375244
1131.99,0.048363,419956,375700
1135.6,0.050257,421946,375837
1139.2,0.051961,423881,376082
1143.99,0.054593,426786,376372
1147.58,0.055366,428617,377314
1151.17,0.056499,431169,378572
1154.75,0.057805,433579,379545
1158.33,0.059814,436264,380133
1161.91,0.062102,439132,380621
1165.48,0.064428,442389,381396
1169.04,0.067016,446101,382311
1173.79,0.070670,451929,384061
1177.34,0.073240,456026,385256
1180.9,0.075457,461306,387732
1184.44,0.076699,467657,391948
1187.99,0.078022,473969,396030
1191.52,0.077851,479856,401107
1195.06,0.077905,487372,407339
1199.76,0.076621,497347,416906
1203.29,0.075426,504311,423909
1206.81,0.074944,511507,430435
1210.33,0.074255,519078,437500
1213.84,0.073592,527163,444993
1217.35,0.072620,534208,451950
1220.85,0.072036,540472,457865
1225.51,0.070989,549929,467001
1229.01,0.070465,556888,473481
1232.5,0.069606,562180,478927
1235.98,0.069089,567975,484440
1239.46,0.067802,574815,491729
1242.94,0.067121,582782,499327
1246.41,0.066161,591476,507897
1251.03,0.066504,604016,518256
1254.5,0.066635,612289,525196
1257.96,0.066309,619125,531459
1261.41,0.067338,624551,534848
1264.86,0.068089,629900,538496
1268.31,0.068431,634345,541869
1271.75,0.069188,638574,544532
1276.33,0.069725,642499,547202
1279.76,0.069484,645905,550408
1283.19,0.068647,648307,553520
1286.61,0.068394,650446,555670
1290.03,0.068517,652132,556953
1293.44,0.067617,653907,559627
1296.85,0.067606,655963,561401
1301.39,0.067276,657349,563015
1304.8,0.067474,657558,562938
1308.19,0.067907,658515,563195
1311.58,0.067703,658804,563707
1314.97,0.068506,659011,562842
1318.36,0.069138,658272,561393
1321.73,0.069441,658022,560789
1326.23,0.070038,657870,559889
1329.6,0.071425,656482,556926
1332.97,0.072520,654926,554207
1336.33,0.073877,653727,551467
1339.69,0.075436,652497,548457
1343.04,0.077418,649913,543798
1346.39,0.079418,647671,539432
1349.73,0.081588,645338,534810
1354.18,0.084972,641175,527235
1357.52,0.087382,638376,522029
1360.85,0.089441,635805,517467
1364.17,0.091459,633413,513131
1367.49,0.094140,631026,508051
1370.81,0.096503,628050,502911
1374.12,0.098839,625034,497811
1378.54,0.102430,620272,489951
1381.84,0.106097,616892,483184
1385.14,0.109877,613613,476450
1388.43,0.114727,611526,469557
1391.72,0.120173,610663,463051
1395.01,0.125229,610634,457670
1398.29,0.130287,611700,453160
1402.66,0.138186,614051,446703
1405.93,0.144386,616268,441961
1409.2,0.149907,617795,437459
1412.46,0.155234,618872,432879
1415.72,0.160470,619795,428330
1418.98,0.164047,620495,425296
1422.23,0.167993,621087,421851
1426.56,0.172944,621375,417263
1429.8,0.175327,621616,415141
1433.04,0.178589,622129,412374
1436.27,0.180719,621526,409959
1439.5,0.182959,621113,407579
1442.72,0.185576,620921,405005
1445.94,0.188212,620270,402132
1450.23,0.191695,618860,398013
1453.44,0.194485,617697,394721
1456.64,0.197771,616264,390837
1459.85,0.200200,614413,387490
1463.04,0.203473,612307,383262
1466.24,0.206755,610032,378964
1469.43,0.209891,607345,374580
1473.67,0.215098,603789,367949
1476.85,0.221180,601175,361261
1480.02,0.226819,597737,354561
1483.19,0.232992,594479,347652
1486.36,0.238659,591232,341271
1489.52,0.243474,587853,335579
1492.68,0.247402,583875,330307
1496.89,0.250111,578062,324985
1500.03,0.249753,574159,323057
1503.18,0.250235,570285,320521
1506.32,0.249558,565444,318296
1509.45,0.249015,560571,315948
1512.58,0.246645,555821,314985
1515.71,0.244330,550344,313548
1519.87,0.240945,543983,312349
1522.99,0.238570,538764,311049
1526.1,0.235436,533692,310352
1529.21,0.232737,527902,308899
1532.32,0.230064,521886,307264
1535.42,0.226108,515888,306512
1538.51,0.223940,509987,304522
1541.6,0.220433,503936,303349
1545.72,0.215808,494694,300974
1548.8,0.212269,488378,299562
1551.88,0.210326,481832,296872
1554.95,0.207722,474989,294416
1558.02,0.205844,467818,291228
1561.08,0.204258,460730,287865
1564.15,0.204221,454170,283790
1568.22,0.202724,444181,278507
1571.27,0.202086,436947,274374
1574.32,0.201184,429598,270320
1577.36,0.199634,422039,266513
1580.4,0.198076,414375,262614
1583.43,0.196464,406354,258488
1586.46,0.195267,398475,254176
1590.49,0.191983,388982,250004
1593.51,0.190537,380708,245502
1596.53,0.187470,372727,242059
1599.54,0.185899,365060,237939
1602.55,0.182967,357543,234618
1605.55,0.181560,349495,230081
1608.55,0.179442,341154,225688
1612.54,0.176630,330877,220311
1615.53,0.175237,322904,215693
1618.51,0.173368,315116,211399
1621.49,0.172119,307217,206693
1624.47,0.171130,299481,201948
1627.44,0.169886,292112,197544
1630.41,0.168318,284245,192919
1634.36,0.168031,274079,186142
1637.32,0.166886,266916,181756
1640.27,0.166322,259612,177012
1643.22,0.164455,251804,172428
1646.16,0.164806,244348,167187
1649.1,0.164030,236703,162246
1652.04,0.162934,228171,156793
1655.95,0.159508,215408,149195
1658.88,0.157087,204937,142736
1661.8,0.153424,193395,135838
1664.72,0.148088,179728,127799
1667.63,0.137415,163642,119256
1670.54,0.128208,146312,108911
1673.44,0.118079,128451,97872
1677.31,0.105978,105080,82327
1680.21,0.098499,88906,70865
1683.1,0.097709,75033,59916
1685.99,0.101653,63520,50264
1688.87,0.102896,53714,42383
1691.75,0.110576,45653,35391
1694.62,0.117178,39137,29882
1697.49,0.118472,33776,25712
1701.31,0.130154,28175,20879