File: samples/wool/wool-000811/Column 1_050597_20150331_122212.csv
Method:,Column 1,,
Host Date-Time:,31/3/15 @ 12:22:12,,
Header Version:,1,,
System Temp (C):,33.94,,
Detector Temp (C):,34.74,,
Humidity (%):,1.76,,
Lamp PD:,3818,,
Shift Vector Coefficients:,-10.5391,0.0761263,-0.000134223,,
Pixel to Wavelength Coefficients:,1775.68,-0.916766,-0.000235065,,
Serial Number:,5510004,,
Scan Config Name:,Column 1,,
Scan Config Type:,Slew,,
Section 1,,
Start wavelength (nm):,900,,
End wavelength (nm):,1700,,
Pattern Pixel Width (nm):,   7.03,,,,
Exposure (ms):,  0.635,,,,
Digital Resolution:,228,,
Num Repeats:,6,,
PGA Gain:,64,,
Total Measurement Time in sec:,  2.689,,
Wavelength (nm),Absorbance (AU),Reference Signal (unitless),Sample Signal (unitless)
901.51,0.069167,108485,92513
905.376,0.075674,121306,101908
909.237,0.077010,131909,110475
913.095,0.078654,143299,119561
916.948,0.080399,156982,130452
922.079,0.080898,179937,149356
925.923,0.082387,200504,165858
929.762,0.084072,222660,183472
933.597,0.082572,244426,202104
937.427,0.081802,263972,218653
941.254,0.080757,281845,234020
945.076,0.080118,297271,247192
950.165,0.079264,315605,262954
953.978,0.077935,328029,274143
957.786,0.077975,340470,284514
961.59,0.078523,352317,294043
965.389,0.078187,363056,303240
969.185,0.078566,373162,311409
972.976,0.079154,382632,318880
976.763,0.079259,391202,325943
981.806,0.079950,400190,332902
985.583,0.080757,406088,337181
989.355,0.081145,410162,340260
993.124,0.081176,412868,342480
996.888,0.081804,414263,343141
1000.65,0.082363,415476,343703
1004.4,0.084058,415479,342366
1009.41,0.084773,414358,340881
1013.15,0.085234,412923,339340
1016.89,0.086324,411526,337344
1020.63,0.085679,409066,335826
1024.36,0.086356,406777,333427
1028.09,0.085561,404427,332108
1031.82,0.085509,401911,330081
1036.78,0.085367,398410,327313
1040.49,0.084552,396204,326112
1044.2,0.085005,394236,324154
1047.91,0.085152,392042,322241
1051.61,0.083719,389823,321476
1055.31,0.083953,388234,319993
1059,0.083829,387599,319561
1063.92,0.082992,386688,319425
1067.61,0.081521,386598,320434
1071.29,0.081545,387377,321062
1074.96,0.081081,388536,322367
1078.63,0.080785,389855,323682
1082.3,0.079406,391215,325844
1085.96,0.078871,393215,327913
1090.84,0.078128,396270,331027
1094.49,0.077329,398760,333720
1098.14,0.076993,400987,335844
1101.79,0.075654,403477,338973
1105.43,0.076657,406116,340403
1109.06,0.075249,407701,342841
1112.7,0.075077,409859,344792
1117.53,0.074714,412494,347299
1121.15,0.075807,414909,348454
1124.77,0.075935,416559,349737
1128.38,0.075890,418532,351430
1131.99,0.077604,419956,351237
1135.6,0.078736,421946,351982
1139.2,0.080132,423881,352462
1143.99,0.082193,426786,353197
1147.58,0.083023,428617,354035
1151.17,0.084168,431169,355205
1154.75,0.085096,433579,356428
1158.33,0.086442,436264,357526
1161.91,0.087664,439132,358865
1165.48,0.089970,442389,359612
1169.04,0.092174,446101,360794
1173.79,0.095750,451929,362510
1177.34,0.097439,456026,364377
1180.9,0.099537,461306,366819
1184.44,0.101415,467657,370265
1187.99,0.102596,473969,374243
1191.52,0.102356,479856,379101
1195.06,0.102361,487372,385034
1199.76,0.101610,497347,393595
1203.29,0.101018,504311,399651
1206.81,0.100367,511507,405961
1210.33,0.100053,519078,412268
1213.84,0.099133,527163,419577
1217.35,0.098477,534208,425827
1220.85,0.098189,540472,431106
1225.51,0.097674,549929,439170
1229.01,0.096655,556888,445772
1232.5,0.095696,562180,451003
1235.98,0.095342,567975,456023
1239.46,0.094708,574815,462189
1242.94,0.093684,582782,469702
1246.41,0.093289,591476,477143
1251.03,0.093024,604016,487556
1254.5,0.093215,612289,494017
1257.96,0.094150,619125,498458
1261.41,0.094212,624551,502754
1264.86,0.094886,629900,506274
1268.31,0.095108,634345,509586
1271.75,0.095650,638574,512344
1276.33,0.096010,642499,515065
1279.76,0.095848,645905,517989
1283.19,0.095261,648307,520619
1286.61,0.094834,650446,522850
1290.03,0.094706,652132,524360
1293.44,0.094364,653907,526201
1296.85,0.093818,655963,528520
1301.39,0.093703,657349,529777
1304.8,0.093853,657558,529762
1308.19,0.094118,658515,530210
1311.58,0.093812,658804,530816
1314.97,0.094788,659011,529791
1318.36,0.095187,658272,528711
1321.73,0.095315,658022,528354
1326.23,0.096160,657870,527206
1329.6,0.097102,656482,524954
1332.97,0.097705,654926,522983
1336.33,0.098615,653727,520932
1339.69,0.100318,652497,517918
1343.04,0.102186,649913,513652
1346.39,0.104082,647671,509651
1349.73,0.105969,645338,505613
1354.18,0.108732,641175,499166
1357.52,0.110751,638376,494681
1360.85,0.112611,635805,490584
1364.17,0.114410,633413,486718
1367.49,0.116855,631026,482161
1370.81,0.119376,628050,477110
1374.12,0.121274,625034,472748
1378.54,0.124472,620272,465704
1381.84,0.127042,616892,460434
1385.14,0.130583,613613,454267
1388.43,0.134277,611526,448888
1391.72,0.138444,610663,443974
1395.01,0.143287,610634,439030
1398.29,0.147524,611700,435526
1402.66,0.153761,614051,430966
1405.93,0.159026,616268,427311
1409.2,0.164244,617795,423253
1412.46,0.168626,618872,419735
1415.72,0.172533,619795,416596
1418.98,0.176511,620495,413264
1422.23,0.179891,621087,410451
1426.56,0.183718,621375,407039
1429.8,0.185895,621616,405161
1433.04,0.188970,622129,402634
1436.27,0.190909,621526,400452
1439.5,0.193328,621113,397963
1442.72,0.195303,620921,396035
1445.94,0.197690,620270,393451
1450.23,0.201321,618860,389288
1453.44,0.204239,617697,385955
1456.64,0.207090,616264,382540
1459.85,0.209694,614413,379111
1463.04,0.212273,612307,375575
1466.24,0.215233,610032,371638
1469.43,0.219088,607345,366731
1473.67,0.225066,603789,359600
1476.85,0.230733,601175,353401
1480.02,0.236383,597737,346838
1483.19,0.242406,594479,340197
1486.36,0.248464,591232,333652
1489.52,0.252569,587853,328624
1492.68,0.255827,583875,323961
1496.89,0.257966,578062,319160
1500.03,0.257963,574159,317007
1503.18,0.258594,570285,314411
1506.32,0.257356,565444,312632
1509.45,0.255886,560571,310989
1512.58,0.254776,555821,309143
1515.71,0.252285,550344,307857
1519.87,0.249114,543983,306529
1522.99,0.247110,538764,304992
1526.1,0.244303,533692,304080
1529.21,0.241138,527902,302981
1532.32,0.238577,521886,301300
1535.42,0.235985,515888,299620
1538.51,0.233092,509987,298172
1541.6,0.230352,503936,296499
1545.72,0.225977,494694,294008
1548.8,0.222338,488378,292697
1551.88,0.220905,481832,289728
1554.95,0.218994,474989,286873
1558.02,0.216980,467818,283855
1561.08,0.216250,460730,280025
1564.15,0.215379,454170,276592
1568.22,0.215126,444181,270666
1571.27,0.214538,436947,266619
1574.32,0.213308,429598,262878
1577.36,0.212004,422039,259029
1580.4,0.210025,414375,255487
1583.43,0.209236,406354,250997
1586.46,0.207442,398475,247149
1590.49,0.205933,388982,242101
1593.51,0.204163,380708,237919
1596.53,0.201355,372727,234442
1599.54,0.199895,365060,230393
1602.55,0.197873,357543,226702
1605.55,0.196285,349495,222411
1608.55,0.193183,341154,218659
1612.54,0.191670,330877,212812
1615.53,0.190199,322904,208389
1618.51,0.190126,315116,203397
1621.49,0.188697,307217,198952
1624.47,0.187456,299481,194497
1627.44,0.186156,292112,190280
1630.41,0.185731,284245,185337
1634.36,0.183867,274079,179477
1637.32,0.182194,266916,175461
1640.27,0.183118,259612,170297
1643.22,0.182498,251804,165411
1646.16,0.180401,244348,161290
1649.1,0.180400,236703,156244
1652.04,0.179295,228171,150996
1655.95,0.176676,215408,143412
1658.88,0.171795,204937,137983
1661.8,0.166411,193395,131836
1664.72,0.158603,179728,124742
1667.63,0.146199,163642,116868
1670.54,0.131912,146312,107986
1673.44,0.115394,128451,98479
1677.31,0.096838,105080,84078
1680.21,0.085959,88906,72941
1683.1,0.080158,75033,62387
1685.99,0.082594,63520,52519
1688.87,0.084754,53714,44191
1691.75,0.087190,45653,37349
1694.62,0.094484,39137,31485
1697.49,0.095992,33776,27078
1701.31,0.104216,28175,22164