File: samples/wool/wool-000811/Column 1_050619_20150331_123234.csv
Method:,Column 1,,
Host Date-Time:,31/3/15 @ 12:32:34,,
Header Version:,1,,
System Temp (C):,34.12,,
Detector Temp (C):,35.01,,
Humidity (%):,1.66,,
Lamp PD:,3818,,
Shift Vector Coefficients:,-10.5391,0.0761263,-0.000134223,,
Pixel to Wavelength Coefficients:,1775.68,-0.916766,-0.000235065,,
Serial Number:,5510004,,
Scan Config Name:,Column 1,,
Scan Config Type:,Slew,,
Section 1,,
Start wavelength (nm):,900,,
End wavelength (nm):,1700,,
Pattern Pixel Width (nm):,   7.03,,,,
Exposure (ms):,  0.635,,,,
Digital Resolution:,228,,
Num Repeats:,6,,
PGA Gain:,64,,
Total Measurement Time in sec:,  2.716,,
Wavelength (nm),Absorbance (AU),Reference Signal (unitless),Sample Signal (unitless)
901.51,0.068126,108485,92735
905.376,0.074750,121306,102125
909.237,0.078097,131909,110199
913.095,0.077765,143299,119806
916.948,0.078366,156982,131064
922.079,0.079403,179937,149871
925.923,0.081665,200504,166134
929.762,0.082308,222660,184219
933.597,0.081761,244426,202482
937.427,0.079769,263972,219679
941.254,0.080533,281845,234141
945.076,0.079435,297271,247581
950.165,0.077650,315605,263933
953.978,0.077069,328029,274690
957.786,0.077464,340470,284849
961.59,0.077313,352317,294863
965.389,0.077472,363056,303740
969.185,0.077147,373162,312428
972.976,0.077611,382632,320015
976.763,0.078699,391202,326364
981.806,0.079022,400190,333614
985.583,0.079124,406088,338451
989.355,0.079435,410162,341602
993.124,0.080148,412868,343292
996.888,0.080694,414263,344019
1000.65,0.080952,415476,344821
1004.4,0.082718,415479,343424
1009.41,0.083633,414358,341777
1013.15,0.084558,412923,339869
1016.89,0.084585,411526,338698
1020.63,0.084895,409066,336433
1024.36,0.084777,406777,334641
1028.09,0.083897,404427,333383
1031.82,0.083794,401911,331387
1036.78,0.083453,398410,328759
1040.49,0.083309,396204,327047
1044.2,0.082961,394236,325683
1047.91,0.082954,392042,323876
1051.61,0.082931,389823,322060
1055.31,0.082529,388234,321044
1059,0.081580,387599,321220
1063.92,0.081459,386688,320554
1067.61,0.080745,386598,321007
1071.29,0.080217,387377,322045
1074.96,0.079674,388536,323413
1078.63,0.078725,389855,325221
1082.3,0.078482,391215,326538
1085.96,0.077351,393215,329063
1090.84,0.076453,396270,332306
1094.49,0.075817,398760,334884
1098.14,0.075574,400987,336943
1101.79,0.075147,403477,339369
1105.43,0.074359,406116,342209
1109.06,0.073888,407701,343917
1112.7,0.073733,409859,345861
1117.53,0.073159,412494,348545
1121.15,0.073326,414909,350451
1124.77,0.073198,416559,351948
1128.38,0.075193,418532,351994
1131.99,0.075940,419956,352585
1135.6,0.077009,421946,353385
1139.2,0.078394,423881,353875
1143.99,0.080545,426786,354540
1147.58,0.081164,428617,355554
1151.17,0.082549,431169,356532
1154.75,0.082389,433579,358657
1158.33,0.084204,436264,359373
1161.91,0.085724,439132,360472
1165.48,0.087988,442389,361257
1169.04,0.089649,446101,362898
1173.79,0.093596,451929,364313
1177.34,0.095644,456026,365886
1180.9,0.097759,461306,368324
1184.44,0.099554,467657,371855
1187.99,0.101425,473969,375254
1191.52,0.100745,479856,380510
1195.06,0.100373,487372,386801
1199.76,0.100304,497347,394780
1203.29,0.098576,504311,401904
1206.81,0.098583,511507,407632
1210.33,0.098423,519078,413818
1213.84,0.097718,527163,420947
1217.35,0.097051,534208,427228
1220.85,0.096605,540472,432681
1225.51,0.094956,549929,441927
1229.01,0.095410,556888,447052
1232.5,0.094223,562180,452535
1235.98,0.093963,567975,457474
1239.46,0.093092,574815,463912
1242.94,0.091736,582782,471813
1246.41,0.091446,591476,479172
1251.03,0.091023,604016,489808
1254.5,0.091470,612289,496006
1257.96,0.092223,619125,500674
1261.41,0.092215,624551,505071
1264.86,0.093010,629900,508466
1268.31,0.093244,634345,511778
1271.75,0.093925,638574,514382
1276.33,0.094161,642499,517263
1279.76,0.094045,645905,520144
1283.19,0.093380,648307,522878
1286.61,0.093038,650446,525017
1290.03,0.092595,652132,526915
1293.44,0.091999,653907,529075
1296.85,0.091851,655963,530919
1301.39,0.091641,657349,532298
1304.8,0.091894,657558,532157
1308.19,0.091943,658515,532872
1311.58,0.092205,658804,532784
1314.97,0.092497,659011,532593
1318.36,0.092692,658272,531757
1321.73,0.092909,658022,531290
1326.23,0.093825,657870,530048
1329.6,0.094517,656482,528088
1332.97,0.095582,654926,525545
1336.33,0.096428,653727,523562
1339.69,0.097716,652497,521030
1343.04,0.099339,649913,517031
1346.39,0.101022,647671,513254
1349.73,0.102883,645338,509218
1354.18,0.105492,641175,502903
1357.52,0.107540,638376,498352
1360.85,0.109557,635805,494046
1364.17,0.111943,633413,489490
1367.49,0.113871,631026,485485
1370.81,0.116012,628050,480820
1374.12,0.117926,625034,476406
1378.54,0.121106,620272,469328
1381.84,0.123238,616892,464484
1385.14,0.126557,613613,458498
1388.43,0.130561,611526,452745
1391.72,0.134132,610663,448404
1395.01,0.137498,610634,444921
1398.29,0.142691,611700,440400
1402.66,0.148044,614051,436677
1405.93,0.152962,616268,433319
1409.2,0.157716,617795,429663
1412.46,0.161676,618872,426506
1415.72,0.165699,619795,423203
1418.98,0.168561,620495,420898
1422.23,0.172047,621087,417932
1426.56,0.175689,621375,414634
1429.8,0.178886,621616,411752
1433.04,0.180908,622129,410178
1436.27,0.183153,621526,407668
1439.5,0.185031,621113,405639
1442.72,0.187038,620921,403644
1445.94,0.190203,620270,400293
1450.23,0.193244,618860,396596
1453.44,0.196238,617697,393131
1456.64,0.199113,616264,389631
1459.85,0.202049,614413,385844
1463.04,0.204989,612307,381927
1466.24,0.208607,610032,377351
1469.43,0.212451,607345,372378
1473.67,0.218923,603789,364722
1476.85,0.225117,601175,358001
1480.02,0.230561,597737,351519
1483.19,0.237990,594479,343674
1486.36,0.243995,591232,337103
1489.52,0.247878,587853,332193
1492.68,0.251337,583875,327328
1496.89,0.254104,578062,322011
1500.03,0.254748,574159,319363
1503.18,0.254138,570285,317654
1506.32,0.252887,565444,315866
1509.45,0.252171,560571,313660
1512.58,0.250935,555821,311889
1515.71,0.247794,550344,311057
1519.87,0.245173,543983,309323
1522.99,0.242663,538764,308131
1526.1,0.240193,533692,306971
1529.21,0.237212,527902,305732
1532.32,0.234452,521886,304175
1535.42,0.231519,515888,302717
1538.51,0.229261,509987,300814
1541.6,0.225829,503936,299603
1545.72,0.221210,494694,297253
1548.8,0.218522,488378,295280
1551.88,0.216121,481832,292937
1554.95,0.214229,474989,290038
1558.02,0.213127,467818,286385
1561.08,0.212219,460730,282636
1564.15,0.211424,454170,279122
1568.22,0.210593,444181,273506
1571.27,0.210155,436947,269323
1574.32,0.209384,429598,265264
1577.36,0.208715,422039,260998
1580.4,0.206510,414375,257563
1583.43,0.204882,406354,253526
1586.46,0.203640,398475,249322
1590.49,0.201752,388982,244443
1593.51,0.199999,380708,240211
1596.53,0.197039,372727,236784
1599.54,0.196534,365060,232183
1602.55,0.193472,357543,229011
1605.55,0.193055,349495,224071
1608.55,0.189065,341154,220742
1612.54,0.188492,330877,214375
1615.53,0.186337,322904,210250
1618.51,0.184880,315116,205869
1621.49,0.184457,307217,200904
1624.47,0.183047,299481,196482
1627.44,0.182950,292112,191690
1630.41,0.181672,284245,187077
1634.36,0.179902,274079,181123
1637.32,0.180100,266916,176309
1640.27,0.178234,259612,172223
1643.22,0.177969,251804,167145
1646.16,0.177538,244348,162357
1649.1,0.176138,236703,157785
1652.04,0.175546,228171,152305
1655.95,0.171334,215408,145187
1658.88,0.168299,204937,139098
1661.8,0.161938,193395,133201
1664.72,0.155194,179728,125725
1667.63,0.142624,163642,117834
1670.54,0.125398,146312,109618
1673.44,0.110762,128451,99535
1677.31,0.090133,105080,85386
1680.21,0.079031,88906,74114
1683.1,0.071181,75033,63690
1685.99,0.072451,63520,53760
1688.87,0.076161,53714,45074
1691.75,0.075670,45653,38353
1694.62,0.085285,39137,32159
1697.49,0.091921,33776,27333
1701.31,0.094470,28175,22667