File: samples/wool/wool-000811/Column 1_050625_20150331_123523.csv
Method:,Column 1,,
Host Date-Time:,31/3/15 @ 12:35:23,,
Header Version:,1,,
System Temp (C):,34.14,,
Detector Temp (C):,35.06,,
Humidity (%):,1.56,,
Lamp PD:,3818,,
Shift Vector Coefficients:,-10.5391,0.0761263,-0.000134223,,
Pixel to Wavelength Coefficients:,1775.68,-0.916766,-0.000235065,,
Serial Number:,5510004,,
Scan Config Name:,Column 1,,
Scan Config Type:,Slew,,
Section 1,,
Start wavelength (nm):,900,,
End wavelength (nm):,1700,,
Pattern Pixel Width (nm):,   7.03,,,,
Exposure (ms):,  0.635,,,,
Digital Resolution:,228,,
Num Repeats:,6,,
PGA Gain:,64,,
Total Measurement Time in sec:,  2.720,,
Wavelength (nm),Absorbance (AU),Reference Signal (unitless),Sample Signal (unitless)
901.51,0.067822,108485,92800
905.376,0.075108,121306,102041
909.237,0.078187,131909,110176
913.095,0.075963,143299,120304
916.948,0.079076,156982,130850
922.079,0.079812,179937,149730
925.923,0.080584,200504,166548
929.762,0.082574,222660,184106
933.597,0.082027,244426,202358
937.427,0.081215,263972,218949
941.254,0.079251,281845,234833
945.076,0.078901,297271,247886
950.165,0.077649,315605,263934
953.978,0.076520,328029,275038
957.786,0.077431,340470,284871
961.59,0.077409,352317,294798
965.389,0.077658,363056,303610
969.185,0.077590,373162,312110
972.976,0.077398,382632,320172
976.763,0.078237,391202,326711
981.806,0.078286,400190,334180
985.583,0.079135,406088,338443
989.355,0.079761,410162,341346
993.124,0.079701,412868,343645
996.888,0.080469,414263,344197
1000.65,0.081366,415476,344493
1004.4,0.082521,415479,343580
1009.41,0.083362,414358,341990
1013.15,0.083604,412923,340616
1016.89,0.084078,411526,339093
1020.63,0.084250,409066,336933
1024.36,0.084273,406777,335030
1028.09,0.084281,404427,333088
1031.82,0.083766,401911,331409
1036.78,0.083601,398410,328647
1040.49,0.083718,396204,326739
1044.2,0.083755,394236,325088
1047.91,0.082755,392042,324024
1051.61,0.082766,389823,322182
1055.31,0.082510,388234,321058
1059,0.082483,387599,320553
1063.92,0.080854,386688,321001
1067.61,0.080585,386598,321125
1071.29,0.080140,387377,322102
1074.96,0.079400,388536,323617
1078.63,0.078651,389855,325276
1082.3,0.077525,391215,327258
1085.96,0.076895,393215,329409
1090.84,0.076313,396270,332413
1094.49,0.075890,398760,334828
1098.14,0.075495,400987,337004
1101.79,0.074484,403477,339887
1105.43,0.074343,406116,342221
1109.06,0.074242,407701,343637
1112.7,0.073267,409859,346232
1117.53,0.072524,412494,349055
1121.15,0.072768,414909,350901
1124.77,0.073441,416559,351751
1128.38,0.074392,418532,352644
1131.99,0.075045,419956,353312
1135.6,0.076984,421946,353405
1139.2,0.078085,423881,354127
1143.99,0.080609,426786,354488
1147.58,0.080110,428617,356418
1151.17,0.081630,431169,357287
1154.75,0.082419,433579,358632
1158.33,0.084240,436264,359343
1161.91,0.085705,439132,360487
1165.48,0.087828,442389,361390
1169.04,0.090082,446101,362536
1173.79,0.093215,451929,364632
1177.34,0.095763,456026,365786
1180.9,0.097681,461306,368390
1184.44,0.099694,467657,371735
1187.99,0.100577,473969,375987
1191.52,0.100221,479856,380969
1195.06,0.100644,487372,386560
1199.76,0.099603,497347,395418
1203.29,0.098810,504311,401688
1206.81,0.098972,511507,407267
1210.33,0.097854,519078,414361
1213.84,0.097469,527163,421188
1217.35,0.096977,534208,427300
1220.85,0.096103,540472,433182
1225.51,0.095233,549929,441645
1229.01,0.095046,556888,447427
1232.5,0.094331,562180,452423
1235.98,0.093353,567975,458117
1239.46,0.092541,574815,464502
1242.94,0.091817,582782,471725
1246.41,0.090997,591476,479667
1251.03,0.090638,604016,490242
1254.5,0.091488,612289,495985
1257.96,0.091192,619125,501864
1261.41,0.092221,624551,505064
1264.86,0.092299,629900,509299
1268.31,0.092965,634345,512107
1271.75,0.093644,638574,514716
1276.33,0.093825,642499,517663
1279.76,0.093835,645905,520396
1283.19,0.093540,648307,522686
1286.61,0.092604,650446,525542
1290.03,0.092333,652132,527233
1293.44,0.092172,653907,528864
1296.85,0.091781,655963,531005
1301.39,0.091271,657349,532752
1304.8,0.091862,657558,532196
1308.19,0.091848,658515,532988
1311.58,0.091256,658804,533949
1314.97,0.092453,659011,532647
1318.36,0.092682,658272,531770
1321.73,0.092746,658022,531489
1326.23,0.093834,657870,530037
1329.6,0.094070,656482,528631
1332.97,0.095252,654926,525945
1336.33,0.095667,653727,524481
1339.69,0.097467,652497,521328
1343.04,0.099093,649913,517324
1346.39,0.100988,647671,513294
1349.73,0.102599,645338,509552
1354.18,0.105482,641175,502915
1357.52,0.107614,638376,498267
1360.85,0.109476,635805,494138
1364.17,0.111144,633413,490392
1367.49,0.113528,631026,485869
1370.81,0.115380,628050,481520
1374.12,0.117869,625034,476469
1378.54,0.120637,620272,469835
1381.84,0.123580,616892,464119
1385.14,0.126193,613613,458883
1388.43,0.129628,611526,453719
1391.72,0.133656,610663,448896
1395.01,0.137583,610634,444834
1398.29,0.141489,611700,441621
1402.66,0.147226,614051,437500
1405.93,0.152187,616268,434093
1409.2,0.156241,617795,431125
1412.46,0.160546,618872,427617
1415.72,0.164517,619795,424357
1418.98,0.168344,620495,421109
1422.23,0.171008,621087,418933
1426.56,0.174867,621375,415419
1429.8,0.177239,621616,413317
1433.04,0.180238,622129,410811
1436.27,0.182096,621526,408661
1439.5,0.183852,621113,406742
1442.72,0.186362,620921,404273
1445.94,0.188902,620270,401494
1450.23,0.191970,618860,397761
1453.44,0.195435,617697,393859
1456.64,0.198037,616264,390598
1459.85,0.201184,614413,386613
1463.04,0.204435,612307,382414
1466.24,0.207986,610032,377891
1469.43,0.211272,607345,373391
1473.67,0.218294,603789,365251
1476.85,0.223453,601175,359375
1480.02,0.230314,597737,351719
1483.19,0.237396,594479,344144
1486.36,0.242628,591232,338166
1489.52,0.247883,587853,332189
1492.68,0.251412,583875,327271
1496.89,0.253303,578062,322605
1500.03,0.254112,574159,319831
1503.18,0.253672,570285,317995
1506.32,0.252812,565444,315920
1509.45,0.251633,560571,314049
1512.58,0.250380,555821,312288
1515.71,0.247588,550344,311205
1519.87,0.244723,543983,309644
1522.99,0.241972,538764,308622
1526.1,0.240138,533692,307010
1529.21,0.237059,527902,305840
1532.32,0.233819,521886,304619
1535.42,0.231282,515888,302882
1538.51,0.228360,509987,301439
1541.6,0.225148,503936,300073
1545.72,0.221026,494694,297379
1548.8,0.217868,488378,295725
1551.88,0.215834,481832,293131
1554.95,0.214289,474989,289998
1558.02,0.212722,467818,286652
1561.08,0.211577,460730,283054
1564.15,0.211197,454170,279268
1568.22,0.210165,444181,273776
1571.27,0.209384,436947,269802
1574.32,0.208746,429598,265654
1577.36,0.206722,422039,262199
1580.4,0.206276,414375,257702
1583.43,0.204223,406354,253911
1586.46,0.202963,398475,249711
1590.49,0.202063,388982,244268
1593.51,0.199614,380708,240424
1596.53,0.197666,372727,236442
1599.54,0.196050,365060,232442
1602.55,0.194030,357543,228717
1605.55,0.191349,349495,224953
1608.55,0.189461,341154,220541
1612.54,0.187456,330877,214887
1615.53,0.185279,322904,210763
1618.51,0.186014,315116,205332
1621.49,0.184001,307217,201115
1624.47,0.182172,299481,196878
1627.44,0.181550,292112,192309
1630.41,0.181422,284245,187185
1634.36,0.180569,274079,180845
1637.32,0.179239,266916,176659
1640.27,0.178993,259612,171922
1643.22,0.178097,251804,167096
1646.16,0.177059,244348,162536
1649.1,0.175472,236703,158027
1652.04,0.173518,228171,153018
1655.95,0.172059,215408,144945
1658.88,0.166635,204937,139632
1661.8,0.163198,193395,132815
1664.72,0.152879,179728,126397
1667.63,0.141248,163642,118208
1670.54,0.126414,146312,109362
1673.44,0.107965,128451,100178
1677.31,0.089432,105080,85524
1680.21,0.077895,88906,74308
1683.1,0.069018,75033,64008
1685.99,0.071459,63520,53883
1688.87,0.074056,53714,45293
1691.75,0.078966,45653,38063
1694.62,0.083076,39137,32323
1697.49,0.083705,33776,27855
1701.31,0.098474,28175,22459