File: samples/wool/wool-000811/Column 1_050595_20150331_122104.csv
Method:,Column 1,,
Host Date-Time:,31/3/15 @ 12:21:4,,
Header Version:,1,,
System Temp (C):,33.94,,
Detector Temp (C):,34.69,,
Humidity (%):,1.76,,
Lamp PD:,3818,,
Shift Vector Coefficients:,-10.5391,0.0761263,-0.000134223,,
Pixel to Wavelength Coefficients:,1775.68,-0.916766,-0.000235065,,
Serial Number:,5510004,,
Scan Config Name:,Column 1,,
Scan Config Type:,Slew,,
Section 1,,
Start wavelength (nm):,900,,
End wavelength (nm):,1700,,
Pattern Pixel Width (nm):,   7.03,,,,
Exposure (ms):,  0.635,,,,
Digital Resolution:,228,,
Num Repeats:,6,,
PGA Gain:,64,,
Total Measurement Time in sec:,  2.673,,
Wavelength (nm),Absorbance (AU),Reference Signal (unitless),Sample Signal (unitless)
901.51,0.067794,108485,92806
905.376,0.073269,121306,102474
909.237,0.076095,131909,110708
913.095,0.077438,143299,119896
916.948,0.079495,156982,130724
922.079,0.079527,179937,149828
925.923,0.081740,200504,166105
929.762,0.082291,222660,184226
933.597,0.082072,244426,202337
937.427,0.081757,263972,218676
941.254,0.080551,281845,234131
945.076,0.079995,297271,247262
950.165,0.078678,315605,263309
953.978,0.078185,328029,273985
957.786,0.078400,340470,284236
961.59,0.078310,352317,294187
965.389,0.078614,363056,302942
969.185,0.078314,373162,311590
972.976,0.079078,382632,318936
976.763,0.079753,391202,325573
981.806,0.080016,400190,332851
985.583,0.080009,406088,337762
989.355,0.080567,410162,340713
993.124,0.080925,412868,342678
996.888,0.081892,414263,343071
1000.65,0.082728,415476,343414
1004.4,0.083531,415479,342782
1009.41,0.084222,414358,341314
1013.15,0.085311,412923,339280
1016.89,0.085370,411526,338086
1020.63,0.085241,409066,336165
1024.36,0.085364,406777,334189
1028.09,0.085648,404427,332041
1031.82,0.085348,401911,330204
1036.78,0.084704,398410,327813
1040.49,0.084904,396204,325848
1044.2,0.084457,394236,324563
1047.91,0.083981,392042,323111
1051.61,0.083886,389823,321352
1055.31,0.083531,388234,320304
1059,0.082983,387599,320184
1063.92,0.082690,386688,319647
1067.61,0.081270,386598,320619
1071.29,0.081043,387377,321433
1074.96,0.081089,388536,322361
1078.63,0.080506,389855,323890
1082.3,0.079083,391215,326086
1085.96,0.078555,393215,328152
1090.84,0.077664,396270,331381
1094.49,0.076766,398760,334153
1098.14,0.076604,400987,336145
1101.79,0.076438,403477,338361
1105.43,0.075640,406116,341201
1109.06,0.075155,407701,342915
1112.7,0.075421,409859,344519
1117.53,0.074875,412494,347170
1121.15,0.075361,414909,348812
1124.77,0.074969,416559,350516
1128.38,0.076137,418532,351230
1131.99,0.077303,419956,351480
1135.6,0.078437,421946,352225
1139.2,0.079501,423881,352974
1143.99,0.081749,426786,353558
1147.58,0.082579,428617,354397
1151.17,0.084012,431169,355333
1154.75,0.085026,433579,356486
1158.33,0.086288,436264,357653
1161.91,0.087854,439132,358708
1165.48,0.089585,442389,359931
1169.04,0.092269,446101,360715
1173.79,0.095664,451929,362582
1177.34,0.098252,456026,363695
1180.9,0.099634,461306,366737
1184.44,0.100933,467657,370676
1187.99,0.102084,473969,374685
1191.52,0.102303,479856,379147
1195.06,0.102436,487372,384968
1199.76,0.101392,497347,393793
1203.29,0.100862,504311,399794
1206.81,0.100506,511507,405831
1210.33,0.099663,519078,412638
1213.84,0.099610,527163,419117
1217.35,0.098710,534208,425599
1220.85,0.097997,540472,431297
1225.51,0.097133,549929,439717
1229.01,0.097057,556888,445360
1232.5,0.096191,562180,450489
1235.98,0.095468,567975,455891
1239.46,0.094614,574815,462290
1242.94,0.093914,582782,469453
1246.41,0.093372,591476,477051
1251.03,0.093099,604016,487472
1254.5,0.093191,612289,494044
1257.96,0.093660,619125,499021
1261.41,0.094327,624551,502621
1264.86,0.094702,629900,506489
1268.31,0.095406,634345,509236
1271.75,0.095836,638574,512124
1276.33,0.096333,642499,514682
1279.76,0.095930,645905,517891
1283.19,0.095625,648307,520183
1286.61,0.094682,650446,523033
1290.03,0.094751,652132,524306
1293.44,0.094276,653907,526308
1296.85,0.094129,655963,528142
1301.39,0.093682,657349,529802
1304.8,0.093752,657558,529886
1308.19,0.094142,658515,530181
1311.58,0.094294,658804,530227
1314.97,0.094215,659011,530491
1318.36,0.094996,658272,528944
1321.73,0.095120,658022,528592
1326.23,0.096253,657870,527093
1329.6,0.097259,656482,524764
1332.97,0.098191,654926,522398
1336.33,0.099025,653727,520441
1339.69,0.100656,652497,517515
1343.04,0.102165,649913,513677
1346.39,0.103780,647671,510005
1349.73,0.105829,645338,505776
1354.18,0.108703,641175,499199
1357.52,0.110858,638376,494560
1360.85,0.113053,635805,490084
1364.17,0.114719,633413,486371
1367.49,0.117367,631026,481593
1370.81,0.119001,628050,477522
1374.12,0.121648,625034,472341
1378.54,0.124151,620272,466049
1381.84,0.127391,616892,460064
1385.14,0.130755,613613,454087
1388.43,0.134611,611526,448543
1391.72,0.138593,610663,443822
1395.01,0.143365,610634,438951
1398.29,0.148027,611700,435022
1402.66,0.154764,614051,429972
1405.93,0.159938,616268,426414
1409.2,0.165018,617795,422500
1412.46,0.169319,618872,419065
1415.72,0.173598,619795,415576
1418.98,0.177602,620495,412227
1422.23,0.180942,621087,409459
1426.56,0.184448,621375,406355
1429.8,0.187070,621616,404066
1433.04,0.189693,622129,401964
1436.27,0.191725,621526,399700
1439.5,0.194144,621113,397216
1442.72,0.196719,620921,394746
1445.94,0.198291,620270,392907
1450.23,0.202360,618860,388358
1453.44,0.204913,617697,385356
1456.64,0.207333,616264,382326
1459.85,0.210319,614413,378566
1463.04,0.212557,612307,375329
1466.24,0.216255,610032,370764
1469.43,0.220107,607345,365871
1473.67,0.225970,603789,358852
1476.85,0.231525,601175,352757
1480.02,0.236427,597737,346803
1483.19,0.242862,594479,339840
1486.36,0.248157,591232,333888
1489.52,0.253162,587853,328176
1492.68,0.256074,583875,323777
1496.89,0.257740,578062,319326
1500.03,0.259242,574159,316075
1503.18,0.258110,570285,314762
1506.32,0.256701,565444,313104
1509.45,0.256424,560571,310604
1512.58,0.254847,555821,309092
1515.71,0.252731,550344,307541
1519.87,0.249528,543983,306237
1522.99,0.246611,538764,305343
1526.1,0.244381,533692,304025
1529.21,0.241671,527902,302609
1532.32,0.238933,521886,301053
1535.42,0.236108,515888,299535
1538.51,0.233187,509987,298107
1541.6,0.230282,503936,296547
1545.72,0.226187,494694,293866
1548.8,0.223399,488378,291983
1551.88,0.221559,481832,289292
1554.95,0.219758,474989,286369
1558.02,0.216970,467818,283862
1561.08,0.216589,460730,279806
1564.15,0.215852,454170,276291
1568.22,0.215232,444181,270600
1571.27,0.214495,436947,266645
1574.32,0.213234,429598,262923
1577.36,0.212184,422039,258922
1580.4,0.210950,414375,254943
1583.43,0.209698,406354,250730
1586.46,0.207815,398475,246937
1590.49,0.205397,388982,242400
1593.51,0.203681,380708,238183
1596.53,0.202155,372727,234011
1599.54,0.200189,365060,230237
1602.55,0.197308,357543,226997
1605.55,0.196673,349495,222212
1608.55,0.194169,341154,218163
1612.54,0.192913,330877,212204
1615.53,0.190126,322904,208424
1618.51,0.188689,315116,204071
1621.49,0.188267,307217,199149
1624.47,0.187501,299481,194477
1627.44,0.185997,292112,190350
1630.41,0.185834,284245,185293
1634.36,0.184424,274079,179247
1637.32,0.183257,266916,175032
1640.27,0.182868,259612,170395
1643.22,0.182023,251804,165592
1646.16,0.180722,244348,161171
1649.1,0.181104,236703,155991
1652.04,0.177917,228171,151476
1655.95,0.175536,215408,143789
1658.88,0.172696,204937,137697
1661.8,0.165996,193395,131962
1664.72,0.159736,179728,124417
1667.63,0.146106,163642,116893
1670.54,0.130668,146312,108296
1673.44,0.115248,128451,98512
1677.31,0.094699,105080,84493
1680.21,0.084153,88906,73245
1683.1,0.080416,75033,62350
1685.99,0.078364,63520,53033
1688.87,0.083772,53714,44291
1691.75,0.086342,45653,37422
1694.62,0.091501,39137,31702
1697.49,0.097582,33776,26979
1701.31,0.105963,28175,22075