File: samples/wool/wool-000811/Column 1_050625_20150331_123525.csv
Method:,Column 1,,
Host Date-Time:,31/3/15 @ 12:35:25,,
Header Version:,1,,
System Temp (C):,34.14,,
Detector Temp (C):,35.09,,
Humidity (%):,1.56,,
Lamp PD:,3818,,
Shift Vector Coefficients:,-10.5391,0.0761263,-0.000134223,,
Pixel to Wavelength Coefficients:,1775.68,-0.916766,-0.000235065,,
Serial Number:,5510004,,
Scan Config Name:,Column 1,,
Scan Config Type:,Slew,,
Section 1,,
Start wavelength (nm):,900,,
End wavelength (nm):,1700,,
Pattern Pixel Width (nm):,   7.03,,,,
Exposure (ms):,  0.635,,,,
Digital Resolution:,228,,
Num Repeats:,6,,
PGA Gain:,64,,
Total Measurement Time in sec:,  2.666,,
Wavelength (nm),Absorbance (AU),Reference Signal (unitless),Sample Signal (unitless)
901.51,0.069327,108485,92479
905.376,0.074474,121306,102190
909.237,0.077908,131909,110247
913.095,0.078933,143299,119484
916.948,0.078987,156982,130877
922.079,0.080288,179937,149566
925.923,0.081124,200504,166341
929.762,0.082905,222660,183966
933.597,0.082895,244426,201954
937.427,0.080652,263972,219233
941.254,0.081564,281845,233586
945.076,0.077858,297271,248482
950.165,0.077586,315605,263972
953.978,0.077690,328029,274298
957.786,0.077928,340470,284545
961.59,0.077368,352317,294826
965.389,0.077493,363056,303725
969.185,0.077497,373162,312177
972.976,0.077437,382632,320143
976.763,0.078921,391202,326197
981.806,0.078979,400190,333647
985.583,0.079090,406088,338478
989.355,0.079284,410162,341721
993.124,0.079917,412868,343474
996.888,0.080586,414263,344104
1000.65,0.081188,415476,344634
1004.4,0.082793,415479,343365
1009.41,0.083815,414358,341634
1013.15,0.084065,412923,340255
1016.89,0.084777,411526,338548
1020.63,0.084868,409066,336454
1024.36,0.084676,406777,334719
1028.09,0.084336,404427,333046
1031.82,0.084386,401911,330936
1036.78,0.084218,398410,328180
1040.49,0.083778,396204,326694
1044.2,0.084135,394236,324804
1047.91,0.083627,392042,323374
1051.61,0.082578,389823,322322
1055.31,0.082930,388234,320748
1059,0.082316,387599,320676
1063.92,0.081464,386688,320551
1067.61,0.080289,386598,321344
1071.29,0.080275,387377,322002
1074.96,0.079858,388536,323276
1078.63,0.079004,389855,325012
1082.3,0.077846,391215,327016
1085.96,0.077367,393215,329051
1090.84,0.076603,396270,332191
1094.49,0.075794,398760,334902
1098.14,0.075290,400987,337163
1101.79,0.074923,403477,339544
1105.43,0.074654,406116,341976
1109.06,0.073695,407701,344070
1112.7,0.073360,409859,346158
1117.53,0.072805,412494,348829
1121.15,0.073995,414909,349911
1124.77,0.073505,416559,351699
1128.38,0.075113,418532,352059
1131.99,0.076087,419956,352466
1135.6,0.077396,421946,353070
1139.2,0.078322,423881,353934
1143.99,0.080389,426786,354667
1147.58,0.081166,428617,355552
1151.17,0.082102,431169,356899
1154.75,0.083095,433579,358074
1158.33,0.084150,436264,359418
1161.91,0.086355,439132,359948
1165.48,0.088042,442389,361212
1169.04,0.090409,446101,362263
1173.79,0.093715,451929,364213
1177.34,0.095567,456026,365951
1180.9,0.097580,461306,368476
1184.44,0.100059,467657,371423
1187.99,0.100774,473969,375817
1191.52,0.100566,479856,380667
1195.06,0.100711,487372,386500
1199.76,0.100570,497347,394539
1203.29,0.099605,504311,400953
1206.81,0.099140,511507,407110
1210.33,0.098080,519078,414145
1213.84,0.097513,527163,421145
1217.35,0.097012,534208,427266
1220.85,0.096008,540472,433277
1225.51,0.095586,549929,441286
1229.01,0.094708,556888,447775
1232.5,0.094407,562180,452344
1235.98,0.093859,567975,457583
1239.46,0.093049,574815,463958
1242.94,0.091484,582782,472087
1246.41,0.090779,591476,479908
1251.03,0.091277,604016,489521
1254.5,0.091489,612289,495984
1257.96,0.091728,619125,501245
1261.41,0.092159,624551,505137
1264.86,0.092954,629900,508531
1268.31,0.093370,634345,511630
1271.75,0.093780,638574,514554
1276.33,0.093929,642499,517539
1279.76,0.093823,645905,520410
1283.19,0.093439,648307,522807
1286.61,0.092808,650446,525295
1290.03,0.092764,652132,526710
1293.44,0.092430,653907,528550
1296.85,0.092003,655963,530733
1301.39,0.091970,657349,531895
1304.8,0.091637,657558,532472
1308.19,0.092200,658515,532556
1311.58,0.091600,658804,533527
1314.97,0.092062,659011,533127
1318.36,0.092423,658272,532087
1321.73,0.092351,658022,531973
1326.23,0.093658,657870,530252
1329.6,0.094555,656482,528041
1332.97,0.095211,654926,525994
1336.33,0.096223,653727,523810
1339.69,0.097665,652497,521091
1343.04,0.098925,649913,517524
1346.39,0.101324,647671,512897
1349.73,0.102490,645338,509679
1354.18,0.105517,641175,502874
1357.52,0.107888,638376,497953
1360.85,0.109714,635805,493867
1364.17,0.111533,633413,489952
1367.49,0.113414,631026,485997
1370.81,0.115668,628050,481201
1374.12,0.117907,625034,476427
1378.54,0.120712,620272,469754
1381.84,0.123476,616892,464230
1385.14,0.126736,613613,458309
1388.43,0.130141,611526,453183
1391.72,0.134217,610663,448316
1395.01,0.137298,610634,445126
1398.29,0.141620,611700,441488
1402.66,0.147401,614051,437324
1405.93,0.152340,616268,433940
1409.2,0.156576,617795,430793
1412.46,0.160902,618872,427266
1415.72,0.164848,619795,424033
1418.98,0.167925,620495,421515
1422.23,0.171144,621087,418802
1426.56,0.175181,621375,415119
1429.8,0.178292,621616,412316
1433.04,0.180145,622129,410899
1436.27,0.182008,621526,408744
1439.5,0.184384,621113,406244
1442.72,0.186563,620921,404086
1445.94,0.189585,620270,400863
1450.23,0.192560,618860,397221
1453.44,0.195773,617697,393552
1456.64,0.198271,616264,390387
1459.85,0.200987,614413,386788
1463.04,0.203786,612307,382986
1466.24,0.207554,610032,378267
1469.43,0.211464,607345,373226
1473.67,0.218183,603789,365344
1476.85,0.224012,601175,358913
1480.02,0.229890,597737,352063
1483.19,0.236863,594479,344567
1486.36,0.242945,591232,337919
1489.52,0.248594,587853,331646
1492.68,0.251560,583875,327160
1496.89,0.253668,578062,322334
1500.03,0.253820,574159,320046
1503.18,0.253640,570285,318018
1506.32,0.253646,565444,315314
1509.45,0.251921,560571,313841
1512.58,0.250309,555821,312339
1515.71,0.247817,550344,311041
1519.87,0.245218,543983,309291
1522.99,0.242721,538764,308090
1526.1,0.240397,533692,306827
1529.21,0.237370,527902,305621
1532.32,0.234362,521886,304238
1535.42,0.231441,515888,302771
1538.51,0.228292,509987,301486
1541.6,0.225525,503936,299813
1545.72,0.221637,494694,296961
1548.8,0.219047,488378,294923
1551.88,0.216491,481832,292688
1554.95,0.214160,474989,290084
1558.02,0.212858,467818,286562
1561.08,0.212291,460730,282589
1564.15,0.211642,454170,278982
1568.22,0.209968,444181,273900
1571.27,0.209633,436947,269647
1574.32,0.208775,429598,265636
1577.36,0.208040,422039,261404
1580.4,0.206954,414375,257300
1583.43,0.205576,406354,253121
1586.46,0.203331,398475,249500
1590.49,0.201700,388982,244472
1593.51,0.200442,380708,239966
1596.53,0.198214,372727,236144
1599.54,0.195667,365060,232647
1602.55,0.194402,357543,228521
1605.55,0.192420,349495,224399
1608.55,0.190644,341154,219941
1612.54,0.189097,330877,214077
1615.53,0.186104,322904,210363
1618.51,0.185650,315116,205504
1621.49,0.184744,307217,200771
1624.47,0.183699,299481,196187
1627.44,0.182497,292112,191890
1630.41,0.181343,284245,187219
1634.36,0.180267,274079,180971
1637.32,0.179332,266916,176621
1640.27,0.178920,259612,171951
1643.22,0.178227,251804,167046
1646.16,0.177629,244348,162323
1649.1,0.176491,236703,157657
1652.04,0.174638,228171,152624
1655.95,0.172095,215408,144933
1658.88,0.168574,204937,139010
1661.8,0.163077,193395,132852
1664.72,0.156173,179728,125442
1667.63,0.141424,163642,118160
1670.54,0.129362,146312,108622
1673.44,0.111347,128451,99401
1677.31,0.090220,105080,85369
1680.21,0.080293,88906,73899
1683.1,0.071597,75033,63629
1685.99,0.075255,63520,53414
1688.87,0.072926,53714,45411
1691.75,0.085994,45653,37452
1694.62,0.083183,39137,32315
1697.49,0.088502,33776,27549
1701.31,0.110254,28175,21858