File: samples/wool/wool-000811/Column 1_050614_20150331_123014.csv
Method:,Column 1,,
Host Date-Time:,31/3/15 @ 12:30:14,,
Header Version:,1,,
System Temp (C):,34.09,,
Detector Temp (C):,34.97,,
Humidity (%):,1.66,,
Lamp PD:,3818,,
Shift Vector Coefficients:,-10.5391,0.0761263,-0.000134223,,
Pixel to Wavelength Coefficients:,1775.68,-0.916766,-0.000235065,,
Serial Number:,5510004,,
Scan Config Name:,Column 1,,
Scan Config Type:,Slew,,
Section 1,,
Start wavelength (nm):,900,,
End wavelength (nm):,1700,,
Pattern Pixel Width (nm):,   7.03,,,,
Exposure (ms):,  0.635,,,,
Digital Resolution:,228,,
Num Repeats:,6,,
PGA Gain:,64,,
Total Measurement Time in sec:,  2.733,,
Wavelength (nm),Absorbance (AU),Reference Signal (unitless),Sample Signal (unitless)
901.51,0.068332,108485,92691
905.376,0.074810,121306,102111
909.237,0.076653,131909,110566
913.095,0.077438,143299,119896
916.948,0.079923,156982,130595
922.079,0.081197,179937,149253
925.923,0.081505,200504,166195
929.762,0.082548,222660,184117
933.597,0.081564,244426,202574
937.427,0.080367,263972,219377
941.254,0.079569,281845,234661
945.076,0.078895,297271,247889
950.165,0.078292,315605,263543
953.978,0.077367,328029,274502
957.786,0.077091,340470,285094
961.59,0.077580,352317,294682
965.389,0.077316,363056,303849
969.185,0.077171,373162,312411
972.976,0.077512,382632,320088
976.763,0.078697,391202,326365
981.806,0.078656,400190,333895
985.583,0.079273,406088,338335
989.355,0.079490,410162,341559
993.124,0.080026,412868,343388
996.888,0.080679,414263,344031
1000.65,0.081156,415476,344659
1004.4,0.082634,415479,343491
1009.41,0.083929,414358,341544
1013.15,0.084223,412923,340131
1016.89,0.084932,411526,338427
1020.63,0.085043,409066,336318
1024.36,0.084251,406777,335047
1028.09,0.084365,404427,333024
1031.82,0.084432,401911,330901
1036.78,0.083856,398410,328454
1040.49,0.083335,396204,327027
1044.2,0.083767,394236,325079
1047.91,0.083327,392042,323598
1051.61,0.083117,389823,321922
1055.31,0.082850,388234,320807
1059,0.081648,387599,321170
1063.92,0.081877,386688,320246
1067.61,0.080366,386598,321287
1071.29,0.080202,387377,322056
1074.96,0.080002,388536,323169
1078.63,0.079230,389855,324843
1082.3,0.078447,391215,326564
1085.96,0.077523,393215,328933
1090.84,0.076422,396270,332330
1094.49,0.076056,398760,334700
1098.14,0.075858,400987,336723
1101.79,0.074953,403477,339520
1105.43,0.075173,406116,341568
1109.06,0.073660,407701,344098
1112.7,0.073537,409859,346017
1117.53,0.072907,412494,348747
1121.15,0.073645,414909,350193
1124.77,0.073741,416559,351508
1128.38,0.074483,418532,352570
1131.99,0.076043,419956,352501
1135.6,0.076908,421946,353467
1139.2,0.078582,423881,353722
1143.99,0.080993,426786,354174
1147.58,0.081442,428617,355326
1151.17,0.082200,431169,356819
1154.75,0.082975,433579,358173
1158.33,0.084177,436264,359395
1161.91,0.086299,439132,359995
1165.48,0.088602,442389,360747
1169.04,0.090602,446101,362102
1173.79,0.094045,451929,363936
1177.34,0.095662,456026,365871
1180.9,0.097883,461306,368219
1184.44,0.100114,467657,371376
1187.99,0.100784,473969,375808
1191.52,0.100906,479856,380369
1195.06,0.100837,487372,386388
1199.76,0.100683,497347,394436
1203.29,0.099633,504311,400927
1206.81,0.098819,511507,407411
1210.33,0.098300,519078,413935
1213.84,0.098154,527163,420524
1217.35,0.097406,534208,426879
1220.85,0.096208,540472,433077
1225.51,0.095401,549929,441475
1229.01,0.095035,556888,447438
1232.5,0.094787,562180,451948
1235.98,0.094586,567975,456818
1239.46,0.093216,574815,463780
1242.94,0.091539,582782,472027
1246.41,0.091784,591476,478799
1251.03,0.091994,604016,488714
1254.5,0.091313,612289,496185
1257.96,0.092152,619125,500756
1261.41,0.092679,624551,504532
1264.86,0.092955,629900,508530
1268.31,0.093357,634345,511645
1271.75,0.093762,638574,514576
1276.33,0.094513,642499,516844
1279.76,0.094230,645905,519923
1283.19,0.093817,648307,522352
1286.61,0.093303,650446,524697
1290.03,0.092952,652132,526482
1293.44,0.092659,653907,528271
1296.85,0.092367,655963,530289
1301.39,0.091990,657349,531871
1304.8,0.091808,657558,532263
1308.19,0.092056,658515,532733
1311.58,0.092389,658804,532558
1314.97,0.092584,659011,532486
1318.36,0.092905,658272,531496
1321.73,0.093287,658022,530827
1326.23,0.093813,657870,530062
1329.6,0.094656,656482,527919
1332.97,0.095748,654926,525344
1336.33,0.096344,653727,523664
1339.69,0.098397,652497,520213
1343.04,0.099925,649913,516333
1346.39,0.101008,647671,513271
1349.73,0.103253,645338,508785
1354.18,0.106340,641175,501922
1357.52,0.108271,638376,497514
1360.85,0.110288,635805,493215
1364.17,0.112322,633413,489063
1367.49,0.114595,631026,484677
1370.81,0.116615,628050,480152
1374.12,0.118319,625034,475976
1378.54,0.121464,620272,468941
1381.84,0.123944,616892,463730
1385.14,0.127496,613613,457508
1388.43,0.130882,611526,452411
1391.72,0.134793,610663,447722
1395.01,0.138561,610634,443833
1398.29,0.143586,611700,439494
1402.66,0.149210,614051,435506
1405.93,0.153963,616268,432321
1409.2,0.158575,617795,428814
1412.46,0.162783,618872,425420
1415.72,0.166950,619795,421986
1418.98,0.170499,620495,419024
1422.23,0.173371,621087,416660
1426.56,0.177007,621375,413377
1429.8,0.179663,621616,411016
1433.04,0.182157,622129,409000
1436.27,0.184539,621526,406369
1439.5,0.186175,621113,404572
1442.72,0.188757,620921,402049
1445.94,0.190778,620270,399763
1450.23,0.195035,618860,394964
1453.44,0.197126,617697,392328
1456.64,0.200285,616264,388581
1459.85,0.203255,614413,384774
1463.04,0.205582,612307,381406
1466.24,0.209156,610032,376874
1469.43,0.213401,607345,371565
1473.67,0.219760,603789,364020
1476.85,0.225304,601175,357847
1480.02,0.231675,597737,350619
1483.19,0.238257,594479,343463
1486.36,0.244297,591232,336869
1489.52,0.249143,587853,331227
1492.68,0.252687,583875,326312
1496.89,0.254499,578062,321718
1500.03,0.254886,574159,319261
1503.18,0.255255,570285,316838
1506.32,0.254388,565444,314776
1509.45,0.252959,560571,313092
1512.58,0.251173,555821,311718
1515.71,0.248833,550344,310314
1519.87,0.245995,543983,308738
1522.99,0.243823,538764,307309
1526.1,0.240737,533692,306587
1529.21,0.237836,527902,305293
1532.32,0.234762,521886,303958
1535.42,0.232556,515888,301995
1538.51,0.229309,509987,300781
1541.6,0.226534,503936,299117
1545.72,0.222694,494694,296239
1548.8,0.219944,488378,294315
1551.88,0.217889,481832,291747
1554.95,0.215380,474989,289270
1558.02,0.213644,467818,286044
1561.08,0.212351,460730,282550
1564.15,0.211938,454170,278792
1568.22,0.210403,444181,273626
1571.27,0.210205,436947,269292
1574.32,0.209535,429598,265172
1577.36,0.208644,422039,261041
1580.4,0.207153,414375,257182
1583.43,0.206033,406354,252855
1586.46,0.203585,398475,249354
1590.49,0.202867,388982,243816
1593.51,0.200806,380708,239765
1596.53,0.199046,372727,235692
1599.54,0.196590,365060,232153
1602.55,0.194760,357543,228333
1605.55,0.192345,349495,224438
1608.55,0.190581,341154,219973
1612.54,0.189040,330877,214105
1615.53,0.186658,322904,210095
1618.51,0.186736,315116,204991
1621.49,0.186189,307217,200104
1624.47,0.183974,299481,196063
1627.44,0.183896,292112,191273
1630.41,0.182791,284245,186596
1634.36,0.180536,274079,180859
1637.32,0.180243,266916,176251
1640.27,0.180129,259612,171473
1643.22,0.179283,251804,166640
1646.16,0.177894,244348,162224
1649.1,0.176730,236703,157570
1652.04,0.174692,228171,152605
1655.95,0.172757,215408,144712
1658.88,0.167358,204937,139400
1661.8,0.163512,193395,132719
1664.72,0.156128,179728,125455
1667.63,0.142322,163642,117916
1670.54,0.128887,146312,108741
1673.44,0.113041,128451,99014
1677.31,0.091601,105080,85098
1680.21,0.080463,88906,73870
1683.1,0.073218,75033,63392
1685.99,0.076151,63520,53304
1688.87,0.076267,53714,45063
1691.75,0.081403,45653,37850
1694.62,0.081052,39137,32474
1697.49,0.086317,33776,27688
1701.31,0.109678,28175,21887