File: samples/wool/wool-000811/Column 1_050549_20150331_115934.csv
Method:,Column 1,,
Host Date-Time:,31/3/15 @ 11:59:34,,
Header Version:,1,,
System Temp (C):,33.28,,
Detector Temp (C):,32.07,,
Humidity (%):,2.25,,
Lamp PD:,3822,,
Shift Vector Coefficients:,-10.5391,0.0761263,-0.000134223,,
Pixel to Wavelength Coefficients:,1775.68,-0.916766,-0.000235065,,
Serial Number:,5510004,,
Scan Config Name:,Column 1,,
Scan Config Type:,Slew,,
Section 1,,
Start wavelength (nm):,900,,
End wavelength (nm):,1700,,
Pattern Pixel Width (nm):,   7.03,,,,
Exposure (ms):,  0.635,,,,
Digital Resolution:,228,,
Num Repeats:,6,,
PGA Gain:,64,,
Total Measurement Time in sec:,  2.661,,
Wavelength (nm),Absorbance (AU),Reference Signal (unitless),Sample Signal (unitless)
901.51,0.045493,108485,97696
905.376,0.050471,121306,107997
909.237,0.054031,131909,116478
913.095,0.054551,143299,126384
916.948,0.054118,156982,138590
922.079,0.054757,179937,158622
925.923,0.055782,200504,176336
929.762,0.056744,222660,195388
933.597,0.056759,244426,214481
937.427,0.056313,263972,231870
941.254,0.056586,281845,247414
945.076,0.054908,297271,261966
950.165,0.055268,315605,277892
953.978,0.054712,328029,289201
957.786,0.055775,340470,299436
961.59,0.056533,352317,309315
965.389,0.056194,363056,318992
969.185,0.056657,373162,327522
972.976,0.056619,382632,335863
976.763,0.057036,391202,343056
981.806,0.058032,400190,350134
985.583,0.058263,406088,355105
989.355,0.059129,410162,357953
993.124,0.060124,412868,359490
996.888,0.060215,414263,360629
1000.65,0.061393,415476,360706
1004.4,0.061950,415479,360246
1009.41,0.063598,414358,357913
1013.15,0.063760,412923,356541
1016.89,0.064259,411526,354926
1020.63,0.063625,409066,353320
1024.36,0.064023,406777,351021
1028.09,0.064099,404427,348932
1031.82,0.063877,401911,346939
1036.78,0.063113,398410,344522
1040.49,0.062363,396204,343207
1044.2,0.062217,394236,341617
1047.91,0.061606,392042,340194
1051.61,0.060536,389823,339103
1055.31,0.060370,388234,337850
1059,0.059511,387599,337965
1063.92,0.058282,386688,338126
1067.61,0.056660,386598,339312
1071.29,0.056234,387377,340330
1074.96,0.055863,388536,341640
1078.63,0.054376,389855,343975
1082.3,0.053692,391215,345719
1085.96,0.052936,393215,348092
1090.84,0.052414,396270,351218
1094.49,0.052368,398760,353463
1098.14,0.051546,400987,356110
1101.79,0.051235,403477,358578
1105.43,0.051476,406116,360723
1109.06,0.051482,407701,362126
1112.7,0.050776,409859,364635
1117.53,0.051121,412494,366688
1121.15,0.051390,414909,368606
1124.77,0.052130,416559,369442
1128.38,0.053397,418532,370111
1131.99,0.055184,419956,369845
1135.6,0.057376,421946,369727
1139.2,0.058645,423881,370339
1143.99,0.061850,426786,370135
1147.58,0.063205,428617,370565
1151.17,0.064778,431169,371424
1154.75,0.066538,433579,371989
1158.33,0.067606,436264,373373
1161.91,0.070573,439132,373269
1165.48,0.073404,442389,373594
1169.04,0.076372,446101,374163
1173.79,0.080560,451929,375414
1177.34,0.083087,456026,376619
1180.9,0.085357,461306,378994
1184.44,0.087709,467657,382136
1187.99,0.088395,473969,386683
1191.52,0.087610,479856,392194
1195.06,0.087533,487372,398408
1199.76,0.085890,497347,408103
1203.29,0.084805,504311,414852
1206.81,0.083625,511507,421917
1210.33,0.082400,519078,429371
1213.84,0.081102,527163,437364
1217.35,0.080450,534208,443875
1220.85,0.079062,540472,450517
1225.51,0.077693,549929,459847
1229.01,0.077071,556888,466334
1232.5,0.076093,562180,471827
1235.98,0.075169,567975,477706
1239.46,0.073971,574815,484794
1242.94,0.072862,582782,492770
1246.41,0.072467,591476,500576
1251.03,0.072029,604016,511705
1254.5,0.072147,612289,518572
1257.96,0.072517,619125,523916
1261.41,0.072714,624551,528268
1264.86,0.073823,629900,531433
1268.31,0.074083,634345,534863
1271.75,0.075078,638574,537197
1276.33,0.075356,642499,540153
1279.76,0.075096,645905,543341
1283.19,0.074059,648307,546666
1286.61,0.074248,650446,548230
1290.03,0.073469,652132,550638
1293.44,0.073042,653907,552680
1296.85,0.073122,655963,554316
1301.39,0.072489,657349,556298
1304.8,0.072293,657558,556726
1308.19,0.072938,658515,556708
1311.58,0.073150,658804,556681
1314.97,0.073739,659011,556101
1318.36,0.074015,658272,555124
1321.73,0.074167,658022,554720
1326.23,0.075301,657870,553145
1329.6,0.076609,656482,550318
1332.97,0.077351,654926,548077
1336.33,0.078990,653727,545013
1339.69,0.081075,652497,541382
1343.04,0.082238,649913,537795
1346.39,0.085077,647671,532448
1349.73,0.087588,645338,527472
1354.18,0.091133,641175,519809
1357.52,0.093419,638376,514822
1360.85,0.096299,635805,509360
1364.17,0.098522,633413,504853
1367.49,0.100629,631026,500516
1370.81,0.103881,628050,494440
1374.12,0.106343,625034,489284
1378.54,0.110378,620272,481066
1381.84,0.113933,616892,474544
1385.14,0.118538,613613,467043
1388.43,0.123425,611526,460246
1391.72,0.129155,610663,453572
1395.01,0.134047,610634,448471
1398.29,0.140140,611700,442995
1402.66,0.148397,614051,436322
1405.93,0.154565,616268,431722
1409.2,0.160776,617795,426647
1412.46,0.166500,618872,421794
1415.72,0.171695,619795,417401
1418.98,0.176043,620495,413709
1422.23,0.180008,621087,410341
1426.56,0.184651,621375,406165
1429.8,0.187498,621616,403668
1433.04,0.190430,622129,401283
1436.27,0.192749,621526,398759
1439.5,0.194614,621113,396786
1442.72,0.197790,620921,393773
1445.94,0.200324,620270,391072
1450.23,0.204252,618860,386670
1453.44,0.206809,617697,383678
1456.64,0.209577,616264,380356
1459.85,0.212396,614413,376760
1463.04,0.215180,612307,373069
1466.24,0.218741,610032,368648
1469.43,0.222205,607345,364108
1473.67,0.227734,603789,357397
1476.85,0.233347,601175,351280
1480.02,0.239148,597737,344637
1483.19,0.246230,594479,337215
1486.36,0.251770,591232,331122
1489.52,0.256891,587853,325370
1492.68,0.260743,583875,320315
1496.89,0.264133,578062,314660
1500.03,0.265180,574159,311783
1503.18,0.265520,570285,309437
1506.32,0.264864,565444,307274
1509.45,0.263004,560571,305933
1512.58,0.262166,555821,303927
1515.71,0.259814,550344,302566
1519.87,0.256562,543983,301317
1522.99,0.253878,538764,300276
1526.1,0.250963,533692,299452
1529.21,0.247488,527902,298583
1532.32,0.244920,521886,296931
1535.42,0.242308,515888,295289
1538.51,0.238505,509987,294479
1541.6,0.234792,503936,293483
1545.72,0.229571,494694,291585
1548.8,0.226563,488378,289863
1551.88,0.223800,481832,287803
1554.95,0.221166,474989,285442
1558.02,0.219990,467818,281895
1561.08,0.217607,460730,279151
1564.15,0.218022,454170,274914
1568.22,0.216232,444181,269978
1571.27,0.215353,436947,266119
1574.32,0.214319,429598,262267
1577.36,0.212692,422039,258619
1580.4,0.211271,414375,254755
1583.43,0.208382,406354,251491
1586.46,0.208132,398475,246757
1590.49,0.205023,388982,242609
1593.51,0.202374,380708,238901
1596.53,0.200484,372727,234913
1599.54,0.197965,365060,231419
1602.55,0.196059,357543,227651
1605.55,0.193515,349495,223834
1608.55,0.191077,341154,219722
1612.54,0.189050,330877,214100
1615.53,0.185962,322904,210432
1618.51,0.184652,315116,205977
1621.49,0.182630,307217,201751
1624.47,0.182274,299481,196832
1627.44,0.181430,292112,192362
1630.41,0.179477,284245,188025
1634.36,0.177499,274079,182128
1637.32,0.176438,266916,177802
1640.27,0.175005,259612,173508
1643.22,0.174058,251804,168657
1646.16,0.173491,244348,163877
1649.1,0.172902,236703,158965
1652.04,0.171234,228171,153825
1655.95,0.169037,215408,145957
1658.88,0.165381,204937,140036
1661.8,0.163198,193395,132815
1664.72,0.157984,179728,124920
1667.63,0.150498,163642,115717
1670.54,0.143149,146312,105228
1673.44,0.133338,128451,94493
1677.31,0.122647,105080,79227
1680.21,0.122260,88906,67092
1683.1,0.120690,75033,56828
1685.99,0.126354,63520,47485
1688.87,0.127268,53714,40070
1691.75,0.137704,45653,33248
1694.62,0.146066,39137,27959
1697.49,0.148035,33776,24020
1701.31,0.147360,28175,20068