File: samples/wool/wool-000811/Column 1_050606_20150331_122621.csv
Method:,Column 1,,
Host Date-Time:,31/3/15 @ 12:26:21,,
Header Version:,1,,
System Temp (C):,34.01,,
Detector Temp (C):,34.87,,
Humidity (%):,1.66,,
Lamp PD:,3818,,
Shift Vector Coefficients:,-10.5391,0.0761263,-0.000134223,,
Pixel to Wavelength Coefficients:,1775.68,-0.916766,-0.000235065,,
Serial Number:,5510004,,
Scan Config Name:,Column 1,,
Scan Config Type:,Slew,,
Section 1,,
Start wavelength (nm):,900,,
End wavelength (nm):,1700,,
Pattern Pixel Width (nm):,   7.03,,,,
Exposure (ms):,  0.635,,,,
Digital Resolution:,228,,
Num Repeats:,6,,
PGA Gain:,64,,
Total Measurement Time in sec:,  2.733,,
Wavelength (nm),Absorbance (AU),Reference Signal (unitless),Sample Signal (unitless)
901.51,0.068356,108485,92686
905.376,0.073400,121306,102443
909.237,0.076099,131909,110707
913.095,0.077449,143299,119893
916.948,0.078718,156982,130958
922.079,0.080189,179937,149600
925.923,0.081829,200504,166071
929.762,0.082275,222660,184233
933.597,0.081806,244426,202461
937.427,0.080906,263972,219105
941.254,0.080171,281845,234336
945.076,0.078897,297271,247888
950.165,0.078019,315605,263709
953.978,0.077460,328029,274443
957.786,0.076768,340470,285306
961.59,0.077559,352317,294696
965.389,0.078035,363056,303346
969.185,0.077494,373162,312179
972.976,0.078052,382632,319690
976.763,0.077875,391202,326984
981.806,0.078503,400190,334013
985.583,0.079737,406088,337974
989.355,0.079734,410162,341367
993.124,0.080268,412868,343197
996.888,0.080734,414263,343987
1000.65,0.081921,415476,344053
1004.4,0.082739,415479,343408
1009.41,0.084200,414358,341331
1013.15,0.084266,412923,340097
1016.89,0.085177,411526,338236
1020.63,0.084553,409066,336698
1024.36,0.085250,406777,334277
1028.09,0.084276,404427,333092
1031.82,0.084810,401911,330613
1036.78,0.083352,398410,328835
1040.49,0.084064,396204,326479
1044.2,0.083474,394236,325299
1047.91,0.083517,392042,323456
1051.61,0.083267,389823,321811
1055.31,0.082612,388234,320983
1059,0.082402,387599,320613
1063.92,0.081653,386688,320411
1067.61,0.081125,386598,320726
1071.29,0.080517,387377,321823
1074.96,0.080191,388536,323028
1078.63,0.078882,389855,325103
1082.3,0.078111,391215,326817
1085.96,0.077615,393215,328863
1090.84,0.076700,396270,332117
1094.49,0.076554,398760,334316
1098.14,0.075397,400987,337080
1101.79,0.075118,403477,339391
1105.43,0.075027,406116,341683
1109.06,0.073595,407701,344149
1112.7,0.074135,409859,345541
1117.53,0.073215,412494,348500
1121.15,0.074229,414909,349723
1124.77,0.074049,416559,351259
1128.38,0.075044,418532,352115
1131.99,0.076149,419956,352415
1135.6,0.077507,421946,352980
1139.2,0.079038,423881,353351
1143.99,0.080512,426786,354567
1147.58,0.081172,428617,355547
1151.17,0.083298,431169,355918
1154.75,0.083088,433579,358080
1158.33,0.084666,436264,358991
1161.91,0.086816,439132,359566
1165.48,0.088624,442389,360728
1169.04,0.090847,446101,361898
1173.79,0.094443,451929,363603
1177.34,0.096370,456026,365275
1180.9,0.098818,461306,367427
1184.44,0.100709,467657,370867
1187.99,0.101239,473969,375414
1191.52,0.101589,479856,379771
1195.06,0.101069,487372,386182
1199.76,0.100823,497347,394309
1203.29,0.099385,504311,401156
1206.81,0.099186,511507,407067
1210.33,0.099004,519078,413265
1213.84,0.098217,527163,420463
1217.35,0.097403,534208,426882
1220.85,0.097150,540472,432139
1225.51,0.095867,549929,441001
1229.01,0.095742,556888,446710
1232.5,0.095196,562180,451523
1235.98,0.094332,567975,457085
1239.46,0.093554,574815,463419
1242.94,0.092494,582782,470990
1246.41,0.091728,591476,478861
1251.03,0.091955,604016,488757
1254.5,0.091778,612289,495654
1257.96,0.092253,619125,500640
1261.41,0.093290,624551,503823
1264.86,0.093306,629900,508119
1268.31,0.094529,634345,510266
1271.75,0.094639,638574,513538
1276.33,0.094620,642499,516717
1279.76,0.094797,645905,519244
1283.19,0.093830,648307,522337
1286.61,0.093723,650446,524189
1290.03,0.093211,652132,526168
1293.44,0.092958,653907,527908
1296.85,0.092852,655963,529697
1301.39,0.092304,657349,531486
1304.8,0.092260,657558,531709
1308.19,0.092781,658515,531845
1311.58,0.092749,658804,532117
1314.97,0.093152,659011,531791
1318.36,0.093767,658272,530443
1321.73,0.093603,658022,530441
1326.23,0.094500,657870,529225
1329.6,0.095483,656482,526914
1332.97,0.096366,654926,524597
1336.33,0.097160,653727,522681
1339.69,0.098704,652497,519846
1343.04,0.099937,649913,516319
1346.39,0.102030,647671,512064
1349.73,0.104245,645338,507624
1354.18,0.106868,641175,501313
1357.52,0.109237,638376,496409
1360.85,0.111078,635805,492318
1364.17,0.112949,633413,488358
1367.49,0.115152,631026,484056
1370.81,0.117459,628050,479220
1374.12,0.119176,625034,475037
1378.54,0.122593,620272,467723
1381.84,0.124797,616892,462820
1385.14,0.128789,613613,456148
1388.43,0.131672,611526,451589
1391.72,0.136377,610663,446092
1395.01,0.140542,610634,441813
1398.29,0.144205,611700,438868
1402.66,0.150860,614051,433855
1405.93,0.156430,616268,429872
1409.2,0.160642,617795,426778
1412.46,0.165207,618872,423052
1415.72,0.168893,619795,420102
1418.98,0.172226,620495,417361
1422.23,0.176320,621087,413840
1426.56,0.179914,621375,410620
1429.8,0.182126,621616,408692
1433.04,0.184456,622129,406841
1436.27,0.187131,621526,403951
1439.5,0.189099,621113,401857
1442.72,0.191367,620921,399640
1445.94,0.193689,620270,397093
1450.23,0.197382,618860,392835
1453.44,0.200086,617697,389663
1456.64,0.202989,616264,386169
1459.85,0.205466,614413,382820
1463.04,0.208316,612307,379012
1466.24,0.211953,610032,374455
1469.43,0.215376,607345,369879
1473.67,0.221450,603789,362606
1476.85,0.227644,601175,355924
1480.02,0.233246,597737,349353
1483.19,0.239964,594479,342115
1486.36,0.246260,591232,335350
1489.52,0.250731,587853,330018
1492.68,0.253204,583875,325924
1496.89,0.255949,578062,320646
1500.03,0.256414,574159,318140
1503.18,0.255895,570285,316371
1506.32,0.255442,565444,314013
1509.45,0.254359,560571,312084
1512.58,0.252254,555821,310943
1515.71,0.250026,550344,309463
1519.87,0.246857,543983,308126
1522.99,0.244894,538764,306552
1526.1,0.242853,533692,305097
1529.21,0.239224,527902,304319
1532.32,0.236134,521886,302999
1535.42,0.234029,515888,300972
1538.51,0.230623,509987,299872
1541.6,0.227939,503936,298151
1545.72,0.223731,494694,295533
1548.8,0.220811,488378,293728
1551.88,0.217968,481832,291694
1554.95,0.216681,474989,288405
1558.02,0.214745,467818,285320
1561.08,0.214496,460730,281158
1564.15,0.213675,454170,277679
1568.22,0.212283,444181,272444
1571.27,0.211879,436947,268256
1574.32,0.211072,429598,264235
1577.36,0.209808,422039,260342
1580.4,0.207853,414375,256768
1583.43,0.206789,406354,252415
1586.46,0.205862,398475,248050
1590.49,0.203918,388982,243227
1593.51,0.201700,380708,239272
1596.53,0.199728,372727,235322
1599.54,0.198076,365060,231360
1602.55,0.196078,357543,227641
1605.55,0.193800,349495,223687
1608.55,0.192076,341154,219217
1612.54,0.190263,330877,213503
1615.53,0.187653,322904,209614
1618.51,0.187147,315116,204797
1621.49,0.187792,307217,199367
1624.47,0.185012,299481,195595
1627.44,0.184723,292112,190909
1630.41,0.184159,284245,186009
1634.36,0.181683,274079,180382
1637.32,0.181032,266916,175931
1640.27,0.180661,259612,171263
1643.22,0.179813,251804,166437
1646.16,0.178620,244348,161953
1649.1,0.178307,236703,156999
1652.04,0.176037,228171,152133
1655.95,0.174670,215408,144076
1658.88,0.170921,204937,138261
1661.8,0.164583,193395,132392
1664.72,0.157612,179728,125027
1667.63,0.144367,163642,117362
1670.54,0.132681,146312,107795
1673.44,0.113076,128451,99006
1677.31,0.093975,105080,84634
1680.21,0.081599,88906,73677
1683.1,0.074865,75033,63152
1685.99,0.079389,63520,52908
1688.87,0.077570,53714,44928
1691.75,0.084952,45653,37542
1694.62,0.098377,39137,31204
1697.49,0.097486,33776,26985
1701.31,0.105295,28175,22109