File: samples/wool/wool-000811/Column 1_050600_20150331_122347.csv
Method:,Column 1,,
Host Date-Time:,31/3/15 @ 12:23:47,,
Header Version:,1,,
System Temp (C):,34,,
Detector Temp (C):,34.74,,
Humidity (%):,1.76,,
Lamp PD:,3818,,
Shift Vector Coefficients:,-10.5391,0.0761263,-0.000134223,,
Pixel to Wavelength Coefficients:,1775.68,-0.916766,-0.000235065,,
Serial Number:,5510004,,
Scan Config Name:,Column 1,,
Scan Config Type:,Slew,,
Section 1,,
Start wavelength (nm):,900,,
End wavelength (nm):,1700,,
Pattern Pixel Width (nm):,   7.03,,,,
Exposure (ms):,  0.635,,,,
Digital Resolution:,228,,
Num Repeats:,6,,
PGA Gain:,64,,
Total Measurement Time in sec:,  2.723,,
Wavelength (nm),Absorbance (AU),Reference Signal (unitless),Sample Signal (unitless)
901.51,0.068914,108485,92567
905.376,0.075027,121306,102060
909.237,0.076390,131909,110633
913.095,0.077913,143299,119765
916.948,0.078436,156982,131043
922.079,0.081279,179937,149225
925.923,0.082790,200504,165704
929.762,0.082282,222660,184230
933.597,0.082985,244426,201912
937.427,0.081771,263972,218669
941.254,0.080707,281845,234047
945.076,0.079546,297271,247518
950.165,0.078594,315605,263360
953.978,0.077978,328029,274116
957.786,0.078212,340470,284359
961.59,0.078465,352317,294082
965.389,0.078220,363056,303217
969.185,0.078340,373162,311571
972.976,0.078769,382632,319163
976.763,0.078984,391202,326150
981.806,0.079864,400190,332968
985.583,0.079905,406088,337843
989.355,0.080730,410162,340585
993.124,0.080865,412868,342725
996.888,0.081910,414263,343057
1000.65,0.082500,415476,343594
1004.4,0.082931,415479,343256
1009.41,0.085162,414358,340576
1013.15,0.084958,412923,339556
1016.89,0.085599,411526,337908
1020.63,0.085194,409066,336201
1024.36,0.085245,406777,334281
1028.09,0.085126,404427,332441
1031.82,0.085238,401911,330287
1036.78,0.085119,398410,327500
1040.49,0.084803,396204,325924
1044.2,0.084975,394236,324176
1047.91,0.084488,392042,322734
1051.61,0.084023,389823,321251
1055.31,0.083954,388234,319992
1059,0.083187,387599,320034
1063.92,0.082568,386688,319737
1067.61,0.081826,386598,320209
1071.29,0.081494,387377,321100
1074.96,0.081275,388536,322223
1078.63,0.080661,389855,323774
1082.3,0.079530,391215,325751
1085.96,0.078428,393215,328248
1090.84,0.077793,396270,331282
1094.49,0.077064,398760,333924
1098.14,0.076721,400987,336054
1101.79,0.076317,403477,338456
1105.43,0.076214,406116,340750
1109.06,0.075438,407701,342692
1112.7,0.074643,409859,345137
1117.53,0.074337,412494,347601
1121.15,0.075254,414909,348898
1124.77,0.074986,416559,350502
1128.38,0.076325,418532,351078
1131.99,0.076988,419956,351735
1135.6,0.078635,421946,352064
1139.2,0.079746,423881,352775
1143.99,0.081567,426786,353707
1147.58,0.082425,428617,354523
1151.17,0.083604,431169,355667
1154.75,0.084632,433579,356809
1158.33,0.086165,436264,357754
1161.91,0.087077,439132,359350
1165.48,0.089369,442389,360110
1169.04,0.091552,446101,361311
1173.79,0.095407,451929,362797
1177.34,0.097629,456026,364217
1180.9,0.099408,461306,366928
1184.44,0.101188,467657,370458
1187.99,0.102435,473969,374382
1191.52,0.102050,479856,379368
1195.06,0.101772,487372,385557
1199.76,0.101722,497347,393493
1203.29,0.100910,504311,399750
1206.81,0.100178,511507,406138
1210.33,0.099639,519078,412661
1213.84,0.099286,527163,419429
1217.35,0.098596,534208,425711
1220.85,0.097631,540472,431660
1225.51,0.096808,549929,440047
1229.01,0.096834,556888,445588
1232.5,0.096101,562180,450583
1235.98,0.095841,567975,455500
1239.46,0.094217,574815,462712
1242.94,0.093711,582782,469673
1246.41,0.092572,591476,477931
1251.03,0.092686,604016,487936
1254.5,0.092591,612289,494727
1257.96,0.092889,619125,499907
1261.41,0.093909,624551,503105
1264.86,0.094117,629900,507171
1268.31,0.094728,634345,510032
1271.75,0.095554,638574,512457
1276.33,0.095830,642499,515279
1279.76,0.095681,645905,518188
1283.19,0.095156,648307,520744
1286.61,0.094764,650446,522935
1290.03,0.094237,652132,524926
1293.44,0.093981,653907,526666
1296.85,0.093946,655963,528364
1301.39,0.093337,657349,530223
1304.8,0.093197,657558,530563
1308.19,0.093295,658515,531216
1311.58,0.093489,658804,531211
1314.97,0.094071,659011,530667
1318.36,0.094712,658272,529290
1321.73,0.094623,658022,529197
1326.23,0.095932,657870,527483
1329.6,0.096815,656482,525301
1332.97,0.097396,654926,523355
1336.33,0.098399,653727,521192
1339.69,0.099803,652497,518532
1343.04,0.101471,649913,514499
1346.39,0.103170,647671,510722
1349.73,0.105286,645338,506409
1354.18,0.107963,641175,500050
1357.52,0.109921,638376,495628
1360.85,0.111891,635805,491397
1364.17,0.113635,633413,487587
1367.49,0.116275,631026,482805
1370.81,0.118449,628050,478129
1374.12,0.120930,625034,473123
1378.54,0.123820,620272,466404
1381.84,0.126593,616892,460910
1385.14,0.129816,613613,455070
1388.43,0.133700,611526,449485
1391.72,0.137778,610663,444655
1395.01,0.141882,610634,440452
1398.29,0.146372,611700,436683
1402.66,0.152642,614051,432078
1405.93,0.157901,616268,428419
1409.2,0.162637,617795,424822
1412.46,0.167097,618872,421215
1415.72,0.171275,619795,417804
1418.98,0.175320,620495,414399
1422.23,0.178350,621087,411910
1426.56,0.182238,621375,408428
1429.8,0.184733,621616,406246
1433.04,0.187370,622129,404120
1436.27,0.189443,621526,401806
1439.5,0.191510,621113,399632
1442.72,0.193995,620921,397229
1445.94,0.196243,620270,394764
1450.23,0.199849,618860,390610
1453.44,0.202673,617697,387349
1456.64,0.205053,616264,384338
1459.85,0.207760,614413,380803
1463.04,0.210996,612307,376681
1466.24,0.214548,610032,372224
1469.43,0.218283,607345,367411
1473.67,0.223509,603789,360891
1476.85,0.229112,601175,354723
1480.02,0.234920,597737,348009
1483.19,0.241526,594479,340887
1486.36,0.247123,591232,334684
1489.52,0.251601,587853,329358
1492.68,0.254971,583875,324600
1496.89,0.257391,578062,319583
1500.03,0.257893,574159,317058
1503.18,0.257849,570285,314951
1506.32,0.257095,565444,312820
1509.45,0.255750,560571,311086
1512.58,0.254055,555821,309656
1515.71,0.251423,550344,308469
1519.87,0.248349,543983,307069
1522.99,0.246126,538764,305684
1526.1,0.243388,533692,304721
1529.21,0.240655,527902,303318
1532.32,0.238052,521886,301664
1535.42,0.235515,515888,299944
1538.51,0.232206,509987,298781
1541.6,0.229140,503936,297328
1545.72,0.224940,494694,294711
1548.8,0.222360,488378,292682
1551.88,0.220739,481832,289839
1554.95,0.218372,474989,287284
1558.02,0.216583,467818,284115
1561.08,0.214522,460730,281141
1564.15,0.214892,454170,276902
1568.22,0.214080,444181,271319
1571.27,0.212986,436947,267573
1574.32,0.212702,429598,263245
1577.36,0.210645,422039,259841
1580.4,0.209770,414375,255637
1583.43,0.208335,406354,251518
1586.46,0.207567,398475,247078
1590.49,0.205205,388982,242507
1593.51,0.202740,380708,238700
1596.53,0.200817,372727,234733
1599.54,0.199464,365060,230622
1602.55,0.196972,357543,227173
1605.55,0.195259,349495,222937
1608.55,0.193157,341154,218672
1612.54,0.191000,330877,213141
1615.53,0.189301,322904,208820
1618.51,0.188347,315116,204232
1621.49,0.187849,307217,199341
1624.47,0.186212,299481,195055
1627.44,0.185691,292112,190484
1630.41,0.185539,284245,185419
1634.36,0.183067,274079,179808
1637.32,0.182236,266916,175444
1640.27,0.181136,259612,171076
1643.22,0.180087,251804,166332
1646.16,0.179573,244348,161598
1649.1,0.180295,236703,156282
1652.04,0.176897,228171,151832
1655.95,0.174691,215408,144069
1658.88,0.171892,204937,137952
1661.8,0.165329,193395,132165
1664.72,0.157914,179728,124940
1667.63,0.145275,163642,117117
1670.54,0.132122,146312,107934
1673.44,0.115601,128451,98432
1677.31,0.093432,105080,84740
1680.21,0.081699,88906,73660
1683.1,0.077514,75033,62768
1685.99,0.078323,63520,53038
1688.87,0.082597,53714,44411
1691.75,0.086157,45653,37438
1694.62,0.094153,39137,31509
1697.49,0.098485,33776,26923
1701.31,0.102768,28175,22238