File: samples/wool/wool-000811/Column 1_050571_20150331_120946.csv
Method:,Column 1,,
Host Date-Time:,31/3/15 @ 12:9:46,,
Header Version:,1,,
System Temp (C):,34.08,,
Detector Temp (C):,34.14,,
Humidity (%):,1.76,,
Lamp PD:,3818,,
Shift Vector Coefficients:,-10.5391,0.0761263,-0.000134223,,
Pixel to Wavelength Coefficients:,1775.68,-0.916766,-0.000235065,,
Serial Number:,5510004,,
Scan Config Name:,Column 1,,
Scan Config Type:,Slew,,
Section 1,,
Start wavelength (nm):,900,,
End wavelength (nm):,1700,,
Pattern Pixel Width (nm):,   7.03,,,,
Exposure (ms):,  0.635,,,,
Digital Resolution:,228,,
Num Repeats:,6,,
PGA Gain:,64,,
Total Measurement Time in sec:,  2.681,,
Wavelength (nm),Absorbance (AU),Reference Signal (unitless),Sample Signal (unitless)
901.51,0.035535,108485,99962
905.376,0.041575,121306,110232
909.237,0.043088,131909,119450
913.095,0.044208,143299,129430
916.948,0.045096,156982,141499
922.079,0.046797,179937,161556
925.923,0.049231,200504,179016
929.762,0.049484,222660,198682
933.597,0.050012,244426,217839
937.427,0.048519,263972,236069
941.254,0.048536,281845,252043
945.076,0.047617,297271,266401
950.165,0.046428,315605,283606
953.978,0.046136,328029,294969
957.786,0.046322,340470,306025
961.59,0.046969,352317,316202
965.389,0.047113,363056,325732
969.185,0.047166,373162,334758
972.976,0.047490,382632,342998
976.763,0.047900,391202,350349
981.806,0.048292,400190,358075
985.583,0.049764,406088,362123
989.355,0.049597,410162,365897
993.124,0.050574,412868,367483
996.888,0.050854,414263,368487
1000.65,0.051773,415476,368785
1004.4,0.052776,415479,367937
1009.41,0.054220,414358,365726
1013.15,0.054436,412923,364278
1016.89,0.055432,411526,362214
1020.63,0.055158,409066,360276
1024.36,0.055139,406777,358276
1028.09,0.054583,404427,356662
1031.82,0.054196,401911,354759
1036.78,0.054027,398410,351806
1040.49,0.054007,396204,349874
1044.2,0.053009,394236,348937
1047.91,0.052918,392042,347068
1051.61,0.052597,389823,345359
1055.31,0.052429,388234,344084
1059,0.051712,387599,344089
1063.92,0.050472,386688,344262
1067.61,0.049619,386598,344858
1071.29,0.049551,387377,345607
1074.96,0.048825,388536,347221
1078.63,0.048419,389855,348726
1082.3,0.047664,391215,350551
1085.96,0.046820,393215,353029
1090.84,0.045915,396270,356514
1094.49,0.045601,398760,359013
1098.14,0.045315,400987,361256
1101.79,0.044824,403477,363911
1105.43,0.045138,406116,366026
1109.06,0.044610,407701,367902
1112.7,0.044259,409859,370148
1117.53,0.044168,412494,372606
1121.15,0.044854,414909,374196
1124.77,0.045901,416559,374779
1128.38,0.046503,418532,376033
1131.99,0.048233,419956,375812
1135.6,0.049965,421946,376090
1139.2,0.051624,423881,376374
1143.99,0.054454,426786,376492
1147.58,0.055293,428617,377378
1151.17,0.056454,431169,378611
1154.75,0.057665,433579,379667
1158.33,0.059260,436264,380618
1161.91,0.061422,439132,381218
1165.48,0.063965,442389,381803
1169.04,0.066415,446101,382841
1173.79,0.070134,451929,384535
1177.34,0.072366,456026,386032
1180.9,0.075167,461306,387991
1184.44,0.076428,467657,392193
1187.99,0.077945,473969,396100
1191.52,0.077223,479856,401687
1195.06,0.076954,487372,408232
1199.76,0.075980,497347,417522
1203.29,0.074785,504311,424535
1206.81,0.075439,511507,429945
1210.33,0.073816,519078,437942
1213.84,0.072971,527163,445630
1217.35,0.072112,534208,452479
1220.85,0.071620,540472,458304
1225.51,0.070340,549929,467699
1229.01,0.070228,556888,473740
1232.5,0.069253,562180,479316
1235.98,0.068385,567975,485226
1239.46,0.067650,574815,491902
1242.94,0.066970,582782,499501
1246.41,0.065811,591476,508307
1251.03,0.065605,604016,519330
1254.5,0.065550,612289,526510
1257.96,0.066364,619125,531391
1261.41,0.066894,624551,535395
1264.86,0.067360,629900,539401
1268.31,0.068269,634345,542071
1271.75,0.069029,638574,544731
1276.33,0.069201,642499,547862
1279.76,0.069094,645905,550903
1283.19,0.068515,648307,553689
1286.61,0.068408,650446,555653
1290.03,0.068160,652132,557411
1293.44,0.067304,653907,560031
1296.85,0.067278,655963,561825
1301.39,0.066975,657349,563406
1304.8,0.067417,657558,563011
1308.19,0.067381,658515,563877
1311.58,0.067099,658804,564491
1314.97,0.067701,659011,563887
1318.36,0.068318,658272,562454
1321.73,0.068224,658022,562362
1326.23,0.069259,657870,560895
1329.6,0.070351,656482,558306
1332.97,0.071514,654926,555493
1336.33,0.072557,653727,553146
1339.69,0.074067,652497,550189
1343.04,0.075855,649913,545758
1346.39,0.078008,647671,541186
1349.73,0.079924,645338,536863
1354.18,0.083285,641175,529287
1357.52,0.085502,638376,524294
1360.85,0.087503,635805,519782
1364.17,0.090055,633413,514792
1367.49,0.092701,631026,509737
1370.81,0.094516,628050,505217
1374.12,0.097526,625034,499319
1378.54,0.100470,620272,492167
1381.84,0.104318,616892,485167
1385.14,0.107827,613613,478704
1388.43,0.112075,611526,472433
1391.72,0.116579,610663,466899
1395.01,0.121293,610634,461836
1398.29,0.126617,611700,457006
1402.66,0.133451,614051,451599
1405.93,0.139250,616268,447218
1409.2,0.144732,617795,442703
1412.46,0.149724,618872,438406
1415.72,0.153863,619795,434896
1418.98,0.157831,620495,431427
1422.23,0.161416,621087,428289
1426.56,0.166103,621375,423888
1429.8,0.168304,621616,421908
1433.04,0.171348,622129,419307
1436.27,0.173683,621526,416655
1439.5,0.176192,621113,413979
1442.72,0.178016,620921,412117
1445.94,0.180535,620270,409304
1450.23,0.184182,618860,404958
1453.44,0.187698,617697,400938
1456.64,0.190577,616264,397365
1459.85,0.193724,614413,393311
1463.04,0.196087,612307,389836
1466.24,0.199898,610032,384995
1469.43,0.203446,607345,380180
1473.67,0.209930,603789,372353
1476.85,0.215893,601175,365686
1480.02,0.221809,597737,358675
1483.19,0.228843,594479,350989
1486.36,0.235337,591232,343891
1489.52,0.240035,587853,338247
1492.68,0.243988,583875,332914
1496.89,0.246555,578062,327657
1500.03,0.247348,574159,324851
1503.18,0.247351,570285,322657
1506.32,0.246246,565444,320733
1509.45,0.244881,560571,318970
1512.58,0.243443,555821,317316
1515.71,0.241013,550344,315952
1519.87,0.237838,543983,314592
1522.99,0.234804,538764,313758
1526.1,0.232912,533692,312161
1529.21,0.229819,527902,310981
1532.32,0.227102,521886,309367
1535.42,0.223991,515888,308010
1538.51,0.219783,509987,307451
1541.6,0.216504,503936,306106
1545.72,0.212469,494694,303297
1548.8,0.209166,488378,301710
1551.88,0.206584,481832,299441
1554.95,0.204530,474989,296588
1558.02,0.202087,467818,293758
1561.08,0.200827,460730,290148
1564.15,0.200493,454170,286237
1568.22,0.199578,444181,280532
1571.27,0.198591,436947,276591
1574.32,0.197134,429598,272853
1577.36,0.196737,422039,268297
1580.4,0.195094,414375,264423
1583.43,0.193184,406354,260448
1586.46,0.192151,398475,256006
1590.49,0.189265,388982,251573
1593.51,0.186613,380708,247730
1596.53,0.184826,372727,243537
1599.54,0.184001,365060,238981
1602.55,0.179964,357543,236246
1605.55,0.178401,349495,231761
1608.55,0.177024,341154,226948
1612.54,0.173819,330877,221742
1615.53,0.172940,322904,216837
1618.51,0.171478,315116,212321
1621.49,0.169741,307217,207828
1624.47,0.168050,299481,203385
1627.44,0.168065,292112,198374
1630.41,0.165840,284245,194023
1634.36,0.163194,274079,188227
1637.32,0.164149,266916,182905
1640.27,0.162448,259612,178598
1643.22,0.162106,251804,173363
1646.16,0.161553,244348,168444
1649.1,0.159919,236703,163789
1652.04,0.158215,228171,158506
1655.95,0.155575,215408,150552
1658.88,0.151891,204937,144454
1661.8,0.148740,193395,137311
1664.72,0.142259,179728,129526
1667.63,0.131109,163642,121000
1670.54,0.117281,146312,111686
1673.44,0.104472,128451,100987
1677.31,0.087476,105080,85910
1680.21,0.077049,88906,74453
1683.1,0.076353,75033,62936
1685.99,0.077701,63520,53114
1688.87,0.082753,53714,44395
1691.75,0.085369,45653,37506
1694.62,0.089683,39137,31835
1697.49,0.097084,33776,27010
1701.31,0.099286,28175,22417