File: samples/wool/wool-000811/Column 1_050598_20150331_122229.csv
Method:,Column 1,,
Host Date-Time:,31/3/15 @ 12:22:29,,
Header Version:,1,,
System Temp (C):,33.98,,
Detector Temp (C):,34.69,,
Humidity (%):,1.76,,
Lamp PD:,3818,,
Shift Vector Coefficients:,-10.5391,0.0761263,-0.000134223,,
Pixel to Wavelength Coefficients:,1775.68,-0.916766,-0.000235065,,
Serial Number:,5510004,,
Scan Config Name:,Column 1,,
Scan Config Type:,Slew,,
Section 1,,
Start wavelength (nm):,900,,
End wavelength (nm):,1700,,
Pattern Pixel Width (nm):,   7.03,,,,
Exposure (ms):,  0.635,,,,
Digital Resolution:,228,,
Num Repeats:,6,,
PGA Gain:,64,,
Total Measurement Time in sec:,  2.731,,
Wavelength (nm),Absorbance (AU),Reference Signal (unitless),Sample Signal (unitless)
901.51,0.069204,108485,92505
905.376,0.076450,121306,101726
909.237,0.078945,131909,109984
913.095,0.079756,143299,119258
916.948,0.079687,156982,130666
922.079,0.080343,179937,149547
925.923,0.082148,200504,165949
929.762,0.082803,222660,184009
933.597,0.083317,244426,201758
937.427,0.081938,263972,218585
941.254,0.081192,281845,233786
945.076,0.080152,297271,247173
950.165,0.079160,315605,263017
953.978,0.078710,328029,273654
957.786,0.078887,340470,283917
961.59,0.078956,352317,293750
965.389,0.078369,363056,303113
969.185,0.078371,373162,311549
972.976,0.078746,382632,319180
976.763,0.079834,391202,325512
981.806,0.080096,400190,332790
985.583,0.080699,406088,337226
989.355,0.081415,410162,340048
993.124,0.081548,412868,342187
996.888,0.081906,414263,343060
1000.65,0.082776,415476,343376
1004.4,0.084439,415479,342066
1009.41,0.085588,414358,340242
1013.15,0.085174,412923,339387
1016.89,0.085879,411526,337690
1020.63,0.085321,409066,336103
1024.36,0.086163,406777,333575
1028.09,0.085136,404427,332433
1031.82,0.085323,401911,330223
1036.78,0.084749,398410,327779
1040.49,0.084592,396204,326082
1044.2,0.085103,394236,324081
1047.91,0.084499,392042,322726
1051.61,0.083966,389823,321293
1055.31,0.084117,388234,319872
1059,0.083546,387599,319769
1063.92,0.082444,386688,319828
1067.61,0.081385,386598,320534
1071.29,0.081719,387377,320933
1074.96,0.081362,388536,322158
1078.63,0.080502,389855,323893
1082.3,0.079311,391215,325915
1085.96,0.079360,393215,327544
1090.84,0.078180,396270,330987
1094.49,0.076697,398760,334206
1098.14,0.076773,400987,336014
1101.79,0.076772,403477,338101
1105.43,0.076121,406116,340823
1109.06,0.075714,407701,342474
1112.7,0.075423,409859,344518
1117.53,0.075272,412494,346853
1121.15,0.075611,414909,348612
1124.77,0.074997,416559,350493
1128.38,0.076146,418532,351223
1131.99,0.076980,419956,351742
1135.6,0.078776,421946,351950
1139.2,0.080238,423881,352376
1143.99,0.082645,426786,352830
1147.58,0.082941,428617,354102
1151.17,0.083831,431169,355481
1154.75,0.084789,433579,356680
1158.33,0.086415,436264,357548
1161.91,0.088045,439132,358550
1165.48,0.090204,442389,359418
1169.04,0.092428,446101,360583
1173.79,0.095538,451929,362687
1177.34,0.097508,456026,364319
1180.9,0.099458,461306,366886
1184.44,0.101458,467657,370228
1187.99,0.102553,473969,374280
1191.52,0.102175,479856,379259
1195.06,0.102399,487372,385001
1199.76,0.102155,497347,393101
1203.29,0.100911,504311,399749
1206.81,0.101124,511507,405254
1210.33,0.099928,519078,412387
1213.84,0.098932,527163,419771
1217.35,0.099015,534208,425300
1220.85,0.097829,540472,431464
1225.51,0.097384,549929,439463
1229.01,0.097319,556888,445091
1232.5,0.096071,562180,450614
1235.98,0.095705,567975,455642
1239.46,0.094534,574815,462375
1242.94,0.093151,582782,470279
1246.41,0.092662,591476,477832
1251.03,0.092515,604016,488128
1254.5,0.093156,612289,494084
1257.96,0.093769,619125,498895
1261.41,0.094148,624551,502828
1264.86,0.094383,629900,506861
1268.31,0.095112,634345,509581
1271.75,0.096133,638574,511774
1276.33,0.096071,642499,514993
1279.76,0.096142,645905,517639
1283.19,0.095383,648307,520473
1286.61,0.095232,650446,522371
1290.03,0.094757,652132,524298
1293.44,0.094085,653907,526539
1296.85,0.094186,655963,528072
1301.39,0.093891,657349,529548
1304.8,0.093678,657558,529976
1308.19,0.093893,658515,530484
1311.58,0.093766,658804,530873
1314.97,0.094655,659011,529953
1318.36,0.095060,658272,528866
1321.73,0.095495,658022,528136
1326.23,0.096465,657870,526836
1329.6,0.097147,656482,524899
1332.97,0.097640,654926,523061
1336.33,0.099135,653727,520309
1339.69,0.100263,652497,517983
1343.04,0.101889,649913,514004
1346.39,0.103482,647671,510355
1349.73,0.105895,645338,505699
1354.18,0.108982,641175,498878
1357.52,0.110735,638376,494700
1360.85,0.112838,635805,490327
1364.17,0.114700,633413,486393
1367.49,0.116998,631026,482002
1370.81,0.119072,628050,477444
1374.12,0.121256,625034,472767
1378.54,0.124271,620272,465920
1381.84,0.127497,616892,459952
1385.14,0.130343,613613,454518
1388.43,0.133509,611526,449682
1391.72,0.138453,610663,443965
1395.01,0.142852,610634,439470
1398.29,0.147629,611700,435421
1402.66,0.153800,614051,430928
1405.93,0.159370,616268,426972
1409.2,0.163872,617795,423616
1412.46,0.168488,618872,419868
1415.72,0.172366,619795,416756
1418.98,0.176378,620495,413390
1422.23,0.179443,621087,410875
1426.56,0.184131,621375,406652
1429.8,0.186374,621616,404714
1433.04,0.188956,622129,402647
1436.27,0.190861,621526,400496
1439.5,0.192916,621113,398341
1442.72,0.195557,620921,395803
1445.94,0.197489,620270,393633
1450.23,0.201112,618860,389476
1453.44,0.203617,617697,386508
1456.64,0.206366,616264,383178
1459.85,0.209067,614413,379659
1463.04,0.212029,612307,375786
1466.24,0.215416,610032,371481
1469.43,0.219020,607345,366788
1473.67,0.225220,603789,359472
1476.85,0.230194,601175,353840
1480.02,0.236608,597737,346659
1483.19,0.241566,594479,340856
1486.36,0.246786,591232,334944
1489.52,0.252662,587853,328554
1492.68,0.255976,583875,323850
1496.89,0.258344,578062,318882
1500.03,0.258019,574159,316966
1503.18,0.258598,570285,314408
1506.32,0.257437,565444,312574
1509.45,0.257029,560571,310171
1512.58,0.254826,555821,309107
1515.71,0.252428,550344,307756
1519.87,0.249692,543983,306121
1522.99,0.247453,538764,304751
1526.1,0.244450,533692,303977
1529.21,0.241347,527902,302835
1532.32,0.238762,521886,301171
1535.42,0.235874,515888,299696
1538.51,0.232107,509987,298849
1541.6,0.230061,503936,296698
1545.72,0.226564,494694,293611
1548.8,0.222859,488378,292346
1551.88,0.220510,481832,289992
1554.95,0.218841,474989,286974
1558.02,0.217829,467818,283301
1561.08,0.216053,460730,280152
1564.15,0.216061,454170,276158
1568.22,0.214358,444181,271145
1571.27,0.213784,436947,267082
1574.32,0.212973,429598,263081
1577.36,0.211013,422039,259621
1580.4,0.210767,414375,255051
1583.43,0.209478,406354,250857
1586.46,0.208214,398475,246710
1590.49,0.205495,388982,242345
1593.51,0.203554,380708,238253
1596.53,0.201704,372727,234254
1599.54,0.199633,365060,230532
1602.55,0.197779,357543,226751
1605.55,0.195807,349495,222656
1608.55,0.194241,341154,218127
1612.54,0.192338,330877,212485
1615.53,0.190655,322904,208170
1618.51,0.189863,315116,203520
1621.49,0.188854,307217,198880
1624.47,0.187244,299481,194592
1627.44,0.186819,292112,189990
1630.41,0.184350,284245,185927
1634.36,0.185054,274079,178987
1637.32,0.183431,266916,174962
1640.27,0.183633,259612,170095
1643.22,0.182774,251804,165306
1646.16,0.181590,244348,160849
1649.1,0.179626,236703,156523
1652.04,0.179235,228171,151017
1655.95,0.176283,215408,143542
1658.88,0.171883,204937,137955
1661.8,0.167985,193395,131359
1664.72,0.159007,179728,124626
1667.63,0.146854,163642,116692
1670.54,0.133569,146312,107575
1673.44,0.116449,128451,98240
1677.31,0.096337,105080,84175
1680.21,0.086770,88906,72805
1683.1,0.080346,75033,62360
1685.99,0.078463,63520,53021
1688.87,0.082978,53714,44372
1691.75,0.089967,45653,37111
1694.62,0.094263,39137,31501
1697.49,0.100911,33776,26773
1701.31,0.115249,28175,21608