File: samples/wool/wool-000811/Column 1_050579_20150331_121334.csv
Method:,Column 1,,
Host Date-Time:,31/3/15 @ 12:13:34,,
Header Version:,1,,
System Temp (C):,33.81,,
Detector Temp (C):,34.64,,
Humidity (%):,2.05,,
Lamp PD:,3819,,
Shift Vector Coefficients:,-10.5391,0.0761263,-0.000134223,,
Pixel to Wavelength Coefficients:,1775.68,-0.916766,-0.000235065,,
Serial Number:,5510004,,
Scan Config Name:,Column 1,,
Scan Config Type:,Slew,,
Section 1,,
Start wavelength (nm):,900,,
End wavelength (nm):,1700,,
Pattern Pixel Width (nm):,   7.03,,,,
Exposure (ms):,  0.635,,,,
Digital Resolution:,228,,
Num Repeats:,6,,
PGA Gain:,64,,
Total Measurement Time in sec:,  2.668,,
Wavelength (nm),Absorbance (AU),Reference Signal (unitless),Sample Signal (unitless)
901.51,0.072319,108485,91844
905.376,0.078299,121306,101294
909.237,0.080179,131909,109672
913.095,0.079861,143299,119229
916.948,0.082037,156982,129961
922.079,0.082728,179937,148728
925.923,0.084444,200504,165074
929.762,0.084482,222660,183299
933.597,0.083674,244426,201592
937.427,0.083670,263972,217715
941.254,0.082433,281845,233119
945.076,0.082161,297271,246032
950.165,0.081335,315605,261703
953.978,0.080399,328029,272592
957.786,0.080858,340470,282632
961.59,0.081328,352317,292150
965.389,0.081140,363056,301185
969.185,0.081050,373162,309633
972.976,0.081422,382632,317219
976.763,0.081825,391202,324023
981.806,0.082467,400190,330978
985.583,0.083295,406088,335216
989.355,0.083634,410162,338315
993.124,0.084176,412868,340122
996.888,0.084625,414263,340919
1000.65,0.085079,415476,341560
1004.4,0.086118,415479,340746
1009.41,0.087586,414358,338680
1013.15,0.087485,412923,337586
1016.89,0.088252,411526,335850
1020.63,0.088273,409066,333826
1024.36,0.088468,406777,331809
1028.09,0.088130,404427,330149
1031.82,0.087699,401911,328421
1036.78,0.087259,398410,325890
1040.49,0.087842,396204,323651
1044.2,0.087229,394236,322498
1047.91,0.087041,392042,320842
1051.61,0.086877,389823,319147
1055.31,0.085842,388234,318604
1059,0.085472,387599,318354
1063.92,0.085560,386688,317542
1067.61,0.084433,386598,318293
1071.29,0.084639,387377,318783
1074.96,0.084030,388536,320185
1078.63,0.083494,389855,321669
1082.3,0.082088,391215,323838
1085.96,0.081370,393215,326032
1090.84,0.080806,396270,328992
1094.49,0.080119,398760,331583
1098.14,0.079492,400987,333917
1101.79,0.079536,403477,335956
1105.43,0.079058,406116,338526
1109.06,0.078026,407701,340656
1112.7,0.077884,409859,342571
1117.53,0.077661,412494,344950
1121.15,0.078304,414909,346457
1124.77,0.078427,416559,347736
1128.38,0.079669,418532,348385
1131.99,0.080181,419956,349159
1135.6,0.082356,421946,349061
1139.2,0.083397,423881,349822
1143.99,0.085919,426786,350180
1147.58,0.086008,428617,351610
1151.17,0.086771,431169,353083
1154.75,0.088103,433579,353969
1158.33,0.089869,436264,354716
1161.91,0.091473,439132,355731
1165.48,0.093635,442389,356590
1169.04,0.095112,446101,358361
1173.79,0.098707,451929,360050
1177.34,0.101132,456026,361291
1180.9,0.103337,461306,363624
1184.44,0.104870,467657,367331
1187.99,0.106411,473969,370970
1191.52,0.105989,479856,375943
1195.06,0.106529,487372,381357
1199.76,0.105066,497347,390475
1203.29,0.104357,504311,396590
1206.81,0.103967,511507,402610
1210.33,0.103331,519078,409168
1213.84,0.103025,527163,415834
1217.35,0.102243,534208,422151
1220.85,0.101225,540472,428103
1225.51,0.100165,549929,436658
1229.01,0.100276,556888,442071
1232.5,0.099770,562180,446792
1235.98,0.099220,567975,451970
1239.46,0.098029,574815,458669
1242.94,0.097460,582782,465636
1246.41,0.096721,591476,473387
1251.03,0.096558,604016,483605
1254.5,0.096630,612289,490147
1257.96,0.097367,619125,494779
1261.41,0.097856,624551,498554
1264.86,0.098436,629900,502152
1268.31,0.098478,634345,505647
1271.75,0.099019,638574,508385
1276.33,0.099396,642499,511065
1279.76,0.099282,645905,513910
1283.19,0.098913,648307,516259
1286.61,0.098628,650446,518302
1290.03,0.098403,652132,519915
1293.44,0.097426,653907,522504
1296.85,0.097713,655963,523801
1301.39,0.097676,657349,524952
1304.8,0.097633,657558,525171
1308.19,0.097663,658515,525899
1311.58,0.097948,658804,525785
1314.97,0.098475,659011,525313
1318.36,0.098632,658272,524534
1321.73,0.099449,658022,523349
1326.23,0.100207,657870,522316
1329.6,0.101534,656482,519624
1332.97,0.102378,654926,517386
1336.33,0.103542,653727,515056
1339.69,0.105061,652497,512292
1343.04,0.106753,649913,508279
1346.39,0.109371,647671,503481
1349.73,0.110970,645338,499824
1354.18,0.113774,641175,493404
1357.52,0.116004,638376,488734
1360.85,0.118024,635805,484507
1364.17,0.120135,633413,480344
1367.49,0.122390,631026,476055
1370.81,0.124500,628050,471514
1374.12,0.127003,625034,466553
1378.54,0.130065,620272,459745
1381.84,0.133601,616892,453532
1385.14,0.136679,613613,447936
1388.43,0.141279,611526,441709
1391.72,0.146286,610663,436029
1395.01,0.151189,610634,431114
1398.29,0.156651,611700,426469
1402.66,0.164392,614051,420545
1405.93,0.170281,616268,416379
1409.2,0.175761,617795,412177
1412.46,0.181640,618872,407344
1415.72,0.186018,619795,403859
1418.98,0.190232,620495,400411
1422.23,0.193789,621087,397524
1426.56,0.198374,621375,393532
1429.8,0.200934,621616,391371
1433.04,0.203890,622129,389037
1436.27,0.205879,621526,386884
1439.5,0.207815,621113,384907
1442.72,0.210337,620921,382560
1445.94,0.212737,620270,380053
1450.23,0.215856,618860,376475
1453.44,0.218616,617697,373387
1456.64,0.220871,616264,370592
1459.85,0.223869,614413,366937
1463.04,0.226446,612307,363516
1466.24,0.229189,610032,359885
1469.43,0.232215,607345,355812
1473.67,0.237125,603789,349752
1476.85,0.242053,601175,344309
1480.02,0.247207,597737,338301
1483.19,0.252371,594479,332480
1486.36,0.256828,591232,327288
1489.52,0.260696,587853,322532
1492.68,0.264364,583875,317655
1496.89,0.265745,578062,313494
1500.03,0.266333,574159,310956
1503.18,0.266436,570285,308785
1506.32,0.265415,565444,306884
1509.45,0.263679,560571,305458
1512.58,0.261639,555821,304296
1515.71,0.260430,550344,302137
1519.87,0.257854,543983,300422
1522.99,0.255119,538764,299419
1526.1,0.253074,533692,298000
1529.21,0.250072,527902,296812
1532.32,0.247261,521886,295335
1535.42,0.244617,515888,293723
1538.51,0.241766,509987,292276
1541.6,0.238300,503936,291122
1545.72,0.234204,494694,288491
1548.8,0.232860,488378,285691
1551.88,0.229233,481832,284225
1554.95,0.227179,474989,281517
1558.02,0.225217,467818,278522
1561.08,0.224155,460730,274974
1564.15,0.223730,454170,271324
1568.22,0.222554,444181,266076
1571.27,0.221842,436947,262172
1574.32,0.221901,429598,257728
1577.36,0.219170,422039,254790
1580.4,0.219155,414375,250172
1583.43,0.217000,406354,246550
1586.46,0.215083,398475,242839
1590.49,0.213241,388982,238061
1593.51,0.211122,380708,234137
1596.53,0.208409,372727,230665
1599.54,0.207666,365060,226307
1602.55,0.205998,357543,222500
1605.55,0.203753,349495,218619
1608.55,0.202908,341154,213817
1612.54,0.199354,330877,209080
1615.53,0.196674,322904,205305
1618.51,0.196714,315116,200335
1621.49,0.195123,307217,196030
1624.47,0.193688,299481,191726
1627.44,0.193065,292112,187277
1630.41,0.191548,284245,182871
1634.36,0.190831,274079,176622
1637.32,0.189626,266916,172484
1640.27,0.188599,259612,168161
1643.22,0.188705,251804,163064
1646.16,0.187451,244348,158693
1649.1,0.185630,236703,154374
1652.04,0.184436,228171,149219
1655.95,0.181530,215408,141818
1658.88,0.176952,204937,136354
1661.8,0.172295,193395,130062
1664.72,0.165336,179728,122823
1667.63,0.153737,163642,114857
1670.54,0.140532,146312,105864
1673.44,0.125228,128451,96274
1677.31,0.108236,105080,81900
1680.21,0.095032,88906,71433
1683.1,0.090172,75033,60965
1685.99,0.092886,63520,51289
1688.87,0.095489,53714,43112
1691.75,0.096784,45653,36533
1694.62,0.104220,39137,30787
1697.49,0.107218,33776,26387
1701.31,0.109817,28175,21880