File: samples/wool/wool-000811/Column 1_050532_20150331_115124.csv
Method:,Column 1,,
Host Date-Time:,31/3/15 @ 11:51:24,,
Header Version:,1,,
System Temp (C):,30.49,,
Detector Temp (C):,31.15,,
Humidity (%):,4.77,,
Lamp PD:,3830,,
Shift Vector Coefficients:,-10.5391,0.0761263,-0.000134223,,
Pixel to Wavelength Coefficients:,1775.68,-0.916766,-0.000235065,,
Serial Number:,5510004,,
Scan Config Name:,Column 1,,
Scan Config Type:,Slew,,
Section 1,,
Start wavelength (nm):,900,,
End wavelength (nm):,1700,,
Pattern Pixel Width (nm):,   7.03,,,,
Exposure (ms):,  0.635,,,,
Digital Resolution:,228,,
Num Repeats:,6,,
PGA Gain:,64,,
Total Measurement Time in sec:,  2.678,,
Wavelength (nm),Absorbance (AU),Reference Signal (unitless),Sample Signal (unitless)
901.51,0.045177,108485,97767
905.376,0.050648,121306,107953
909.237,0.052204,131909,116969
913.095,0.052956,143299,126849
916.948,0.052042,156982,139254
922.079,0.052077,179937,159604
925.923,0.051423,200504,178115
929.762,0.052387,222660,197358
933.597,0.053284,244426,216204
937.427,0.053965,263972,233127
941.254,0.054878,281845,248389
945.076,0.054649,297271,262122
950.165,0.054408,315605,278443
953.978,0.054667,328029,289231
957.786,0.055056,340470,299932
961.59,0.055622,352317,309964
965.389,0.056103,363056,319059
969.185,0.056066,373162,327968
972.976,0.056826,382632,335703
976.763,0.057393,391202,342774
981.806,0.057862,400190,350271
985.583,0.058520,406088,354895
989.355,0.059439,410162,357698
993.124,0.060141,412868,359476
996.888,0.060649,414263,360269
1000.65,0.061519,415476,360601
1004.4,0.062214,415479,360027
1009.41,0.063678,414358,357847
1013.15,0.063838,412923,356477
1016.89,0.064935,411526,354374
1020.63,0.065015,409066,352191
1024.36,0.064058,406777,350993
1028.09,0.064013,404427,349001
1031.82,0.064195,401911,346685
1036.78,0.063315,398410,344362
1040.49,0.062770,396204,342885
1044.2,0.062444,394236,341438
1047.91,0.061190,392042,340520
1051.61,0.061553,389823,338310
1055.31,0.060253,388234,337941
1059,0.059870,387599,337686
1063.92,0.058479,386688,337973
1067.61,0.057065,386598,338996
1071.29,0.056838,387377,339857
1074.96,0.056132,388536,341428
1078.63,0.054993,389855,343487
1082.3,0.054244,391215,345280
1085.96,0.053642,393215,347527
1090.84,0.053127,396270,350642
1094.49,0.052432,398760,353411
1098.14,0.052530,400987,355304
1101.79,0.052152,403477,357822
1105.43,0.051818,406116,360439
1109.06,0.051604,407701,362024
1112.7,0.051376,409859,364132
1117.53,0.051366,412494,366481
1121.15,0.052423,414909,367731
1124.77,0.052907,416559,368782
1128.38,0.054045,418532,369559
1131.99,0.055973,419956,369174
1135.6,0.058401,421946,368855
1139.2,0.060261,423881,368963
1143.99,0.062865,426786,369271
1147.58,0.064071,428617,369827
1151.17,0.065803,431169,370548
1154.75,0.067378,433579,371270
1158.33,0.069192,436264,372012
1161.91,0.071804,439132,372213
1165.48,0.075049,442389,372182
1169.04,0.077869,446101,372876
1173.79,0.081865,451929,374287
1177.34,0.084536,456026,375365
1180.9,0.087181,461306,377405
1184.44,0.089145,467657,380875
1187.99,0.089571,473969,385637
1191.52,0.089700,479856,390311
1195.06,0.088847,487372,397204
1199.76,0.087132,497347,406937
1203.29,0.085751,504311,413950
1206.81,0.084485,511507,421082
1210.33,0.083805,519078,427984
1213.84,0.083063,527163,435393
1217.35,0.081235,534208,443073
1220.85,0.080183,540472,449356
1225.51,0.078984,549929,458482
1229.01,0.078581,556888,464715
1232.5,0.077754,562180,470025
1235.98,0.076794,567975,475921
1239.46,0.075488,574815,483103
1242.94,0.074376,582782,491055
1246.41,0.073418,591476,499481
1251.03,0.072938,604016,510635
1254.5,0.073286,612289,517214
1257.96,0.073216,619125,523073
1261.41,0.074234,624551,526422
1264.86,0.074700,629900,530361
1268.31,0.075267,634345,533407
1271.75,0.075777,638574,536333
1276.33,0.076234,642499,539062
1279.76,0.076058,645905,542139
1283.19,0.075308,648307,545096
1286.61,0.075427,650446,546744
1290.03,0.074940,652132,548777
1293.44,0.074449,653907,550893
1296.85,0.074098,655963,553072
1301.39,0.074090,657349,554251
1304.8,0.073978,657558,554569
1308.19,0.074750,658515,554391
1311.58,0.074617,658804,554804
1314.97,0.075444,659011,553922
1318.36,0.076069,658272,552505
1321.73,0.076558,658022,551674
1326.23,0.077696,657870,550103
1329.6,0.078731,656482,547636
1332.97,0.079668,654926,545160
1336.33,0.081460,653727,541921
1339.69,0.083523,652497,538338
1343.04,0.085471,649913,533807
1346.39,0.088083,647671,528776
1349.73,0.090454,645338,524002
1354.18,0.093898,641175,516510
1357.52,0.096524,638376,511155
1360.85,0.098588,635805,506683
1364.17,0.101174,633413,501780
1367.49,0.103959,631026,496693
1370.81,0.106574,628050,491383
1374.12,0.109216,625034,486058
1378.54,0.113433,620272,477693
1381.84,0.117470,616892,470694
1385.14,0.122220,613613,463100
1388.43,0.127724,611526,455712
1391.72,0.133986,610663,448555
1395.01,0.139756,610634,442614
1398.29,0.147090,611700,435962
1402.66,0.155994,614051,428756
1405.93,0.162939,616268,423478
1409.2,0.170864,617795,416851
1412.46,0.176350,618872,412336
1415.72,0.181939,619795,407670
1418.98,0.186914,620495,403482
1422.23,0.191873,621087,399282
1426.56,0.197126,621375,394664
1429.8,0.200067,621616,392153
1433.04,0.203274,622129,389589
1436.27,0.206078,621526,386706
1439.5,0.208625,621113,384190
1442.72,0.210681,620921,382257
1445.94,0.213786,620270,379136
1450.23,0.217434,618860,375110
1453.44,0.220485,617697,371784
1456.64,0.223366,616264,368469
1459.85,0.225700,614413,365393
1463.04,0.228938,612307,361436
1466.24,0.231527,610032,357953
1469.43,0.234123,607345,354252
1473.67,0.238735,603789,348458
1476.85,0.243264,601175,343350
1480.02,0.248371,597737,337395
1483.19,0.254281,594479,331021
1486.36,0.259458,591232,325312
1489.52,0.264098,587853,320015
1492.68,0.267906,583875,315075
1496.89,0.270394,578062,310156
1500.03,0.271368,574159,307372
1503.18,0.271885,570285,304935
1506.32,0.271323,565444,302738
1509.45,0.270647,560571,300596
1512.58,0.268264,555821,299689
1515.71,0.266539,550344,297917
1519.87,0.263026,543983,296865
1522.99,0.260941,538764,295432
1526.1,0.258052,533692,294604
1529.21,0.255449,527902,293160
1532.32,0.251444,521886,292504
1535.42,0.248960,515888,290801
1538.51,0.245740,509987,289614
1541.6,0.242606,503936,288250
1545.72,0.237395,494694,286379
1548.8,0.235011,488378,284279
1551.88,0.231488,481832,282753
1554.95,0.228779,474989,280482
1558.02,0.226676,467818,277588
1561.08,0.225449,460730,274156
1564.15,0.224284,454170,270978
1568.22,0.223644,444181,265409
1571.27,0.222433,436947,261816
1574.32,0.221345,429598,258058
1577.36,0.219871,422039,254379
1580.4,0.218451,414375,250578
1583.43,0.216621,406354,246765
1586.46,0.214086,398475,243397
1590.49,0.212123,388982,238675
1593.51,0.209192,380708,235180
1596.53,0.206954,372727,231439
1599.54,0.204452,365060,227988
1602.55,0.202197,357543,224456
1605.55,0.199948,349495,220543
1608.55,0.196389,341154,217051
1612.54,0.194547,330877,211407
1615.53,0.192246,322904,207409
1618.51,0.191855,315116,202589
1621.49,0.190315,307217,198212
1624.47,0.187146,299481,194636
1627.44,0.185705,292112,190478
1630.41,0.184420,284245,185897
1634.36,0.182138,274079,180193
1637.32,0.181403,266916,175781
1640.27,0.181982,259612,170743
1643.22,0.178913,251804,166782
1646.16,0.179653,244348,161568
1649.1,0.179595,236703,156534
1652.04,0.177312,228171,151687
1655.95,0.175557,215408,143782
1658.88,0.173138,204937,137557
1661.8,0.173084,193395,129826
1664.72,0.172632,179728,120777
1667.63,0.168865,163642,110925
1670.54,0.163802,146312,100341
1673.44,0.159387,128451,88992
1677.31,0.157965,105080,73039
1680.21,0.158991,88906,61651
1683.1,0.159433,75033,51978
1685.99,0.166663,63520,43276
1688.87,0.168223,53714,36464
1691.75,0.174671,45653,30535
1694.62,0.181439,39137,25772
1697.49,0.181376,33776,22245
1701.31,0.188435,28175,18257