File: samples/wool/wool-000811/Column 1_050622_20150331_123402.csv
Method:,Column 1,,
Host Date-Time:,31/3/15 @ 12:34:2,,
Header Version:,1,,
System Temp (C):,34.14,,
Detector Temp (C):,35.01,,
Humidity (%):,1.56,,
Lamp PD:,3817,,
Shift Vector Coefficients:,-10.5391,0.0761263,-0.000134223,,
Pixel to Wavelength Coefficients:,1775.68,-0.916766,-0.000235065,,
Serial Number:,5510004,,
Scan Config Name:,Column 1,,
Scan Config Type:,Slew,,
Section 1,,
Start wavelength (nm):,900,,
End wavelength (nm):,1700,,
Pattern Pixel Width (nm):,   7.03,,,,
Exposure (ms):,  0.635,,,,
Digital Resolution:,228,,
Num Repeats:,6,,
PGA Gain:,64,,
Total Measurement Time in sec:,  2.721,,
Wavelength (nm),Absorbance (AU),Reference Signal (unitless),Sample Signal (unitless)
901.51,0.068942,108485,92561
905.376,0.073264,121306,102475
909.237,0.073007,131909,111498
913.095,0.076979,143299,120023
916.948,0.077923,156982,131198
922.079,0.078161,179937,150300
925.923,0.081411,200504,166231
929.762,0.081575,222660,184530
933.597,0.081609,244426,202553
937.427,0.080430,263972,219345
941.254,0.079120,281845,234904
945.076,0.078804,297271,247941
950.165,0.077165,315605,264228
953.978,0.077473,328029,274435
957.786,0.076922,340470,285205
961.59,0.077138,352317,294982
965.389,0.077629,363056,303630
969.185,0.077149,373162,312427
972.976,0.077372,382632,320191
976.763,0.077829,391202,327018
981.806,0.078047,400190,334364
985.583,0.078570,406088,338883
989.355,0.079430,410162,341606
993.124,0.079809,412868,343560
996.888,0.080197,414263,344413
1000.65,0.080790,415476,344950
1004.4,0.082531,415479,343572
1009.41,0.083774,414358,341666
1013.15,0.083047,412923,341053
1016.89,0.083866,411526,339259
1020.63,0.083821,409066,337266
1024.36,0.083796,406777,335398
1028.09,0.083988,404427,333313
1031.82,0.084029,401911,331208
1036.78,0.082931,398410,329154
1040.49,0.082811,396204,327422
1044.2,0.082696,394236,325882
1047.91,0.083002,392042,323840
1051.61,0.082284,389823,322540
1055.31,0.082056,388234,321394
1059,0.081899,387599,320984
1063.92,0.080697,386688,321117
1067.61,0.080369,386598,321285
1071.29,0.079346,387377,322692
1074.96,0.079094,388536,323845
1078.63,0.078648,389855,325278
1082.3,0.077337,391215,327400
1085.96,0.076785,393215,329492
1090.84,0.075967,396270,332678
1094.49,0.075242,398760,335328
1098.14,0.075238,400987,337204
1101.79,0.074178,403477,340127
1105.43,0.074106,406116,342408
1109.06,0.073367,407701,344330
1112.7,0.073644,409859,345932
1117.53,0.072121,412494,349379
1121.15,0.073485,414909,350322
1124.77,0.073019,416559,352093
1128.38,0.074195,418532,352804
1131.99,0.075297,419956,353107
1135.6,0.077076,421946,353330
1139.2,0.078487,423881,353799
1143.99,0.079928,426786,355044
1147.58,0.080749,428617,355894
1151.17,0.081465,431169,357423
1154.75,0.082477,433579,358584
1158.33,0.083799,436264,359708
1161.91,0.085989,439132,360252
1165.48,0.088085,442389,361176
1169.04,0.089712,446101,362845
1173.79,0.092998,451929,364815
1177.34,0.095886,456026,365682
1180.9,0.097239,461306,368765
1184.44,0.099478,467657,371920
1187.99,0.100275,473969,376249
1191.52,0.099990,479856,381172
1195.06,0.100820,487372,386403
1199.76,0.099658,497347,395368
1203.29,0.098901,504311,401603
1206.81,0.098471,511507,407737
1210.33,0.098264,519078,413970
1213.84,0.097304,527163,421348
1217.35,0.096836,534208,427439
1220.85,0.096358,540472,432928
1225.51,0.095493,549929,441381
1229.01,0.094699,556888,447784
1232.5,0.094023,562180,452744
1235.98,0.093751,567975,457697
1239.46,0.092811,574815,464213
1242.94,0.091684,582782,471870
1246.41,0.091370,591476,479255
1251.03,0.090920,604016,489924
1254.5,0.090954,612289,496595
1257.96,0.091765,619125,501203
1261.41,0.091928,624551,505406
1264.86,0.092739,629900,508783
1268.31,0.092796,634345,512306
1271.75,0.093487,638574,514901
1276.33,0.093511,642499,518038
1279.76,0.093784,645905,520457
1283.19,0.092964,648307,523380
1286.61,0.093025,650446,525033
1290.03,0.092200,652132,527394
1293.44,0.092106,653907,528944
1296.85,0.091842,655963,530930
1301.39,0.091876,657349,532010
1304.8,0.091521,657558,532614
1308.19,0.091877,658515,532953
1311.58,0.091531,658804,533612
1314.97,0.092007,659011,533195
1318.36,0.092401,658272,532114
1321.73,0.093038,658022,531132
1326.23,0.093514,657870,530427
1329.6,0.094357,656482,528282
1332.97,0.094836,654926,526449
1336.33,0.096154,653727,523893
1339.69,0.097286,652497,521546
1343.04,0.098897,649913,517557
1346.39,0.100621,647671,513728
1349.73,0.102755,645338,509369
1354.18,0.105521,641175,502870
1357.52,0.107242,638376,498694
1360.85,0.109510,635805,494099
1364.17,0.111535,633413,489950
1367.49,0.113679,631026,485700
1370.81,0.115652,628050,481218
1374.12,0.117764,625034,476584
1378.54,0.120477,620272,470008
1381.84,0.123166,616892,464561
1385.14,0.126331,613613,458737
1388.43,0.130090,611526,453237
1391.72,0.133685,610663,448866
1395.01,0.137776,610634,444636
1398.29,0.141536,611700,441573
1402.66,0.147669,614051,437054
1405.93,0.152378,616268,433902
1409.2,0.156687,617795,430683
1412.46,0.161366,618872,426810
1415.72,0.164770,619795,424110
1418.98,0.168120,620495,421326
1422.23,0.171229,621087,418720
1426.56,0.175261,621375,415043
1429.8,0.177853,621616,412733
1433.04,0.180064,622129,410976
1436.27,0.182608,621526,408180
1439.5,0.184413,621113,406217
1442.72,0.186630,620921,404023
1445.94,0.189115,620270,401297
1450.23,0.192612,618860,397174
1453.44,0.196275,617697,393098
1456.64,0.198662,616264,390036
1459.85,0.201112,614413,386677
1463.04,0.203931,612307,382858
1466.24,0.207548,610032,378272
1469.43,0.211769,607345,372964
1473.67,0.218586,603789,365005
1476.85,0.224104,601175,358837
1480.02,0.230056,597737,351928
1483.19,0.236492,594479,344861
1486.36,0.243097,591232,337801
1489.52,0.248131,587853,332000
1492.68,0.250808,583875,327727
1496.89,0.253951,578062,322124
1500.03,0.253855,574159,320020
1503.18,0.253823,570285,317884
1506.32,0.252949,565444,315821
1509.45,0.251539,560571,314117
1512.58,0.250193,555821,312422
1515.71,0.249032,550344,310172
1519.87,0.244453,543983,309836
1522.99,0.241751,538764,308779
1526.1,0.239431,533692,307510
1529.21,0.236334,527902,306351
1532.32,0.233566,521886,304796
1535.42,0.231590,515888,302667
1538.51,0.228291,509987,301487
1541.6,0.225128,503936,300087
1545.72,0.221067,494694,297351
1548.8,0.218301,488378,295430
1551.88,0.215548,481832,293324
1554.95,0.214482,474989,289869
1558.02,0.212337,467818,286906
1561.08,0.211024,460730,283415
1564.15,0.211367,454170,279159
1568.22,0.209884,444181,273953
1571.27,0.209042,436947,270014
1574.32,0.208497,429598,265806
1577.36,0.207385,422039,261799
1580.4,0.206016,414375,257856
1583.43,0.204182,406354,253935
1586.46,0.203224,398475,249561
1590.49,0.200813,388982,244972
1593.51,0.199129,380708,240693
1596.53,0.198232,372727,236134
1599.54,0.194526,365060,233259
1602.55,0.193106,357543,229204
1605.55,0.190876,349495,225198
1608.55,0.189235,341154,220656
1612.54,0.187962,330877,214637
1615.53,0.185815,322904,210503
1618.51,0.185166,315116,205733
1621.49,0.183338,307217,201422
1624.47,0.183245,299481,196392
1627.44,0.181914,292112,192148
1630.41,0.180377,284245,187636
1634.36,0.179948,274079,181104
1637.32,0.177078,266916,177540
1640.27,0.179150,259612,171860
1643.22,0.176802,251804,167595
1646.16,0.176998,244348,162559
1649.1,0.176066,236703,157811
1652.04,0.173881,228171,152890
1655.95,0.170668,215408,145410
1658.88,0.167903,204937,139225
1661.8,0.160938,193395,133508
1664.72,0.152652,179728,126463
1667.63,0.141832,163642,118049
1670.54,0.125216,146312,109664
1673.44,0.109664,128451,99787
1677.31,0.087921,105080,85822
1680.21,0.078018,88906,74287
1683.1,0.070051,75033,63856
1685.99,0.070975,63520,53943
1688.87,0.072248,53714,45482
1691.75,0.073310,45653,38562
1694.62,0.078040,39137,32700
1697.49,0.086835,33776,27655
1701.31,0.092806,28175,22754