File: samples/wool/wool-000811/Column 1_050599_20150331_122321.csv
Method:,Column 1,,
Host Date-Time:,31/3/15 @ 12:23:21,,
Header Version:,1,,
System Temp (C):,34.02,,
Detector Temp (C):,34.75,,
Humidity (%):,1.76,,
Lamp PD:,3818,,
Shift Vector Coefficients:,-10.5391,0.0761263,-0.000134223,,
Pixel to Wavelength Coefficients:,1775.68,-0.916766,-0.000235065,,
Serial Number:,5510004,,
Scan Config Name:,Column 1,,
Scan Config Type:,Slew,,
Section 1,,
Start wavelength (nm):,900,,
End wavelength (nm):,1700,,
Pattern Pixel Width (nm):,   7.03,,,,
Exposure (ms):,  0.635,,,,
Digital Resolution:,228,,
Num Repeats:,6,,
PGA Gain:,64,,
Total Measurement Time in sec:,  2.735,,
Wavelength (nm),Absorbance (AU),Reference Signal (unitless),Sample Signal (unitless)
901.51,0.069374,108485,92469
905.376,0.075717,121306,101898
909.237,0.077679,131909,110305
913.095,0.077442,143299,119895
916.948,0.078413,156982,131050
922.079,0.080517,179937,149487
925.923,0.083010,200504,165620
929.762,0.082176,222660,184275
933.597,0.083151,244426,201835
937.427,0.082431,263972,218337
941.254,0.080976,281845,233902
945.076,0.080531,297271,246957
950.165,0.078632,315605,263337
953.978,0.078165,328029,273998
957.786,0.078999,340470,283844
961.59,0.078821,352317,293841
965.389,0.078391,363056,303098
969.185,0.079330,373162,310862
972.976,0.078674,382632,319233
976.763,0.079526,391202,325743
981.806,0.079215,400190,333466
985.583,0.080035,406088,337742
989.355,0.080480,410162,340781
993.124,0.081582,412868,342160
996.888,0.081526,414263,343360
1000.65,0.082303,415476,343750
1004.4,0.083627,415479,342706
1009.41,0.084317,414358,341239
1013.15,0.084690,412923,339765
1016.89,0.086246,411526,337405
1020.63,0.085709,409066,335803
1024.36,0.085968,406777,333725
1028.09,0.085524,404427,332136
1031.82,0.085387,401911,330174
1036.78,0.085241,398410,327408
1040.49,0.084721,396204,325985
1044.2,0.084417,394236,324593
1047.91,0.084435,392042,322773
1051.61,0.084227,389823,321100
1055.31,0.083725,388234,320161
1059,0.082832,387599,320295
1063.92,0.082345,386688,319901
1067.61,0.081950,386598,320118
1071.29,0.081041,387377,321435
1074.96,0.080757,388536,322607
1078.63,0.080382,389855,323982
1082.3,0.079623,391215,325681
1085.96,0.078691,393215,328049
1090.84,0.077191,396270,331742
1094.49,0.076917,398760,334037
1098.14,0.076988,400987,335848
1101.79,0.076322,403477,338452
1105.43,0.076667,406116,340395
1109.06,0.075450,407701,342682
1112.7,0.074742,409859,345058
1117.53,0.074420,412494,347534
1121.15,0.075054,414909,349059
1124.77,0.075456,416559,350123
1128.38,0.076345,418532,351062
1131.99,0.077173,419956,351585
1135.6,0.078808,421946,351924
1139.2,0.079853,423881,352688
1143.99,0.082411,426786,353020
1147.58,0.082677,428617,354317
1151.17,0.084087,431169,355272
1154.75,0.084668,433579,356780
1158.33,0.086196,436264,357728
1161.91,0.087825,439132,358732
1165.48,0.089325,442389,360147
1169.04,0.092202,446101,360771
1173.79,0.095258,451929,362921
1177.34,0.097756,456026,364111
1180.9,0.099872,461306,366536
1184.44,0.101160,467657,370482
1187.99,0.102230,473969,374559
1191.52,0.102421,479856,379044
1195.06,0.102104,487372,385262
1199.76,0.101575,497347,393627
1203.29,0.100635,504311,400003
1206.81,0.100011,511507,406294
1210.33,0.099446,519078,412845
1213.84,0.099226,527163,419487
1217.35,0.098701,534208,425608
1220.85,0.097788,540472,431504
1225.51,0.097300,549929,439548
1229.01,0.096275,556888,446162
1232.5,0.096050,562180,450635
1235.98,0.095272,567975,456097
1239.46,0.094344,574815,462577
1242.94,0.093888,582782,469481
1246.41,0.092970,591476,477493
1251.03,0.092987,604016,487597
1254.5,0.093132,612289,494111
1257.96,0.093541,619125,499157
1261.41,0.094143,624551,502834
1264.86,0.094409,629900,506830
1268.31,0.095061,634345,509641
1271.75,0.095343,638574,512706
1276.33,0.095738,642499,515388
1279.76,0.096006,645905,517801
1283.19,0.094833,648307,521132
1286.61,0.094857,650446,522823
1290.03,0.094848,652132,524188
1293.44,0.094130,653907,526485
1296.85,0.093534,655963,528866
1301.39,0.093567,657349,529943
1304.8,0.093597,657558,530075
1308.19,0.094092,658515,530241
1311.58,0.093883,658804,530730
1314.97,0.094202,659011,530507
1318.36,0.094813,658272,529166
1321.73,0.094860,658022,528908
1326.23,0.095630,657870,527850
1329.6,0.096782,656482,525341
1332.97,0.097424,654926,523321
1336.33,0.098212,653727,521416
1339.69,0.100136,652497,518135
1343.04,0.101738,649913,514183
1346.39,0.103243,647671,510636
1349.73,0.105637,645338,506000
1354.18,0.108545,641175,499381
1357.52,0.110503,638376,494964
1360.85,0.112280,635805,490957
1364.17,0.114552,633413,486558
1367.49,0.116568,631026,482480
1370.81,0.118555,628050,478012
1374.12,0.120786,625034,473279
1378.54,0.124056,620272,466150
1381.84,0.127044,616892,460432
1385.14,0.130016,613613,454861
1388.43,0.133825,611526,449355
1391.72,0.137685,610663,444751
1395.01,0.142331,610634,439997
1398.29,0.147139,611700,435913
1402.66,0.153447,614051,431278
1405.93,0.158244,616268,428081
1409.2,0.163406,617795,424071
1412.46,0.167869,618872,420467
1415.72,0.172035,619795,417074
1418.98,0.175491,620495,414235
1422.23,0.179277,621087,411032
1426.56,0.182863,621375,407841
1429.8,0.184929,621616,406063
1433.04,0.187437,622129,404058
1436.27,0.190186,621526,401119
1439.5,0.192116,621113,399075
1442.72,0.193866,620921,397347
1445.94,0.197007,620270,394070
1450.23,0.199825,618860,390632
1453.44,0.203237,617697,386846
1456.64,0.206086,616264,383425
1459.85,0.208445,614413,380203
1463.04,0.211639,612307,376123
1466.24,0.214369,610032,372378
1469.43,0.218391,607345,367320
1473.67,0.223890,603789,360575
1476.85,0.229021,601175,354797
1480.02,0.235894,597737,347229
1483.19,0.242268,594479,340305
1486.36,0.247731,591232,334216
1489.52,0.252246,587853,328869
1492.68,0.255287,583875,324364
1496.89,0.257400,578062,319576
1500.03,0.258030,574159,316958
1503.18,0.258154,570285,314730
1506.32,0.257146,565444,312783
1509.45,0.256138,560571,310808
1512.58,0.253736,555821,309884
1515.71,0.251952,550344,308093
1519.87,0.249169,543983,306490
1522.99,0.245811,538764,305906
1526.1,0.243950,533692,304327
1529.21,0.240584,527902,303368
1532.32,0.237891,521886,301776
1535.42,0.235698,515888,299818
1538.51,0.232075,509987,298871
1541.6,0.229740,503936,296917
1545.72,0.225436,494694,294375
1548.8,0.222948,488378,292286
1551.88,0.221384,481832,289409
1554.95,0.218431,474989,287245
1558.02,0.217326,467818,283629
1561.08,0.214961,460730,280857
1564.15,0.215351,454170,276610
1568.22,0.213859,444181,271457
1571.27,0.213430,436947,267300
1574.32,0.213353,429598,262851
1577.36,0.210954,422039,259656
1580.4,0.209778,414375,255632
1583.43,0.208975,406354,251148
1586.46,0.207103,398475,247342
1590.49,0.205746,388982,242205
1593.51,0.203575,380708,238241
1596.53,0.201050,372727,234607
1599.54,0.199688,365060,230503
1602.55,0.197741,357543,226771
1605.55,0.195996,349495,222559
1608.55,0.192879,341154,218812
1612.54,0.191885,330877,212707
1615.53,0.190040,322904,208465
1618.51,0.188619,315116,204104
1621.49,0.189077,307217,198778
1624.47,0.186531,299481,194912
1627.44,0.185974,292112,190360
1630.41,0.184818,284245,185727
1634.36,0.183976,274079,179432
1637.32,0.182192,266916,175462
1640.27,0.182445,259612,170561
1643.22,0.182063,251804,165577
1646.16,0.180504,244348,161252
1649.1,0.179445,236703,156588
1652.04,0.178338,228171,151329
1655.95,0.175147,215408,143918
1658.88,0.170971,204937,138245
1661.8,0.166168,193395,131910
1664.72,0.159436,179728,124503
1667.63,0.146322,163642,116835
1670.54,0.132540,146312,107830
1673.44,0.117060,128451,98102
1677.31,0.098240,105080,83807
1680.21,0.086674,88906,72821
1683.1,0.079060,75033,62545
1685.99,0.080993,63520,52713
1688.87,0.078693,53714,44812
1691.75,0.084455,45653,37585
1694.62,0.095077,39137,31442
1697.49,0.092621,33776,27289
1701.31,0.103022,28175,22225