File: samples/wool/wool-000811/Column 1_050563_20150331_120559.csv
Method:,Column 1,,
Host Date-Time:,31/3/15 @ 12:5:59,,
Header Version:,1,,
System Temp (C):,33.79,,
Detector Temp (C):,33.5,,
Humidity (%):,1.95,,
Lamp PD:,3819,,
Shift Vector Coefficients:,-10.5391,0.0761263,-0.000134223,,
Pixel to Wavelength Coefficients:,1775.68,-0.916766,-0.000235065,,
Serial Number:,5510004,,
Scan Config Name:,Column 1,,
Scan Config Type:,Slew,,
Section 1,,
Start wavelength (nm):,900,,
End wavelength (nm):,1700,,
Pattern Pixel Width (nm):,   7.03,,,,
Exposure (ms):,  0.635,,,,
Digital Resolution:,228,,
Num Repeats:,6,,
PGA Gain:,64,,
Total Measurement Time in sec:,  2.732,,
Wavelength (nm),Absorbance (AU),Reference Signal (unitless),Sample Signal (unitless)
901.51,0.033727,108485,100379
905.376,0.040638,121306,110470
909.237,0.043343,131909,119380
913.095,0.041909,143299,130117
916.948,0.044217,156982,141786
922.079,0.046000,179937,161853
925.923,0.045268,200504,180657
929.762,0.047171,222660,199743
933.597,0.048394,244426,218652
937.427,0.046830,263972,236989
941.254,0.046945,281845,252968
945.076,0.045611,297271,267634
950.165,0.045578,315605,284162
953.978,0.045343,328029,295508
957.786,0.045753,340470,306426
961.59,0.046116,352317,316824
965.389,0.045995,363056,326572
969.185,0.046371,373162,335372
972.976,0.047040,382632,343353
976.763,0.047433,391202,350726
981.806,0.047200,400190,358977
985.583,0.048647,406088,363056
989.355,0.048789,410162,366578
993.124,0.049638,412868,368276
996.888,0.050366,414263,368901
1000.65,0.051127,415476,369334
1004.4,0.052109,415479,368502
1009.41,0.053581,414358,366264
1013.15,0.054006,412923,364639
1016.89,0.054534,411526,362964
1020.63,0.054658,409066,360691
1024.36,0.054781,406777,358571
1028.09,0.053737,404427,357358
1031.82,0.053826,401911,355062
1036.78,0.053441,398410,352281
1040.49,0.053268,396204,350470
1044.2,0.053086,394236,348875
1047.91,0.052189,392042,347651
1051.61,0.051953,389823,345871
1055.31,0.051089,388234,345147
1059,0.050572,387599,344993
1063.92,0.050188,386688,344487
1067.61,0.049078,386598,345288
1071.29,0.048740,387377,346253
1074.96,0.047796,388536,348045
1078.63,0.047246,389855,349669
1082.3,0.046391,391215,351580
1085.96,0.046075,393215,353635
1090.84,0.046017,396270,356430
1094.49,0.044992,398760,359517
1098.14,0.044658,400987,361803
1101.79,0.044505,403477,364178
1105.43,0.044368,406116,366676
1109.06,0.043890,407701,368512
1112.7,0.043594,409859,370715
1117.53,0.043994,412494,372755
1121.15,0.044725,414909,374307
1124.77,0.045139,416559,375437
1128.38,0.046057,418532,376419
1131.99,0.047897,419956,376103
1135.6,0.050015,421946,376047
1139.2,0.051737,423881,376276
1143.99,0.054060,426786,376834
1147.58,0.055059,428617,377581
1151.17,0.056101,431169,378919
1154.75,0.057519,433579,379795
1158.33,0.059281,436264,380600
1161.91,0.061000,439132,381588
1165.48,0.063796,442389,381952
1169.04,0.066890,446101,382422
1173.79,0.070256,451929,384427
1177.34,0.072257,456026,386129
1180.9,0.074544,461306,388548
1184.44,0.076589,467657,392047
1187.99,0.077460,473969,396543
1191.52,0.077005,479856,401889
1195.06,0.076828,487372,408350
1199.76,0.075632,497347,417857
1203.29,0.074875,504311,424447
1206.81,0.074157,511507,431216
1210.33,0.072999,519078,438767
1213.84,0.072792,527163,445813
1217.35,0.072263,534208,452322
1220.85,0.071174,540472,458774
1225.51,0.070154,549929,467900
1229.01,0.069856,556888,474146
1232.5,0.069248,562180,479322
1235.98,0.068215,567975,485416
1239.46,0.067187,574815,492426
1242.94,0.066432,582782,500120
1246.41,0.065784,591476,508339
1251.03,0.065537,604016,519411
1254.5,0.065680,612289,526352
1257.96,0.066093,619125,531723
1261.41,0.066753,624551,535568
1264.86,0.067189,629900,539613
1268.31,0.067911,634345,542518
1271.75,0.068541,638574,545343
1276.33,0.069061,642499,548039
1279.76,0.069118,645905,550872
1283.19,0.068618,648307,553557
1286.61,0.068558,650446,555461
1290.03,0.067483,652132,558280
1293.44,0.067033,653907,560380
1296.85,0.066943,655963,562259
1301.39,0.067013,657349,563356
1304.8,0.066920,657558,563656
1308.19,0.067219,658515,564088
1311.58,0.067196,658804,564365
1314.97,0.067870,659011,563667
1318.36,0.068176,658272,562639
1321.73,0.068257,658022,562320
1326.23,0.069450,657870,560648
1329.6,0.070141,656482,558576
1332.97,0.071797,654926,555131
1336.33,0.072626,653727,553058
1339.69,0.074625,652497,549482
1343.04,0.076269,649913,545238
1346.39,0.078498,647671,540576
1349.73,0.080399,645338,536276
1354.18,0.084028,641175,528383
1357.52,0.086340,638376,523283
1360.85,0.088530,635805,518554
1364.17,0.090494,633413,514272
1367.49,0.092595,631026,509861
1370.81,0.095491,628050,504084
1374.12,0.097741,625034,499071
1378.54,0.101168,620272,491376
1381.84,0.104749,616892,484686
1385.14,0.108439,613613,478030
1388.43,0.113287,611526,471116
1391.72,0.118016,610663,465356
1395.01,0.122881,610634,460151
1398.29,0.128717,611700,454801
1402.66,0.135474,614051,449501
1405.93,0.141143,616268,445273
1409.2,0.146524,617795,440880
1412.46,0.152418,618872,435695
1415.72,0.157133,619795,431633
1418.98,0.160932,620495,428357
1422.23,0.164443,621087,425314
1426.56,0.169153,621375,420921
1429.8,0.171934,621616,418397
1433.04,0.175008,622129,415788
1436.27,0.176737,621526,413735
1439.5,0.179232,621113,411092
1442.72,0.181858,620921,408487
1445.94,0.184164,620270,405898
1450.23,0.187980,618860,401432
1453.44,0.190747,617697,398133
1456.64,0.193920,616264,394318
1459.85,0.196987,614413,390367
1463.04,0.199466,612307,386815
1466.24,0.202936,610032,382311
1469.43,0.206676,607345,377363
1473.67,0.212120,603789,370480
1476.85,0.217950,601175,363958
1480.02,0.223478,597737,357299
1483.19,0.230275,594479,349834
1486.36,0.236940,591232,342624
1489.52,0.241582,587853,337044
1492.68,0.245351,583875,331871
1496.89,0.247690,578062,326802
1500.03,0.248601,574159,323915
1503.18,0.248264,570285,321979
1506.32,0.247734,565444,319636
1509.45,0.245914,560571,318212
1512.58,0.244346,555821,316657
1515.71,0.242457,550344,314903
1519.87,0.238992,543983,313757
1522.99,0.236344,538764,312647
1526.1,0.233533,533692,311715
1529.21,0.230692,527902,310357
1532.32,0.227616,521886,309001
1535.42,0.224465,515888,307674
1538.51,0.221696,509987,306100
1541.6,0.218647,503936,304599
1545.72,0.213330,494694,302696
1548.8,0.210871,488378,300528
1551.88,0.207896,481832,298538
1554.95,0.205876,474989,295670
1558.02,0.204663,467818,292021
1561.08,0.202991,460730,288706
1564.15,0.202061,454170,285205
1568.22,0.201073,444181,279568
1571.27,0.200414,436947,275432
1574.32,0.199392,429598,271438
1577.36,0.198287,422039,267341
1580.4,0.195900,414375,263933
1583.43,0.194346,406354,259752
1586.46,0.192839,398475,255601
1590.49,0.191058,388982,250537
1593.51,0.188217,380708,246817
1596.53,0.185953,372727,242906
1599.54,0.182892,365060,239592
1602.55,0.181671,357543,235319
1605.55,0.179632,349495,231105
1608.55,0.177154,341154,226880
1612.54,0.174911,330877,221185
1615.53,0.173198,322904,216708
1618.51,0.172163,315116,211986
1621.49,0.170695,307217,207372
1624.47,0.170118,299481,202419
1627.44,0.168222,292112,198302
1630.41,0.166989,284245,193510
1634.36,0.166057,274079,186990
1637.32,0.163411,266916,183216
1640.27,0.163888,259612,178007
1643.22,0.162480,251804,173214
1646.16,0.162222,244348,168185
1649.1,0.161867,236703,163056
1652.04,0.161305,228171,157382
1655.95,0.158153,215408,149661
1658.88,0.154457,204937,143603
1661.8,0.150648,193395,136709
1664.72,0.143925,179728,129030
1667.63,0.133214,163642,120415
1670.54,0.123047,146312,110213
1673.44,0.109859,128451,99742
1677.31,0.093996,105080,84630
1680.21,0.086132,88906,72912
1683.1,0.083821,75033,61863
1685.99,0.087919,63520,51879
1688.87,0.092098,53714,43450
1691.75,0.096368,45653,36568
1694.62,0.106980,39137,30592
1697.49,0.107465,33776,26372
1701.31,0.113464,28175,21697