File: samples/wool/wool-000811/Column 1_050591_20150331_121910.csv
Method:,Column 1,,
Host Date-Time:,31/3/15 @ 12:19:10,,
Header Version:,1,,
System Temp (C):,33.86,,
Detector Temp (C):,34.64,,
Humidity (%):,1.81,,
Lamp PD:,3818,,
Shift Vector Coefficients:,-10.5391,0.0761263,-0.000134223,,
Pixel to Wavelength Coefficients:,1775.68,-0.916766,-0.000235065,,
Serial Number:,5510004,,
Scan Config Name:,Column 1,,
Scan Config Type:,Slew,,
Section 1,,
Start wavelength (nm):,900,,
End wavelength (nm):,1700,,
Pattern Pixel Width (nm):,   7.03,,,,
Exposure (ms):,  0.635,,,,
Digital Resolution:,228,,
Num Repeats:,6,,
PGA Gain:,64,,
Total Measurement Time in sec:,  2.732,,
Wavelength (nm),Absorbance (AU),Reference Signal (unitless),Sample Signal (unitless)
901.51,0.070592,108485,92210
905.376,0.075900,121306,101855
909.237,0.078105,131909,110197
913.095,0.079697,143299,119274
916.948,0.079887,156982,130606
922.079,0.081570,179937,149125
925.923,0.082175,200504,165939
929.762,0.083670,222660,183642
933.597,0.083663,244426,201597
937.427,0.080929,263972,219093
941.254,0.080804,281845,233995
945.076,0.080484,297271,246984
950.165,0.080308,315605,262323
953.978,0.078834,328029,273576
957.786,0.079287,340470,283656
961.59,0.079157,352317,293614
965.389,0.079448,363056,302361
969.185,0.079504,373162,310737
972.976,0.079570,382632,318575
976.763,0.080216,391202,325226
981.806,0.080283,400190,332647
985.583,0.080980,406088,337008
989.355,0.081944,410162,339634
993.124,0.082107,412868,341747
996.888,0.082547,414263,342554
1000.65,0.082634,415476,343488
1004.4,0.084393,415479,342102
1009.41,0.085188,414358,340555
1013.15,0.086459,412923,338384
1016.89,0.086167,411526,337466
1020.63,0.085903,409066,335653
1024.36,0.086517,406777,333303
1028.09,0.086155,404427,331654
1031.82,0.085773,401911,329881
1036.78,0.086080,398410,326776
1040.49,0.084892,396204,325857
1044.2,0.085450,394236,323822
1047.91,0.085363,392042,322084
1051.61,0.085130,389823,320433
1055.31,0.084571,388234,319538
1059,0.084226,387599,319269
1063.92,0.082950,386688,319456
1067.61,0.082482,386598,319726
1071.29,0.082291,387377,320511
1074.96,0.081691,388536,321914
1078.63,0.081952,389855,322813
1082.3,0.080212,391215,325240
1085.96,0.079985,393215,327073
1090.84,0.078384,396270,330832
1094.49,0.078211,398760,333043
1098.14,0.077680,400987,335313
1101.79,0.077010,403477,337916
1105.43,0.076342,406116,340650
1109.06,0.075831,407701,342382
1112.7,0.076143,409859,343947
1117.53,0.075687,412494,346522
1121.15,0.075903,414909,348377
1124.77,0.076330,416559,349419
1128.38,0.077037,418532,350503
1131.99,0.078315,419956,350662
1135.6,0.079589,421946,351292
1139.2,0.080896,423881,351842
1143.99,0.083039,426786,352510
1147.58,0.084424,428617,352895
1151.17,0.084561,431169,354884
1154.75,0.085465,433579,356126
1158.33,0.087034,436264,357039
1161.91,0.088916,439132,357832
1165.48,0.090968,442389,358787
1169.04,0.093432,446101,359750
1173.79,0.096202,451929,362133
1177.34,0.098956,456026,363106
1180.9,0.100629,461306,365898
1184.44,0.102768,467657,369113
1187.99,0.103156,473969,373761
1191.52,0.103652,479856,377971
1195.06,0.103178,487372,384311
1199.76,0.102949,497347,392383
1203.29,0.101801,504311,398931
1206.81,0.101599,511507,404811
1210.33,0.100842,519078,411520
1213.84,0.100149,527163,418597
1217.35,0.099659,534208,424670
1220.85,0.099169,540472,430134
1225.51,0.098245,549929,438593
1229.01,0.097753,556888,444646
1232.5,0.096951,562180,449702
1235.98,0.096743,567975,454555
1239.46,0.095940,574815,460880
1242.94,0.094627,582782,468683
1246.41,0.094353,591476,475975
1251.03,0.093943,604016,486525
1254.5,0.094011,612289,493112
1257.96,0.094689,619125,497840
1261.41,0.094961,624551,501888
1264.86,0.095465,629900,505600
1268.31,0.095982,634345,508561
1271.75,0.096597,638574,511227
1276.33,0.096933,642499,513972
1279.76,0.096526,645905,517181
1283.19,0.096208,648307,519485
1286.61,0.096011,650446,521435
1290.03,0.095864,652132,522964
1293.44,0.095095,653907,525316
1296.85,0.095303,655963,526716
1301.39,0.094818,657349,528419
1304.8,0.094652,657558,528789
1308.19,0.094999,658515,529135
1311.58,0.094730,658804,529695
1314.97,0.095783,659011,528579
1318.36,0.095841,658272,527916
1321.73,0.096251,658022,527217
1326.23,0.097637,657870,525416
1329.6,0.098437,656482,523342
1332.97,0.098950,654926,521486
1336.33,0.100021,653727,519249
1339.69,0.102062,652497,515842
1343.04,0.103071,649913,512607
1346.39,0.105620,647671,507849
1349.73,0.107894,645338,503377
1354.18,0.110054,641175,497648
1357.52,0.112308,638376,492911
1360.85,0.114162,635805,488835
1364.17,0.116338,633413,484562
1367.49,0.118464,631026,480378
1370.81,0.120632,628050,475732
1374.12,0.122877,625034,471006
1378.54,0.125699,620272,464390
1381.84,0.128674,616892,458707
1385.14,0.132015,613613,452772
1388.43,0.136206,611526,446899
1391.72,0.140392,610663,441987
1395.01,0.145174,610634,437126
1398.29,0.149981,611700,433069
1402.66,0.156958,614051,427806
1405.93,0.162132,616268,424265
1409.2,0.167198,617795,420384
1412.46,0.172413,618872,416091
1415.72,0.176508,619795,412800
1418.98,0.179845,620495,410103
1422.23,0.183793,621087,406780
1426.56,0.187889,621375,403148
1429.8,0.190287,621616,401084
1433.04,0.192575,622129,399306
1436.27,0.194808,621526,396873
1439.5,0.197085,621113,394535
1442.72,0.199401,620921,392315
1445.94,0.201505,620270,390010
1450.23,0.205365,618860,385680
1453.44,0.207455,617697,383107
1456.64,0.210320,616264,379705
1459.85,0.213146,614413,376110
1463.04,0.215639,612307,372675
1466.24,0.218672,610032,368706
1469.43,0.222345,607345,363991
1473.67,0.227945,603789,357224
1476.85,0.232856,601175,351678
1480.02,0.238686,597737,345004
1483.19,0.244951,594479,338209
1486.36,0.249962,591232,332503
1489.52,0.254667,587853,327041
1492.68,0.257514,583875,322705
1496.89,0.260005,578062,317665
1500.03,0.260931,574159,314848
1503.18,0.260370,570285,313128
1506.32,0.258470,565444,311831
1509.45,0.258269,560571,309287
1512.58,0.256682,555821,307789
1515.71,0.254694,550344,306154
1519.87,0.251545,543983,304818
1522.99,0.248529,538764,303997
1526.1,0.246854,533692,302299
1529.21,0.244255,527902,300814
1532.32,0.241028,521886,299604
1535.42,0.237501,515888,298576
1538.51,0.235032,509987,296843
1541.6,0.232353,503936,295136
1545.72,0.228989,494694,291976
1548.8,0.225405,488378,290637
1551.88,0.223468,481832,288023
1554.95,0.221644,474989,285128
1558.02,0.219334,467818,282321
1561.08,0.218300,460730,278706
1564.15,0.217621,454170,275168
1568.22,0.217162,444181,269400
1571.27,0.215800,436947,265845
1574.32,0.215129,429598,261778
1577.36,0.213528,422039,258122
1580.4,0.213059,414375,253708
1583.43,0.210911,406354,250031
1586.46,0.209669,398475,245885
1590.49,0.207756,388982,241087
1593.51,0.205990,380708,236920
1596.53,0.203979,372727,233030
1599.54,0.202965,365060,228770
1602.55,0.200076,357543,225555
1605.55,0.198075,349495,221496
1608.55,0.196219,341154,217136
1612.54,0.195047,330877,211164
1615.53,0.191967,322904,207542
1618.51,0.190962,315116,203006
1621.49,0.190072,307217,198323
1624.47,0.189242,299481,193699
1627.44,0.189111,292112,188990
1630.41,0.187325,284245,184658
1634.36,0.185261,274079,178902
1637.32,0.186162,266916,173865
1640.27,0.185396,259612,169406
1643.22,0.183887,251804,164883
1646.16,0.182688,244348,160443
1649.1,0.182074,236703,155643
1652.04,0.180294,228171,150649
1655.95,0.176649,215408,143421
1658.88,0.171744,204937,137999
1661.8,0.168833,193395,131103
1664.72,0.161534,179728,123903
1667.63,0.147994,163642,116386
1670.54,0.135446,146312,107111
1673.44,0.118341,128451,97813
1677.31,0.101444,105080,83191
1680.21,0.089997,88906,72266
1683.1,0.081064,75033,62257
1685.99,0.086515,63520,52047
1688.87,0.090681,53714,43592
1691.75,0.090271,45653,37085
1694.62,0.102587,39137,30903
1697.49,0.104675,33776,26542
1701.31,0.116679,28175,21537