File: samples/wool/wool-000811/Column 1_050619_20150331_123245.csv
Method:,Column 1,,
Host Date-Time:,31/3/15 @ 12:32:45,,
Header Version:,1,,
System Temp (C):,34.13,,
Detector Temp (C):,35,,
Humidity (%):,1.66,,
Lamp PD:,3818,,
Shift Vector Coefficients:,-10.5391,0.0761263,-0.000134223,,
Pixel to Wavelength Coefficients:,1775.68,-0.916766,-0.000235065,,
Serial Number:,5510004,,
Scan Config Name:,Column 1,,
Scan Config Type:,Slew,,
Section 1,,
Start wavelength (nm):,900,,
End wavelength (nm):,1700,,
Pattern Pixel Width (nm):,   7.03,,,,
Exposure (ms):,  0.635,,,,
Digital Resolution:,228,,
Num Repeats:,6,,
PGA Gain:,64,,
Total Measurement Time in sec:,  2.676,,
Wavelength (nm),Absorbance (AU),Reference Signal (unitless),Sample Signal (unitless)
901.51,0.068942,108485,92561
905.376,0.075125,121306,102037
909.237,0.076700,131909,110554
913.095,0.077547,143299,119866
916.948,0.078466,156982,131034
922.079,0.079960,179937,149679
925.923,0.080831,200504,166453
929.762,0.083533,222660,183700
933.597,0.082106,244426,202321
937.427,0.080297,263972,219412
941.254,0.080043,281845,234405
945.076,0.079591,297271,247492
950.165,0.077998,315605,263722
953.978,0.077174,328029,274624
957.786,0.077437,340470,284867
961.59,0.077670,352317,294621
965.389,0.076750,363056,304245
969.185,0.077563,373162,312129
972.976,0.078041,382632,319698
976.763,0.077887,391202,326975
981.806,0.078866,400190,333734
985.583,0.079557,406088,338114
989.355,0.079555,410162,341508
993.124,0.080372,412868,343115
996.888,0.080932,414263,343830
1000.65,0.081726,415476,344207
1004.4,0.082958,415479,343235
1009.41,0.083747,414358,341687
1013.15,0.084342,412923,340038
1016.89,0.084136,411526,339048
1020.63,0.084718,409066,336570
1024.36,0.084344,406777,334975
1028.09,0.084366,404427,333023
1031.82,0.084385,401911,330937
1036.78,0.083515,398410,328712
1040.49,0.084157,396204,326409
1044.2,0.083815,394236,325043
1047.91,0.083803,392042,323243
1051.61,0.083607,389823,321559
1055.31,0.082296,388234,321216
1059,0.081675,387599,321150
1063.92,0.081535,386688,320498
1067.61,0.080568,386598,321138
1071.29,0.079973,387377,322226
1074.96,0.079544,388536,323510
1078.63,0.078749,389855,325203
1082.3,0.078346,391215,326640
1085.96,0.077558,393215,328906
1090.84,0.076389,396270,332355
1094.49,0.076090,398760,334674
1098.14,0.075574,400987,336943
1101.79,0.074457,403477,339908
1105.43,0.074368,406116,342202
1109.06,0.073781,407701,344002
1112.7,0.073383,409859,346140
1117.53,0.072855,412494,348789
1121.15,0.073601,414909,350229
1124.77,0.073286,416559,351877
1128.38,0.075261,418532,351939
1131.99,0.076165,419956,352402
1135.6,0.076984,421946,353405
1139.2,0.078432,423881,353844
1143.99,0.080336,426786,354711
1147.58,0.080979,428617,355705
1151.17,0.081788,431169,357157
1154.75,0.083017,433579,358139
1158.33,0.084391,436264,359218
1161.91,0.086256,439132,360030
1165.48,0.087739,442389,361464
1169.04,0.090675,446101,362041
1173.79,0.093827,451929,364119
1177.34,0.095332,456026,366149
1180.9,0.098144,461306,367998
1184.44,0.099950,467657,371516
1187.99,0.100889,473969,375717
1191.52,0.100739,479856,380515
1195.06,0.101036,487372,386211
1199.76,0.100043,497347,395018
1203.29,0.099083,504311,401435
1206.81,0.098671,511507,407550
1210.33,0.098092,519078,414134
1213.84,0.097929,527163,420742
1217.35,0.097328,534208,426955
1220.85,0.096104,540472,433181
1225.51,0.095302,549929,441575
1229.01,0.095128,556888,447342
1232.5,0.094267,562180,452489
1235.98,0.094101,567975,457328
1239.46,0.092983,574815,464029
1242.94,0.091891,582782,471645
1246.41,0.091226,591476,479415
1251.03,0.091001,604016,489832
1254.5,0.091265,612289,496240
1257.96,0.091563,619125,501436
1261.41,0.092273,624551,505004
1264.86,0.092538,629900,509019
1268.31,0.093416,634345,511575
1271.75,0.093833,638574,514491
1276.33,0.093944,642499,517522
1279.76,0.094082,645905,520100
1283.19,0.093653,648307,522550
1286.61,0.093270,650446,524737
1290.03,0.093157,652132,526233
1293.44,0.092336,653907,528664
1296.85,0.091849,655963,530922
1301.39,0.091964,657349,531902
1304.8,0.091802,657558,532270
1308.19,0.092231,658515,532518
1311.58,0.091799,658804,533282
1314.97,0.092503,659011,532586
1318.36,0.092721,658272,531722
1321.73,0.092953,658022,531236
1326.23,0.093700,657870,530200
1329.6,0.094654,656482,527921
1332.97,0.095458,654926,525695
1336.33,0.096353,653727,523653
1339.69,0.097325,652497,521499
1343.04,0.099155,649913,517250
1346.39,0.101038,647671,513235
1349.73,0.103087,645338,508979
1354.18,0.105942,641175,502383
1357.52,0.107845,638376,498003
1360.85,0.109750,635805,493826
1364.17,0.111614,633413,489861
1367.49,0.114073,631026,485260
1370.81,0.116261,628050,480544
1374.12,0.118212,625034,476093
1378.54,0.120848,620272,469607
1381.84,0.123760,616892,463926
1385.14,0.126630,613613,458421
1388.43,0.130362,611526,452953
1391.72,0.133992,610663,448549
1395.01,0.138046,610634,444360
1398.29,0.142219,611700,440879
1402.66,0.148334,614051,436386
1405.93,0.153211,616268,433071
1409.2,0.157709,617795,429670
1412.46,0.161958,618872,426229
1415.72,0.165476,619795,423421
1418.98,0.168859,620495,420610
1422.23,0.172265,621087,417722
1426.56,0.176020,621375,414318
1429.8,0.178505,621616,412114
1433.04,0.180815,622129,410266
1436.27,0.182878,621526,407926
1439.5,0.185433,621113,405264
1442.72,0.187157,620921,403533
1445.94,0.189879,620270,400592
1450.23,0.193895,618860,396002
1453.44,0.195926,617697,393414
1456.64,0.199380,616264,389392
1459.85,0.201882,614413,385992
1463.04,0.205098,612307,381831
1466.24,0.208591,610032,377365
1469.43,0.212773,607345,372102
1473.67,0.218927,603789,364719
1476.85,0.224070,601175,358865
1480.02,0.230631,597737,351463
1483.19,0.237345,594479,344185
1486.36,0.243322,591232,337626
1489.52,0.247740,587853,332299
1492.68,0.251755,583875,327013
1496.89,0.253426,578062,322514
1500.03,0.254427,574159,319599
1503.18,0.254324,570285,317518
1506.32,0.253331,565444,315543
1509.45,0.252073,560571,313731
1512.58,0.250936,555821,311888
1515.71,0.248176,550344,310784
1519.87,0.244998,543983,309448
1522.99,0.242512,538764,308238
1526.1,0.239906,533692,307174
1529.21,0.236879,527902,305967
1532.32,0.234461,521886,304169
1535.42,0.231701,515888,302590
1538.51,0.228462,509987,301368
1541.6,0.226053,503936,299449
1545.72,0.221319,494694,297179
1548.8,0.219053,488378,294919
1551.88,0.216207,481832,292879
1554.95,0.214497,474989,289859
1558.02,0.212169,467818,287017
1561.08,0.212035,460730,282756
1564.15,0.211214,454170,279257
1568.22,0.209936,444181,273920
1571.27,0.209466,436947,269751
1574.32,0.209253,429598,265344
1577.36,0.207507,422039,261725
1580.4,0.206266,414375,257708
1583.43,0.206036,406354,252853
1586.46,0.204287,398475,248951
1590.49,0.202417,388982,244069
1593.51,0.200200,380708,240100
1596.53,0.197927,372727,236300
1599.54,0.196689,365060,232100
1602.55,0.193840,357543,228817
1605.55,0.191662,349495,224791
1608.55,0.190396,341154,220067
1612.54,0.188126,330877,214556
1615.53,0.186249,322904,210293
1618.51,0.186240,315116,205225
1621.49,0.186025,307217,200180
1624.47,0.183042,299481,196484
1627.44,0.182284,292112,191984
1630.41,0.181865,284245,186994
1634.36,0.180737,274079,180775
1637.32,0.179970,266916,176362
1640.27,0.177589,259612,172479
1643.22,0.178294,251804,167020
1646.16,0.177669,244348,162308
1649.1,0.176774,236703,157554
1652.04,0.174828,228171,152557
1655.95,0.171445,215408,145150
1658.88,0.168381,204937,139072
1661.8,0.163398,193395,132754
1664.72,0.154273,179728,125992
1667.63,0.142289,163642,117925
1670.54,0.127746,146312,109027
1673.44,0.110845,128451,99516
1677.31,0.091361,105080,85145
1680.21,0.079858,88906,73973
1683.1,0.072533,75033,63492
1685.99,0.073819,63520,53591
1688.87,0.076614,53714,45027
1691.75,0.081117,45653,37875
1694.62,0.085393,39137,32151
1697.49,0.086003,33776,27708
1701.31,0.094681,28175,22656