File: samples/wool/wool-000811/Column 1_050600_20150331_122327.csv
Method:,Column 1,,
Host Date-Time:,31/3/15 @ 12:23:27,,
Header Version:,1,,
System Temp (C):,33.95,,
Detector Temp (C):,34.72,,
Humidity (%):,1.76,,
Lamp PD:,3818,,
Shift Vector Coefficients:,-10.5391,0.0761263,-0.000134223,,
Pixel to Wavelength Coefficients:,1775.68,-0.916766,-0.000235065,,
Serial Number:,5510004,,
Scan Config Name:,Column 1,,
Scan Config Type:,Slew,,
Section 1,,
Start wavelength (nm):,900,,
End wavelength (nm):,1700,,
Pattern Pixel Width (nm):,   7.03,,,,
Exposure (ms):,  0.635,,,,
Digital Resolution:,228,,
Num Repeats:,6,,
PGA Gain:,64,,
Total Measurement Time in sec:,  2.725,,
Wavelength (nm),Absorbance (AU),Reference Signal (unitless),Sample Signal (unitless)
901.51,0.069660,108485,92408
905.376,0.074716,121306,102133
909.237,0.077062,131909,110462
913.095,0.077862,143299,119779
916.948,0.079242,156982,130800
922.079,0.080018,179937,149659
925.923,0.081531,200504,166185
929.762,0.082284,222660,184229
933.597,0.081969,244426,202385
937.427,0.081134,263972,218990
941.254,0.080188,281845,234327
945.076,0.079321,297271,247646
950.165,0.077978,315605,263734
953.978,0.077123,328029,274656
957.786,0.078546,340470,284140
961.59,0.078443,352317,294097
965.389,0.078014,363056,303361
969.185,0.078045,373162,311783
972.976,0.078635,382632,319261
976.763,0.078812,391202,326279
981.806,0.079228,400190,333456
985.583,0.079750,406088,337964
989.355,0.080074,410162,341100
993.124,0.081283,412868,342396
996.888,0.081041,414263,343744
1000.65,0.082464,415476,343623
1004.4,0.083762,415479,342600
1009.41,0.084503,414358,341093
1013.15,0.084469,412923,339938
1016.89,0.085753,411526,337788
1020.63,0.085375,409066,336061
1024.36,0.085150,406777,334354
1028.09,0.085532,404427,332130
1031.82,0.084937,401911,330516
1036.78,0.084846,398410,327706
1040.49,0.084169,396204,326400
1044.2,0.084654,394236,324416
1047.91,0.084220,392042,322933
1051.61,0.083973,389823,321288
1055.31,0.083542,388234,320296
1059,0.082800,387599,320319
1063.92,0.082527,386688,319767
1067.61,0.081311,386598,320589
1071.29,0.080846,387377,321579
1074.96,0.080420,388536,322858
1078.63,0.080006,389855,324263
1082.3,0.079356,391215,325881
1085.96,0.078159,393215,328451
1090.84,0.078041,396270,331093
1094.49,0.076974,398760,333993
1098.14,0.076141,400987,336503
1101.79,0.075955,403477,338738
1105.43,0.075656,406116,341188
1109.06,0.074435,407701,343484
1112.7,0.074396,409859,345333
1117.53,0.074072,412494,347813
1121.15,0.074759,414909,349296
1124.77,0.074813,416559,350642
1128.38,0.075435,418532,351798
1131.99,0.076722,419956,351951
1135.6,0.078072,421946,352521
1139.2,0.079328,423881,353115
1143.99,0.081810,426786,353509
1147.58,0.082456,428617,354498
1151.17,0.083367,431169,355861
1154.75,0.084511,433579,356909
1158.33,0.086003,436264,357887
1161.91,0.087932,439132,358644
1165.48,0.089498,442389,360003
1169.04,0.092048,446101,360899
1173.79,0.095483,451929,362733
1177.34,0.097050,456026,364703
1180.9,0.099549,461306,366809
1184.44,0.100673,467657,370898
1187.99,0.101929,473969,374818
1191.52,0.102075,479856,379346
1195.06,0.102171,487372,385203
1199.76,0.101440,497347,393749
1203.29,0.100411,504311,400210
1206.81,0.100344,511507,405983
1210.33,0.099239,519078,413041
1213.84,0.098863,527163,419838
1217.35,0.098478,534208,425826
1220.85,0.097218,540472,432071
1225.51,0.096961,549929,439892
1229.01,0.096675,556888,445752
1232.5,0.095868,562180,450824
1235.98,0.095178,567975,456196
1239.46,0.094350,574815,462571
1242.94,0.093239,582782,470183
1246.41,0.092704,591476,477786
1251.03,0.092970,604016,487617
1254.5,0.092579,612289,494741
1257.96,0.092946,619125,499842
1261.41,0.093668,624551,503385
1264.86,0.094067,629900,507230
1268.31,0.094628,634345,510149
1271.75,0.095676,638574,512313
1276.33,0.095705,642499,515427
1279.76,0.095388,645905,518538
1283.19,0.094894,648307,521059
1286.61,0.094384,650446,523392
1290.03,0.094374,652132,524761
1293.44,0.093504,653907,527245
1296.85,0.093383,655963,529050
1301.39,0.093491,657349,530036
1304.8,0.093326,657558,530406
1308.19,0.093737,658515,530675
1311.58,0.093556,658804,531129
1314.97,0.094512,659011,530128
1318.36,0.094375,658272,529700
1321.73,0.094570,658022,529262
1326.23,0.095679,657870,527790
1329.6,0.096012,656482,526273
1332.97,0.097324,654926,523441
1336.33,0.098406,653727,521183
1339.69,0.099945,652497,518363
1343.04,0.101395,649913,514589
1346.39,0.103233,647671,510648
1349.73,0.105207,645338,506501
1354.18,0.108034,641175,499968
1357.52,0.110287,638376,495210
1360.85,0.112081,635805,491183
1364.17,0.113877,633413,487315
1367.49,0.116097,631026,483004
1370.81,0.118426,628050,478154
1374.12,0.120494,625034,473598
1378.54,0.123404,620272,466851
1381.84,0.126340,616892,461179
1385.14,0.129573,613613,455325
1388.43,0.133443,611526,449751
1391.72,0.137628,610663,444809
1395.01,0.141420,610634,440921
1398.29,0.146615,611700,436439
1402.66,0.153071,614051,431652
1405.93,0.158254,616268,428071
1409.2,0.162257,617795,425194
1412.46,0.167254,618872,421063
1415.72,0.171474,619795,417613
1418.98,0.174947,620495,414755
1422.23,0.178457,621087,411809
1426.56,0.182118,621375,408541
1429.8,0.184717,621616,406261
1433.04,0.187638,622129,403871
1436.27,0.189483,621526,401769
1439.5,0.191129,621113,399983
1442.72,0.193641,620921,397553
1445.94,0.196550,620270,394485
1450.23,0.199580,618860,390852
1453.44,0.201959,617697,387986
1456.64,0.205230,616264,384182
1459.85,0.208269,614413,380357
1463.04,0.210767,612307,376879
1466.24,0.213849,610032,372824
1469.43,0.217339,607345,368211
1473.67,0.224149,603789,360360
1476.85,0.229273,601175,354591
1480.02,0.234873,597737,348046
1483.19,0.242305,594479,340276
1486.36,0.247496,591232,334397
1489.52,0.252114,587853,328969
1492.68,0.255228,583875,324408
1496.89,0.257168,578062,319747
1500.03,0.257829,574159,317105
1503.18,0.257502,570285,315203
1506.32,0.256299,565444,313394
1509.45,0.255219,560571,311467
1512.58,0.253051,555821,310373
1515.71,0.251914,550344,308120
1519.87,0.248887,543983,306689
1522.99,0.245613,538764,306045
1526.1,0.243730,533692,304481
1529.21,0.240797,527902,303219
1532.32,0.237412,521886,302109
1535.42,0.235078,515888,300246
1538.51,0.231599,509987,299199
1541.6,0.229419,503936,297137
1545.72,0.225365,494694,294423
1548.8,0.222370,488378,292675
1551.88,0.220992,481832,289670
1554.95,0.217603,474989,287793
1558.02,0.216401,467818,284234
1561.08,0.215278,460730,280652
1564.15,0.214794,454170,276965
1568.22,0.213143,444181,271905
1571.27,0.212498,436947,267874
1574.32,0.212493,429598,263372
1577.36,0.211188,422039,259516
1580.4,0.209556,414375,255763
1583.43,0.208127,406354,251639
1586.46,0.206664,398475,247592
1590.49,0.205023,388982,242609
1593.51,0.202601,380708,238776
1596.53,0.199765,372727,235302
1599.54,0.199275,365060,230722
1602.55,0.197075,357543,227119
1605.55,0.194809,349495,223168
1608.55,0.193563,341154,218468
1612.54,0.191207,330877,213039
1615.53,0.188975,322904,208977
1618.51,0.188970,315116,203939
1621.49,0.187078,307217,199695
1624.47,0.186466,299481,194941
1627.44,0.186008,292112,190345
1630.41,0.184378,284245,185915
1634.36,0.183064,274079,179809
1637.32,0.182635,266916,175283
1640.27,0.181027,259612,171119
1643.22,0.180735,251804,166084
1646.16,0.180302,244348,161327
1649.1,0.179068,236703,156724
1652.04,0.177538,228171,151608
1655.95,0.174498,215408,144133
1658.88,0.170396,204937,138428
1661.8,0.164803,193395,132325
1664.72,0.159042,179728,124616
1667.63,0.144245,163642,117395
1670.54,0.130118,146312,108433
1673.44,0.114293,128451,98729
1677.31,0.094674,105080,84498
1680.21,0.083709,88906,73320
1683.1,0.077895,75033,62713
1685.99,0.079004,63520,52955
1688.87,0.081006,53714,44574
1691.75,0.083877,45653,37635
1694.62,0.084907,39137,32187
1697.49,0.084064,33776,27832
1701.31,0.105000,28175,22124