File: samples/wool/wool-000811/Column 1_050539_20150331_115441.csv
Method:,Column 1,,
Host Date-Time:,31/3/15 @ 11:54:41,,
Header Version:,1,,
System Temp (C):,32.08,,
Detector Temp (C):,30.35,,
Humidity (%):,3.22,,
Lamp PD:,3825,,
Shift Vector Coefficients:,-10.5391,0.0761263,-0.000134223,,
Pixel to Wavelength Coefficients:,1775.68,-0.916766,-0.000235065,,
Serial Number:,5510004,,
Scan Config Name:,Column 1,,
Scan Config Type:,Slew,,
Section 1,,
Start wavelength (nm):,900,,
End wavelength (nm):,1700,,
Pattern Pixel Width (nm):,   7.03,,,,
Exposure (ms):,  0.635,,,,
Digital Resolution:,228,,
Num Repeats:,6,,
PGA Gain:,64,,
Total Measurement Time in sec:,  2.682,,
Wavelength (nm),Absorbance (AU),Reference Signal (unitless),Sample Signal (unitless)
901.51,0.043617,108485,98119
905.376,0.049101,121306,108338
909.237,0.051225,131909,117233
913.095,0.052788,143299,126898
916.948,0.050358,156982,139795
922.079,0.050735,179937,160098
925.923,0.051440,200504,178108
929.762,0.051831,222660,197611
933.597,0.051418,244426,217135
937.427,0.052387,263972,233976
941.254,0.052707,281845,249634
945.076,0.051955,297271,263753
950.165,0.052701,315605,279539
953.978,0.052765,328029,290501
957.786,0.053022,340470,301340
961.59,0.053572,352317,311431
965.389,0.053841,363056,320725
969.185,0.054406,373162,329224
972.976,0.055386,382632,336818
976.763,0.055236,391202,344481
981.806,0.056277,400190,351552
985.583,0.057143,406088,356022
989.355,0.057648,410162,359176
993.124,0.058096,412868,361173
996.888,0.058542,414263,362021
1000.65,0.059560,415476,362231
1004.4,0.060402,415479,361532
1009.41,0.062545,414358,358782
1013.15,0.062186,412923,357835
1016.89,0.062538,411526,356336
1020.63,0.062365,409066,354347
1024.36,0.062407,406777,352330
1028.09,0.062344,404427,350345
1031.82,0.062205,401911,348277
1036.78,0.061829,398410,345542
1040.49,0.060649,396204,344564
1044.2,0.060177,394236,343225
1047.91,0.060346,392042,341182
1051.61,0.058632,389823,340593
1055.31,0.057934,388234,339750
1059,0.057419,387599,339597
1063.92,0.055872,386688,340008
1067.61,0.055194,386598,340460
1071.29,0.054732,387377,341509
1074.96,0.053941,388536,343155
1078.63,0.053942,389855,344319
1082.3,0.052340,391215,346797
1085.96,0.051458,393215,349279
1090.84,0.051103,396270,352280
1094.49,0.050999,398760,354579
1098.14,0.050199,400987,357216
1101.79,0.050005,403477,359595
1105.43,0.050268,406116,361728
1109.06,0.049255,407701,363988
1112.7,0.049145,409859,366007
1117.53,0.049822,412494,367786
1121.15,0.050317,414909,369518
1124.77,0.051234,416559,370205
1128.38,0.051976,418532,371324
1131.99,0.053682,419956,371126
1135.6,0.056351,421946,370600
1139.2,0.058383,423881,370562
1143.99,0.061422,426786,370500
1147.58,0.062440,428617,371218
1151.17,0.063438,431169,372571
1154.75,0.064949,433579,373353
1158.33,0.067154,436264,373762
1161.91,0.069332,439132,374337
1165.48,0.072654,442389,374240
1169.04,0.075755,446101,374695
1173.79,0.079910,451929,375976
1177.34,0.082535,456026,377098
1180.9,0.084886,461306,379405
1184.44,0.086775,467657,382959
1187.99,0.087710,473969,387293
1191.52,0.087417,479856,392368
1195.06,0.087225,487372,398690
1199.76,0.085280,497347,408676
1203.29,0.083744,504311,415867
1206.81,0.082692,511507,422824
1210.33,0.081690,519078,430073
1213.84,0.080694,527163,437775
1217.35,0.079592,534208,444753
1220.85,0.078161,540472,451453
1225.51,0.077206,549929,460363
1229.01,0.076216,556888,467253
1232.5,0.075338,562180,472648
1235.98,0.074840,567975,478067
1239.46,0.073389,574815,485444
1242.94,0.072327,582782,493377
1246.41,0.071417,591476,501788
1251.03,0.071117,604016,512780
1254.5,0.071257,612289,519636
1257.96,0.071516,619125,525124
1261.41,0.072074,624551,529046
1264.86,0.072555,629900,532987
1268.31,0.073170,634345,535988
1271.75,0.073926,638574,538624
1276.33,0.074499,642499,541220
1279.76,0.074437,645905,544166
1283.19,0.073651,648307,547179
1286.61,0.073201,650446,549554
1290.03,0.073122,652132,551078
1293.44,0.072577,653907,553273
1296.85,0.072051,655963,555684
1301.39,0.071871,657349,557089
1304.8,0.072236,657558,556799
1308.19,0.072357,658515,557453
1311.58,0.072357,658804,557698
1314.97,0.073239,659011,556741
1318.36,0.073743,658272,555472
1321.73,0.074199,658022,554678
1326.23,0.075515,657870,552872
1329.6,0.076153,656482,550896
1332.97,0.077538,654926,547841
1336.33,0.078635,653727,545458
1339.69,0.080550,652497,542036
1343.04,0.082972,649913,536888
1346.39,0.085157,647671,532350
1349.73,0.087568,645338,527496
1354.18,0.091116,641175,519829
1357.52,0.093625,638376,514578
1360.85,0.096125,635805,509564
1364.17,0.098518,633413,504858
1367.49,0.101081,631026,499996
1370.81,0.104048,628050,494249
1374.12,0.106605,625034,488989
1378.54,0.110882,620272,480508
1381.84,0.114846,616892,473547
1385.14,0.119510,613613,465999
1388.43,0.124382,611526,459233
1391.72,0.130465,610663,452206
1395.01,0.136094,610634,446362
1398.29,0.142792,611700,440298
1402.66,0.151559,614051,433157
1405.93,0.158372,616268,427955
1409.2,0.165135,617795,422386
1412.46,0.170786,618872,417652
1415.72,0.176072,619795,413215
1418.98,0.180964,620495,409048
1422.23,0.185133,621087,405527
1426.56,0.190357,621375,400864
1429.8,0.193234,621616,398371
1433.04,0.196036,622129,396136
1436.27,0.198486,621526,393526
1439.5,0.200760,621113,391211
1442.72,0.203403,620921,388717
1445.94,0.206260,620270,385763
1450.23,0.209499,618860,382026
1453.44,0.212470,617697,378709
1456.64,0.216076,616264,374706
1459.85,0.218500,614413,371501
1463.04,0.220613,612307,368431
1466.24,0.224508,610032,363785
1469.43,0.227307,607345,359856
1473.67,0.232546,603789,353459
1476.85,0.237344,601175,348062
1480.02,0.242518,597737,341973
1483.19,0.248798,594479,335227
1486.36,0.254516,591232,329035
1489.52,0.259588,587853,323356
1492.68,0.263703,583875,318139
1496.89,0.266011,578062,313302
1500.03,0.267218,574159,310323
1503.18,0.267537,570285,308003
1506.32,0.266390,565444,306196
1509.45,0.265617,560571,304098
1512.58,0.264300,555821,302437
1515.71,0.262097,550344,300980
1519.87,0.259065,543983,299585
1522.99,0.256104,538764,298741
1526.1,0.253369,533692,297798
1529.21,0.250236,527902,296700
1532.32,0.247339,521886,295282
1535.42,0.243690,515888,294351
1538.51,0.240213,509987,293323
1541.6,0.237400,503936,291726
1545.72,0.232654,494694,289523
1548.8,0.228773,488378,288392
1551.88,0.226085,481832,286293
1554.95,0.223478,474989,283926
1558.02,0.222141,467818,280502
1561.08,0.220594,460730,277238
1564.15,0.220743,454170,273197
1568.22,0.219108,444181,268196
1571.27,0.217606,436947,264742
1574.32,0.216240,429598,261109
1577.36,0.215212,422039,257123
1580.4,0.212777,414375,253873
1583.43,0.211495,406354,249695
1586.46,0.209611,398475,245918
1590.49,0.207102,388982,241450
1593.51,0.204824,380708,237557
1596.53,0.202808,372727,233659
1599.54,0.200757,365060,229936
1602.55,0.198203,357543,226530
1605.55,0.195411,349495,222859
1608.55,0.192967,341154,218768
1612.54,0.190590,330877,213342
1615.53,0.188068,322904,209414
1618.51,0.185936,315116,205369
1621.49,0.185112,307217,200601
1624.47,0.184412,299481,195865
1627.44,0.182167,292112,192036
1630.41,0.181512,284245,187146
1634.36,0.179679,274079,181216
1637.32,0.177472,266916,177379
1640.27,0.177659,259612,172451
1643.22,0.175443,251804,168120
1646.16,0.175366,244348,163171
1649.1,0.174923,236703,158227
1652.04,0.173825,228171,152910
1655.95,0.171436,215408,145153
1658.88,0.170343,204937,138445
1661.8,0.168124,193395,131317
1664.72,0.165400,179728,122805
1667.63,0.162013,163642,112689
1670.54,0.158070,146312,101674
1673.44,0.153266,128451,90255
1677.31,0.149825,105080,74421
1680.21,0.148633,88906,63139
1683.1,0.153219,75033,52727
1685.99,0.158974,63520,44049
1688.87,0.160246,53714,37140
1691.75,0.162346,45653,31414
1694.62,0.168033,39137,26580
1697.49,0.169817,33776,22845
1701.31,0.175337,28175,18816