File: samples/wool/wool-000811/Column 1_050587_20150331_121733.csv
Method:,Column 1,,
Host Date-Time:,31/3/15 @ 12:17:33,,
Header Version:,1,,
System Temp (C):,33.79,,
Detector Temp (C):,34.54,,
Humidity (%):,1.86,,
Lamp PD:,3819,,
Shift Vector Coefficients:,-10.5391,0.0761263,-0.000134223,,
Pixel to Wavelength Coefficients:,1775.68,-0.916766,-0.000235065,,
Serial Number:,5510004,,
Scan Config Name:,Column 1,,
Scan Config Type:,Slew,,
Section 1,,
Start wavelength (nm):,900,,
End wavelength (nm):,1700,,
Pattern Pixel Width (nm):,   7.03,,,,
Exposure (ms):,  0.635,,,,
Digital Resolution:,228,,
Num Repeats:,6,,
PGA Gain:,64,,
Total Measurement Time in sec:,  2.674,,
Wavelength (nm),Absorbance (AU),Reference Signal (unitless),Sample Signal (unitless)
901.51,0.071030,108485,92117
905.376,0.078063,121306,101349
909.237,0.076865,131909,110512
913.095,0.080065,143299,119173
916.948,0.081696,156982,130063
922.079,0.081835,179937,149034
925.923,0.083063,200504,165600
929.762,0.082938,222660,183952
933.597,0.083504,244426,201671
937.427,0.082508,263972,218298
941.254,0.082446,281845,233112
945.076,0.081124,297271,246620
950.165,0.079257,315605,262958
953.978,0.079424,328029,273205
957.786,0.079546,340470,283487
961.59,0.079215,352317,293575
965.389,0.079741,363056,302157
969.185,0.079737,373162,310571
972.976,0.080569,382632,317843
976.763,0.081042,391202,324608
981.806,0.081269,400190,331892
985.583,0.081711,406088,336441
989.355,0.082397,410162,339280
993.124,0.083053,412868,341003
996.888,0.082850,414263,342315
1000.65,0.083680,415476,342662
1004.4,0.084651,415479,341899
1009.41,0.086706,414358,339367
1013.15,0.086835,412923,338091
1016.89,0.087121,411526,336726
1020.63,0.087110,409066,334721
1024.36,0.086851,406777,333047
1028.09,0.086788,404427,331171
1031.82,0.086831,401911,329078
1036.78,0.086218,398410,326672
1040.49,0.086359,396204,324758
1044.2,0.086014,394236,323402
1047.91,0.085405,392042,322053
1051.61,0.085300,389823,320308
1055.31,0.084752,388234,319405
1059,0.084494,387599,319072
1063.92,0.084190,386688,318545
1067.61,0.082666,386598,319590
1071.29,0.082607,387377,320278
1074.96,0.081995,388536,321689
1078.63,0.081469,389855,323172
1082.3,0.080798,391215,324801
1085.96,0.079973,393215,327082
1090.84,0.079297,396270,330137
1094.49,0.079260,398760,332240
1098.14,0.078012,400987,335057
1101.79,0.077378,403477,337630
1105.43,0.077381,406116,339836
1109.06,0.076636,407701,341748
1112.7,0.076728,409859,343484
1117.53,0.075984,412494,346285
1121.15,0.076778,414909,347676
1124.77,0.076576,416559,349221
1128.38,0.077829,418532,349864
1131.99,0.078650,419956,350392
1135.6,0.080147,421946,350841
1139.2,0.081325,423881,351495
1143.99,0.083714,426786,351962
1147.58,0.084079,428617,353175
1151.17,0.085390,431169,354207
1154.75,0.086763,433579,355063
1158.33,0.088318,436264,355985
1161.91,0.089719,439132,357171
1165.48,0.092061,442389,357885
1169.04,0.093669,446101,359554
1173.79,0.097686,451929,360898
1177.34,0.099561,456026,362601
1180.9,0.101548,461306,365125
1184.44,0.103241,467657,368711
1187.99,0.103890,473969,373130
1191.52,0.104039,479856,377635
1195.06,0.103771,487372,383786
1199.76,0.103655,497347,391746
1203.29,0.103171,504311,397674
1206.81,0.102296,511507,404162
1210.33,0.101143,519078,411235
1213.84,0.101282,527163,417506
1217.35,0.100258,534208,424084
1220.85,0.099469,540472,429837
1225.51,0.098920,549929,437912
1229.01,0.098067,556888,444325
1232.5,0.097680,562180,448947
1235.98,0.097093,567975,454189
1239.46,0.096061,574815,460752
1242.94,0.095278,582782,467981
1246.41,0.094883,591476,475394
1251.03,0.094709,604016,485668
1254.5,0.094261,612289,492828
1257.96,0.095425,619125,496997
1261.41,0.095897,624551,500808
1264.86,0.096552,629900,504335
1268.31,0.096607,634345,507830
1271.75,0.097194,638574,510525
1276.33,0.097232,642499,513618
1279.76,0.097317,645905,516240
1283.19,0.097228,648307,518266
1286.61,0.097124,650446,520101
1290.03,0.096051,652132,522739
1293.44,0.095822,653907,524438
1296.85,0.096037,655963,525826
1301.39,0.095795,657349,527231
1304.8,0.095540,657558,527709
1308.19,0.095856,658515,528092
1311.58,0.095836,658804,528348
1314.97,0.096506,659011,527699
1318.36,0.096968,658272,526547
1321.73,0.096968,658022,526347
1326.23,0.098363,657870,524538
1329.6,0.099122,656482,522518
1332.97,0.099705,654926,520580
1336.33,0.101143,653727,517909
1339.69,0.102430,652497,515405
1343.04,0.104186,649913,511292
1346.39,0.106397,647671,506941
1349.73,0.108155,645338,503075
1354.18,0.110945,641175,496628
1357.52,0.113288,638376,491800
1360.85,0.114955,635805,487943
1364.17,0.117138,633413,483670
1367.49,0.119703,631026,479010
1370.81,0.121148,628050,475167
1374.12,0.123846,625034,469957
1378.54,0.126973,620272,463030
1381.84,0.129985,616892,457324
1385.14,0.133419,613613,451311
1388.43,0.137280,611526,445795
1391.72,0.142086,610663,440266
1395.01,0.145989,610634,436307
1398.29,0.151449,611700,431608
1402.66,0.159191,614051,425612
1405.93,0.164010,616268,422435
1409.2,0.169386,617795,418272
1412.46,0.174006,618872,414567
1415.72,0.178807,619795,410621
1418.98,0.181955,620495,408116
1422.23,0.185917,621087,404795
1426.56,0.190065,621375,401133
1429.8,0.192912,621616,398667
1433.04,0.195510,622129,396616
1436.27,0.197273,621526,394627
1439.5,0.199464,621113,392380
1442.72,0.202268,620921,389734
1445.94,0.204795,620270,387067
1450.23,0.208060,618860,383294
1453.44,0.210209,617697,380686
1456.64,0.212784,616264,377557
1459.85,0.216149,614413,373518
1463.04,0.218224,612307,370463
1466.24,0.221238,610032,366534
1469.43,0.224746,607345,361984
1473.67,0.230039,603789,355505
1476.85,0.234915,601175,350014
1480.02,0.241053,597737,343129
1483.19,0.246480,594479,337021
1486.36,0.252123,591232,330853
1489.52,0.256038,587853,326010
1492.68,0.259416,583875,321295
1496.89,0.260960,578062,316967
1500.03,0.261872,574159,314167
1503.18,0.261861,570285,312055
1506.32,0.261162,565444,309904
1509.45,0.259966,560571,308081
1512.58,0.257668,555821,307091
1515.71,0.255678,550344,305461
1519.87,0.252418,543983,304206
1522.99,0.250700,538764,302481
1526.1,0.247867,533692,301595
1529.21,0.245545,527902,299922
1532.32,0.242067,521886,298888
1535.42,0.239912,515888,296923
1538.51,0.237113,509987,295424
1541.6,0.233743,503936,294193
1545.72,0.230351,494694,291062
1548.8,0.226836,488378,289681
1551.88,0.224270,481832,287492
1554.95,0.222380,474989,284645
1558.02,0.221247,467818,281080
1561.08,0.219489,460730,277944
1564.15,0.219216,454170,274159
1568.22,0.219137,444181,268178
1571.27,0.218115,436947,264432
1574.32,0.216320,429598,261061
1577.36,0.215717,422039,256824
1580.4,0.213937,414375,253196
1583.43,0.212972,406354,248847
1586.46,0.211709,398475,244733
1590.49,0.208488,388982,240681
1593.51,0.207145,380708,236291
1596.53,0.204524,372727,232738
1599.54,0.203463,365060,228508
1602.55,0.200829,357543,225164
1605.55,0.199475,349495,220783
1608.55,0.197850,341154,216322
1612.54,0.195732,330877,210831
1615.53,0.193695,322904,206718
1618.51,0.193188,315116,201968
1621.49,0.191432,307217,197703
1624.47,0.190030,299481,193348
1627.44,0.189391,292112,188868
1630.41,0.188231,284245,184273
1634.36,0.187495,274079,177984
1637.32,0.187543,266916,173313
1640.27,0.185365,259612,169418
1643.22,0.184277,251804,164735
1646.16,0.183962,244348,159973
1649.1,0.183027,236703,155302
1652.04,0.182328,228171,149945
1655.95,0.178780,215408,142719
1658.88,0.174510,204937,137123
1661.8,0.169466,193395,130912
1664.72,0.162868,179728,123523
1667.63,0.150715,163642,115659
1670.54,0.135227,146312,107165
1673.44,0.121894,128451,97016
1677.31,0.100370,105080,83397
1680.21,0.092722,88906,71814
1683.1,0.085947,75033,61561
1685.99,0.088723,63520,51783
1688.87,0.095419,53714,43119
1691.75,0.094366,45653,36737
1694.62,0.103825,39137,30815
1697.49,0.104151,33776,26574
1701.31,0.123057,28175,21223