File: samples/wool/wool-000811/Column 1_050572_20150331_121020.csv
Method:,Column 1,,
Host Date-Time:,31/3/15 @ 12:10:20,,
Header Version:,1,,
System Temp (C):,34.14,,
Detector Temp (C):,34.3,,
Humidity (%):,1.76,,
Lamp PD:,3818,,
Shift Vector Coefficients:,-10.5391,0.0761263,-0.000134223,,
Pixel to Wavelength Coefficients:,1775.68,-0.916766,-0.000235065,,
Serial Number:,5510004,,
Scan Config Name:,Column 1,,
Scan Config Type:,Slew,,
Section 1,,
Start wavelength (nm):,900,,
End wavelength (nm):,1700,,
Pattern Pixel Width (nm):,   7.03,,,,
Exposure (ms):,  0.635,,,,
Digital Resolution:,228,,
Num Repeats:,6,,
PGA Gain:,64,,
Total Measurement Time in sec:,  2.678,,
Wavelength (nm),Absorbance (AU),Reference Signal (unitless),Sample Signal (unitless)
901.51,0.034949,108485,100097
905.376,0.040701,121306,110454
909.237,0.043685,131909,119286
913.095,0.043628,143299,129603
916.948,0.045247,156982,141450
922.079,0.046593,179937,161632
925.923,0.048109,200504,179479
929.762,0.050122,222660,198390
933.597,0.049671,244426,218010
937.427,0.048350,263972,236161
941.254,0.048441,281845,252098
945.076,0.047441,297271,266509
950.165,0.047084,315605,283178
953.978,0.046316,328029,294847
957.786,0.046366,340470,305994
961.59,0.046840,352317,316296
965.389,0.046586,363056,326128
969.185,0.047060,373162,334840
972.976,0.048043,382632,342561
976.763,0.048290,391202,350035
981.806,0.048559,400190,357855
985.583,0.049243,406088,362558
989.355,0.049701,410162,365809
993.124,0.050295,412868,367719
996.888,0.050538,414263,368755
1000.65,0.051428,415476,369078
1004.4,0.052846,415479,367877
1009.41,0.054231,414358,365717
1013.15,0.054560,412923,364174
1016.89,0.055113,411526,362480
1020.63,0.054907,409066,360484
1024.36,0.055093,406777,358314
1028.09,0.054697,404427,356569
1031.82,0.054030,401911,354895
1036.78,0.053876,398410,351928
1040.49,0.053489,396204,350292
1044.2,0.053264,394236,348732
1047.91,0.052518,392042,347388
1051.61,0.052281,389823,345610
1055.31,0.052295,388234,344190
1059,0.051540,387599,344225
1063.92,0.050217,386688,344464
1067.61,0.049558,386598,344907
1071.29,0.049272,387377,345829
1074.96,0.048663,388536,347351
1078.63,0.048266,389855,348849
1082.3,0.046826,391215,351228
1085.96,0.046440,393215,353338
1090.84,0.045278,396270,357037
1094.49,0.045251,398760,359303
1098.14,0.045123,400987,361416
1101.79,0.044444,403477,364229
1105.43,0.045030,406116,366117
1109.06,0.044344,407701,368127
1112.7,0.043742,409859,370589
1117.53,0.044193,412494,372584
1121.15,0.044557,414909,374452
1124.77,0.045501,416559,375125
1128.38,0.046503,418532,376033
1131.99,0.047313,419956,376609
1135.6,0.049912,421946,376136
1139.2,0.051303,423881,376653
1143.99,0.054057,426786,376837
1147.58,0.054782,428617,377822
1151.17,0.056343,431169,378708
1154.75,0.057023,433579,380229
1158.33,0.059083,436264,380773
1161.91,0.061488,439132,381160
1165.48,0.063459,442389,382248
1169.04,0.066000,446101,383207
1173.79,0.070356,451929,384339
1177.34,0.072534,456026,385883
1180.9,0.074626,461306,388475
1184.44,0.076438,467657,392184
1187.99,0.077534,473969,396475
1191.52,0.077052,479856,401845
1195.06,0.076938,487372,408247
1199.76,0.075998,497347,417505
1203.29,0.074998,504311,424327
1206.81,0.074366,511507,431008
1210.33,0.073321,519078,438441
1213.84,0.072706,527163,445902
1217.35,0.071901,534208,452699
1220.85,0.071278,540472,458665
1225.51,0.069783,549929,468299
1229.01,0.069651,556888,474370
1232.5,0.068868,562180,479742
1235.98,0.068357,567975,485258
1239.46,0.067442,574815,492137
1242.94,0.066576,582782,499954
1246.41,0.065652,591476,508493
1251.03,0.065476,604016,519484
1254.5,0.065971,612289,526000
1257.96,0.066238,619125,531545
1261.41,0.066725,624551,535603
1264.86,0.067202,629900,539597
1268.31,0.067874,634345,542565
1271.75,0.068950,638574,544830
1276.33,0.068959,642499,548168
1279.76,0.069173,645905,550802
1283.19,0.068482,648307,553731
1286.61,0.067948,650446,556241
1290.03,0.067815,652132,557854
1293.44,0.066810,653907,560668
1296.85,0.067235,655963,561881
1301.39,0.067019,657349,563348
1304.8,0.067062,657558,563472
1308.19,0.067013,658515,564355
1311.58,0.067501,658804,563969
1314.97,0.067692,659011,563898
1318.36,0.067605,658272,563379
1321.73,0.068513,658022,561989
1326.23,0.069087,657870,561116
1329.6,0.070214,656482,558481
1332.97,0.071006,654926,556143
1336.33,0.072543,653727,553164
1339.69,0.073925,652497,550368
1343.04,0.075786,649913,545845
1346.39,0.077662,647671,541617
1349.73,0.079840,645338,536966
1354.18,0.083204,641175,529386
1357.52,0.085410,638376,524405
1360.85,0.087446,635805,519850
1364.17,0.089698,633413,515216
1367.49,0.092335,631026,510167
1370.81,0.094689,628050,505016
1374.12,0.097338,625034,499535
1378.54,0.100551,620272,492075
1381.84,0.103689,616892,485870
1385.14,0.107100,613613,479507
1388.43,0.111643,611526,472903
1391.72,0.116314,610663,467184
1395.01,0.120798,610634,462363
1398.29,0.126126,611700,457523
1402.66,0.133079,614051,451986
1405.93,0.138859,616268,447621
1409.2,0.144015,617795,443434
1412.46,0.149100,618872,439037
1415.72,0.153387,619795,435373
1418.98,0.157622,620495,431635
1422.23,0.161028,621087,428671
1426.56,0.165376,621375,424598
1429.8,0.167868,621616,422332
1433.04,0.170409,622129,420215
1436.27,0.173070,621526,417243
1439.5,0.175292,621113,414838
1442.72,0.177337,620921,412762
1445.94,0.180317,620270,409509
1450.23,0.183543,618860,405555
1453.44,0.186977,617697,401604
1456.64,0.189562,616264,398295
1459.85,0.193113,614413,393865
1463.04,0.195730,612307,390157
1466.24,0.199235,610032,385583
1469.43,0.203396,607345,380224
1473.67,0.209409,603789,372800
1476.85,0.215439,601175,366068
1480.02,0.221665,597737,358794
1483.19,0.228873,594479,350965
1486.36,0.234356,591232,344669
1489.52,0.240202,587853,338117
1492.68,0.242991,583875,333679
1496.89,0.246698,578062,327549
1500.03,0.247756,574159,324546
1503.18,0.246696,570285,323144
1506.32,0.246391,565444,320626
1509.45,0.245404,560571,318586
1512.58,0.242938,555821,317685
1515.71,0.241067,550344,315913
1519.87,0.237108,543983,315121
1522.99,0.234472,538764,313998
1526.1,0.232370,533692,312551
1529.21,0.229533,527902,311186
1532.32,0.226442,521886,309837
1535.42,0.222670,515888,308948
1538.51,0.219563,509987,307607
1541.6,0.216237,503936,306294
1545.72,0.211470,494694,303995
1548.8,0.208873,488378,301914
1551.88,0.206029,481832,299824
1554.95,0.203902,474989,297017
1558.02,0.202660,467818,293371
1561.08,0.200999,460730,290033
1564.15,0.200528,454170,286214
1568.22,0.199655,444181,280482
1571.27,0.198583,436947,276596
1574.32,0.197204,429598,272809
1577.36,0.195943,422039,268788
1580.4,0.194600,414375,264724
1583.43,0.193652,406354,260167
1586.46,0.191385,398475,256458
1590.49,0.188989,388982,251733
1593.51,0.186954,380708,247536
1596.53,0.184708,372727,243603
1599.54,0.182403,365060,239862
1602.55,0.180264,357543,236083
1605.55,0.178183,349495,231877
1608.55,0.176259,341154,227348
1612.54,0.173740,330877,221782
1615.53,0.172012,322904,217301
1618.51,0.170789,315116,212658
1621.49,0.169597,307217,207897
1624.47,0.167916,299481,203448
1627.44,0.166443,292112,199116
1630.41,0.165249,284245,194287
1634.36,0.164180,274079,187800
1637.32,0.163461,266916,183195
1640.27,0.163327,259612,178237
1643.22,0.161583,251804,173572
1646.16,0.160729,244348,168764
1649.1,0.160078,236703,163729
1652.04,0.158670,228171,158340
1655.95,0.154740,215408,150842
1658.88,0.150318,204937,144978
1661.8,0.147278,193395,137774
1664.72,0.141562,179728,129734
1667.63,0.130324,163642,121219
1670.54,0.120356,146312,110898
1673.44,0.103072,128451,101313
1677.31,0.085978,105080,86207
1680.21,0.077125,88906,74440
1683.1,0.074384,75033,63222
1685.99,0.077342,63520,53158
1688.87,0.081610,53714,44512
1691.75,0.079297,45653,38034
1694.62,0.092900,39137,31600
1697.49,0.087479,33776,27614
1701.31,0.110512,28175,21845