File: samples/wool/wool-000811/Column 1_050533_20150331_115147.csv
Method:,Column 1,,
Host Date-Time:,31/3/15 @ 11:51:47,,
Header Version:,1,,
System Temp (C):,30.76,,
Detector Temp (C):,30.75,,
Humidity (%):,4.48,,
Lamp PD:,3829,,
Shift Vector Coefficients:,-10.5391,0.0761263,-0.000134223,,
Pixel to Wavelength Coefficients:,1775.68,-0.916766,-0.000235065,,
Serial Number:,5510004,,
Scan Config Name:,Column 1,,
Scan Config Type:,Slew,,
Section 1,,
Start wavelength (nm):,900,,
End wavelength (nm):,1700,,
Pattern Pixel Width (nm):,   7.03,,,,
Exposure (ms):,  0.635,,,,
Digital Resolution:,228,,
Num Repeats:,6,,
PGA Gain:,64,,
Total Measurement Time in sec:,  2.683,,
Wavelength (nm),Absorbance (AU),Reference Signal (unitless),Sample Signal (unitless)
901.51,0.042794,108485,98305
905.376,0.047877,121306,108644
909.237,0.051010,131909,117291
913.095,0.051036,143299,127411
916.948,0.050458,156982,139763
922.079,0.050705,179937,160109
925.923,0.050417,200504,178528
929.762,0.051581,222660,197725
933.597,0.052349,244426,216670
937.427,0.051472,263972,234469
941.254,0.053166,281845,249370
945.076,0.052176,297271,263619
950.165,0.053330,315605,279135
953.978,0.052772,328029,290496
957.786,0.053136,340470,301261
961.59,0.054138,352317,311025
965.389,0.054491,363056,320245
969.185,0.054473,373162,329173
972.976,0.055342,382632,336852
976.763,0.056554,391202,343437
981.806,0.056274,400190,351554
985.583,0.057733,406088,355539
989.355,0.058343,410162,358602
993.124,0.058444,412868,360884
996.888,0.059526,414263,361202
1000.65,0.059607,415476,362192
1004.4,0.061187,415479,360879
1009.41,0.062568,414358,358763
1013.15,0.062893,412923,357253
1016.89,0.062856,411526,356075
1020.63,0.063438,409066,353472
1024.36,0.063159,406777,351720
1028.09,0.062849,404427,349938
1031.82,0.062702,401911,347879
1036.78,0.062087,398410,345337
1040.49,0.061087,396204,344217
1044.2,0.060894,394236,342659
1047.91,0.060467,392042,341087
1051.61,0.059507,389823,339907
1055.31,0.059128,388234,338817
1059,0.058198,387599,338988
1063.92,0.057472,386688,338757
1067.61,0.056080,386598,339766
1071.29,0.055910,387377,340584
1074.96,0.054592,388536,342641
1078.63,0.054523,389855,343859
1082.3,0.052730,391215,346486
1085.96,0.052286,393215,348613
1090.84,0.051977,396270,351572
1094.49,0.050967,398760,354605
1098.14,0.050692,400987,356811
1101.79,0.050722,403477,359002
1105.43,0.050965,406116,361148
1109.06,0.049948,407701,363407
1112.7,0.049771,409859,365480
1117.53,0.050157,412494,367503
1121.15,0.051087,414909,368864
1124.77,0.051704,416559,369805
1128.38,0.053493,418532,370029
1131.99,0.054823,419956,370153
1135.6,0.057116,421946,369948
1139.2,0.059050,423881,369993
1143.99,0.062233,426786,369809
1147.58,0.062615,428617,371069
1151.17,0.064676,431169,371511
1154.75,0.066190,433579,372287
1158.33,0.068272,436264,372801
1161.91,0.070784,439132,373088
1165.48,0.073597,442389,373428
1169.04,0.076910,446101,373700
1173.79,0.080775,451929,375228
1177.34,0.083442,456026,376312
1180.9,0.085531,461306,378842
1184.44,0.088048,467657,381838
1187.99,0.088542,473969,386552
1191.52,0.088153,479856,391704
1195.06,0.087230,487372,398686
1199.76,0.085857,497347,408134
1203.29,0.084698,504311,414954
1206.81,0.083973,511507,421579
1210.33,0.082294,519078,429476
1213.84,0.081322,527163,437142
1217.35,0.080362,534208,443965
1220.85,0.079082,540472,450496
1225.51,0.078108,549929,459408
1229.01,0.077137,556888,466263
1232.5,0.076212,562180,471697
1235.98,0.075011,567975,477879
1239.46,0.074172,574815,484569
1242.94,0.072882,582782,492747
1246.41,0.072647,591476,500369
1251.03,0.071757,604016,512025
1254.5,0.072013,612289,518732
1257.96,0.072335,619125,524135
1261.41,0.073050,624551,527859
1264.86,0.073770,629900,531498
1268.31,0.074209,634345,534708
1271.75,0.075247,638574,536988
1276.33,0.075005,642499,540589
1279.76,0.075212,645905,543196
1283.19,0.074359,648307,546288
1286.61,0.074062,650446,548465
1290.03,0.073899,652132,550094
1293.44,0.073446,653907,552166
1296.85,0.073206,655963,554209
1301.39,0.072693,657349,556036
1304.8,0.073228,657558,555528
1308.19,0.073407,658515,556107
1311.58,0.073258,658804,556543
1314.97,0.074113,659011,555622
1318.36,0.074761,658272,554172
1321.73,0.075227,658022,553367
1326.23,0.076359,657870,551799
1329.6,0.077163,656482,549616
1332.97,0.078945,654926,546069
1336.33,0.080024,653727,543716
1339.69,0.081956,652497,540284
1343.04,0.084204,649913,535367
1346.39,0.086948,647671,530159
1349.73,0.088996,645338,525764
1354.18,0.092518,641175,518154
1357.52,0.094819,638376,513166
1360.85,0.097525,635805,507924
1364.17,0.099860,633413,503300
1367.49,0.102274,631026,498624
1370.81,0.105168,628050,492977
1374.12,0.108080,625034,487330
1378.54,0.112170,620272,479085
1381.84,0.116218,616892,472053
1385.14,0.120743,613613,464677
1388.43,0.126891,611526,456587
1391.72,0.132764,610663,449819
1395.01,0.139101,610634,443282
1398.29,0.145321,611700,437741
1402.66,0.154398,614051,430335
1405.93,0.161460,616268,424922
1409.2,0.168905,617795,418735
1412.46,0.175257,618872,413375
1415.72,0.180544,619795,408982
1418.98,0.185279,620495,405004
1422.23,0.189569,621087,401406
1426.56,0.195220,621375,396400
1429.8,0.198224,621616,393820
1433.04,0.201294,622129,391369
1436.27,0.204005,621526,388557
1439.5,0.206671,621113,385922
1442.72,0.209101,620921,383650
1445.94,0.212331,620270,380408
1450.23,0.215359,618860,376906
1453.44,0.218780,617697,373246
1456.64,0.220762,616264,370685
1459.85,0.223820,614413,366978
1463.04,0.226688,612307,363313
1466.24,0.229610,610032,359536
1469.43,0.231923,607345,356051
1473.67,0.236950,603789,349893
1476.85,0.241676,601175,344608
1480.02,0.246044,597737,339208
1483.19,0.252004,594479,332761
1486.36,0.258070,591232,326353
1489.52,0.262807,587853,320968
1492.68,0.266413,583875,316160
1496.89,0.269211,578062,311002
1500.03,0.269998,574159,308343
1503.18,0.270108,570285,306185
1506.32,0.269447,565444,304048
1509.45,0.267931,560571,302482
1512.58,0.267226,555821,300406
1515.71,0.265117,550344,298894
1519.87,0.262005,543983,297564
1522.99,0.258993,538764,296760
1526.1,0.257148,533692,295218
1529.21,0.253512,527902,294470
1532.32,0.250521,521886,293126
1535.42,0.247466,515888,291803
1538.51,0.243684,509987,290988
1541.6,0.241063,503936,289276
1545.72,0.235261,494694,287790
1548.8,0.231882,488378,286335
1551.88,0.229108,481832,284307
1554.95,0.226957,474989,281661
1558.02,0.224932,467818,278705
1561.08,0.223522,460730,275375
1564.15,0.222878,454170,271857
1568.22,0.222166,444181,266314
1571.27,0.221048,436947,262652
1574.32,0.219858,429598,258943
1577.36,0.217771,422039,255612
1580.4,0.215576,414375,252242
1583.43,0.214378,406354,248043
1586.46,0.212431,398475,244326
1590.49,0.209914,388982,239892
1593.51,0.207435,380708,236133
1596.53,0.204977,372727,232495
1599.54,0.202485,365060,229023
1602.55,0.200010,357543,225589
1605.55,0.198893,349495,221079
1608.55,0.195367,341154,217562
1612.54,0.192351,330877,212479
1615.53,0.190353,322904,208315
1618.51,0.188902,315116,203971
1621.49,0.187637,307217,199438
1624.47,0.186103,299481,195104
1627.44,0.184030,292112,191214
1630.41,0.183494,284245,186294
1634.36,0.181813,274079,180328
1637.32,0.181746,266916,175642
1640.27,0.178728,259612,172027
1643.22,0.178799,251804,166826
1646.16,0.178569,244348,161972
1649.1,0.176755,236703,157561
1652.04,0.175566,228171,152298
1655.95,0.175101,215408,143933
1658.88,0.173188,204937,137541
1661.8,0.174025,193395,129545
1664.72,0.170690,179728,121318
1667.63,0.166569,163642,111513
1670.54,0.165206,146312,100017
1673.44,0.161662,128451,88527
1677.31,0.155706,105080,73420
1680.21,0.159428,88906,61589
1683.1,0.164890,75033,51329
1685.99,0.167578,63520,43185
1688.87,0.173761,53714,36002
1691.75,0.177783,45653,30317
1694.62,0.175299,39137,26139
1697.49,0.179331,33776,22350
1701.31,0.176955,28175,18746