File: samples/wool/wool-000811/Column 1_050570_20150331_120909.csv
Method:,Column 1,,
Host Date-Time:,31/3/15 @ 12:9:9,,
Header Version:,1,,
System Temp (C):,34.04,,
Detector Temp (C):,34.09,,
Humidity (%):,1.76,,
Lamp PD:,3818,,
Shift Vector Coefficients:,-10.5391,0.0761263,-0.000134223,,
Pixel to Wavelength Coefficients:,1775.68,-0.916766,-0.000235065,,
Serial Number:,5510004,,
Scan Config Name:,Column 1,,
Scan Config Type:,Slew,,
Section 1,,
Start wavelength (nm):,900,,
End wavelength (nm):,1700,,
Pattern Pixel Width (nm):,   7.03,,,,
Exposure (ms):,  0.635,,,,
Digital Resolution:,228,,
Num Repeats:,6,,
PGA Gain:,64,,
Total Measurement Time in sec:,  2.669,,
Wavelength (nm),Absorbance (AU),Reference Signal (unitless),Sample Signal (unitless)
901.51,0.035535,108485,99962
905.376,0.041031,121306,110370
909.237,0.043197,131909,119420
913.095,0.044195,143299,129434
916.948,0.045846,156982,141255
922.079,0.047085,179937,161449
925.923,0.048148,200504,179463
929.762,0.049713,222660,198577
933.597,0.049661,244426,218015
937.427,0.050043,263972,235242
941.254,0.048071,281845,252313
945.076,0.047450,297271,266503
950.165,0.046575,315605,283510
953.978,0.047085,328029,294325
957.786,0.046234,340470,306087
961.59,0.047422,352317,315872
965.389,0.047052,363056,325778
969.185,0.047017,373162,334873
972.976,0.047113,382632,343296
976.763,0.047694,391202,350515
981.806,0.048276,400190,358088
985.583,0.049091,406088,362685
989.355,0.049990,410162,365566
993.124,0.050374,412868,367652
996.888,0.050903,414263,368445
1000.65,0.051836,415476,368731
1004.4,0.052896,415479,367835
1009.41,0.054305,414358,365654
1013.15,0.054559,412923,364175
1016.89,0.055077,411526,362510
1020.63,0.055089,409066,360333
1024.36,0.055055,406777,358345
1028.09,0.054583,404427,356662
1031.82,0.054078,401911,354856
1036.78,0.053489,398410,352242
1040.49,0.053496,396204,350286
1044.2,0.052712,394236,349176
1047.91,0.052768,392042,347188
1051.61,0.052021,389823,345817
1055.31,0.051552,388234,344780
1059,0.051176,387599,344514
1063.92,0.050642,386688,344127
1067.61,0.049826,386598,344694
1071.29,0.049114,387377,345955
1074.96,0.048900,388536,347161
1078.63,0.048533,389855,348634
1082.3,0.047173,391215,350948
1085.96,0.046686,393215,353138
1090.84,0.045796,396270,356611
1094.49,0.045586,398760,359026
1098.14,0.045506,400987,361097
1101.79,0.045016,403477,363750
1105.43,0.044989,406116,366152
1109.06,0.044408,407701,368073
1112.7,0.044028,409859,370345
1117.53,0.044484,412494,372335
1121.15,0.045249,414909,373856
1124.77,0.045758,416559,374903
1128.38,0.046580,418532,375966
1131.99,0.048179,419956,375859
1135.6,0.049981,421946,376076
1139.2,0.052004,423881,376045
1143.99,0.054196,426786,376716
1147.58,0.054888,428617,377730
1151.17,0.056038,431169,378974
1154.75,0.057271,433579,380012
1158.33,0.059015,436264,380833
1161.91,0.061695,439132,380978
1165.48,0.064006,442389,381767
1169.04,0.066084,446101,383133
1173.79,0.070051,451929,384609
1177.34,0.072609,456026,385816
1180.9,0.075195,461306,387966
1184.44,0.076627,467657,392013
1187.99,0.077438,473969,396563
1191.52,0.077367,479856,401554
1195.06,0.077379,487372,407832
1199.76,0.075941,497347,417560
1203.29,0.075304,504311,424028
1206.81,0.074683,511507,430694
1210.33,0.073738,519078,438021
1213.84,0.073078,527163,445520
1217.35,0.072145,534208,452445
1220.85,0.071345,540472,458594
1225.51,0.070143,549929,467911
1229.01,0.069582,556888,474445
1232.5,0.069037,562180,479555
1235.98,0.068309,567975,485311
1239.46,0.067489,574815,492084
1242.94,0.066453,582782,500096
1246.41,0.066053,591476,508024
1251.03,0.065792,604016,519107
1254.5,0.066005,612289,525958
1257.96,0.066173,619125,531625
1261.41,0.066812,624551,535495
1264.86,0.067671,629900,539015
1268.31,0.068185,634345,542176
1271.75,0.068778,638574,545046
1276.33,0.069100,642499,547990
1279.76,0.069174,645905,550801
1283.19,0.068556,648307,553636
1286.61,0.068286,650446,555809
1290.03,0.067922,652132,557717
1293.44,0.067260,653907,560088
1296.85,0.067117,655963,562034
1301.39,0.066975,657349,563405
1304.8,0.067046,657558,563492
1308.19,0.067417,658515,563830
1311.58,0.067400,658804,564100
1314.97,0.067721,659011,563860
1318.36,0.068035,658272,562821
1321.73,0.068464,658022,562052
1326.23,0.069452,657870,560645
1329.6,0.070330,656482,558332
1332.97,0.071420,654926,555613
1336.33,0.072604,653727,553086
1339.69,0.074245,652497,549963
1343.04,0.075600,649913,546079
1346.39,0.078384,647671,540718
1349.73,0.080412,645338,536260
1354.18,0.083395,641175,529153
1357.52,0.085456,638376,524349
1360.85,0.088164,635805,518991
1364.17,0.090572,633413,514180
1367.49,0.092826,631026,509591
1370.81,0.094649,628050,505063
1374.12,0.097177,625034,499720
1378.54,0.100961,620272,491610
1381.84,0.104218,616892,485279
1385.14,0.107960,613613,478558
1388.43,0.111944,611526,472575
1391.72,0.116684,610663,466786
1395.01,0.121614,610634,461495
1398.29,0.126696,611700,456922
1402.66,0.133960,614051,451070
1405.93,0.139525,616268,446935
1409.2,0.144836,617795,442597
1412.46,0.149687,618872,438444
1415.72,0.154511,619795,434247
1418.98,0.158181,620495,431079
1422.23,0.162043,621087,427671
1426.56,0.165898,621375,424088
1429.8,0.168859,621616,421370
1433.04,0.171509,622129,419152
1436.27,0.174090,621526,416264
1439.5,0.176192,621113,413979
1442.72,0.179167,620921,411026
1445.94,0.181632,620270,408271
1450.23,0.184842,618860,404343
1453.44,0.188203,617697,400472
1456.64,0.191008,616264,396971
1459.85,0.193541,614413,393477
1463.04,0.197115,612307,388915
1466.24,0.200183,610032,384742
1469.43,0.203819,607345,379854
1473.67,0.210196,603789,372125
1476.85,0.215913,601175,365669
1480.02,0.223168,597737,357554
1483.19,0.229247,594479,350663
1486.36,0.235266,591232,343947
1489.52,0.241133,587853,337393
1492.68,0.244105,583875,332824
1496.89,0.246823,578062,327455
1500.03,0.247225,574159,324943
1503.18,0.246962,570285,322946
1506.32,0.246648,565444,320436
1509.45,0.245104,560571,318806
1512.58,0.243273,555821,317440
1515.71,0.241068,550344,315912
1519.87,0.238332,543983,314234
1522.99,0.235129,538764,313523
1526.1,0.232195,533692,312677
1529.21,0.229551,527902,311173
1532.32,0.226756,521886,309613
1535.42,0.223706,515888,308212
1538.51,0.220658,509987,306832
1541.6,0.216529,503936,306088
1545.72,0.212721,494694,303121
1548.8,0.209367,488378,301571
1551.88,0.207066,481832,299109
1554.95,0.204540,474989,296581
1558.02,0.202509,467818,293473
1561.08,0.201245,460730,289869
1564.15,0.201272,454170,285724
1568.22,0.200326,444181,280049
1571.27,0.199628,436947,275931
1574.32,0.198102,429598,272245
1577.36,0.197433,422039,267867
1580.4,0.195124,414375,264405
1583.43,0.193973,406354,259975
1586.46,0.191697,398475,256274
1590.49,0.190076,388982,251104
1593.51,0.187210,380708,247390
1596.53,0.185138,372727,243362
1599.54,0.182805,365060,239640
1602.55,0.180866,357543,235756
1605.55,0.178573,349495,231669
1608.55,0.177043,341154,226938
1612.54,0.173611,330877,221848
1615.53,0.171345,322904,217635
1618.51,0.171279,315116,212418
1621.49,0.169695,307217,207850
1624.47,0.168302,299481,203267
1627.44,0.168082,292112,198366
1630.41,0.166913,284245,193544
1634.36,0.165944,274079,187039
1637.32,0.164197,266916,182885
1640.27,0.162494,259612,178579
1643.22,0.161288,251804,173690
1646.16,0.160613,244348,168809
1649.1,0.160022,236703,163750
1652.04,0.157714,228171,158689
1655.95,0.156739,215408,150149
1658.88,0.152652,204937,144201
1661.8,0.150096,193395,136883
1664.72,0.141605,179728,129721
1667.63,0.131239,163642,120964
1670.54,0.119078,146312,111225
1673.44,0.104920,128451,100883
1677.31,0.089640,105080,85483
1680.21,0.079453,88906,74042
1683.1,0.076636,75033,62895
1685.99,0.079726,63520,52867
1688.87,0.084449,53714,44222
1691.75,0.088005,45653,37279
1694.62,0.100260,39137,31069
1697.49,0.095831,33776,27088
1701.31,0.103100,28175,22221