File: samples/wool/wool-000811/Column 1_050621_20150331_123331.csv
Method:,Column 1,,
Host Date-Time:,31/3/15 @ 12:33:31,,
Header Version:,1,,
System Temp (C):,34.15,,
Detector Temp (C):,35.01,,
Humidity (%):,1.56,,
Lamp PD:,3818,,
Shift Vector Coefficients:,-10.5391,0.0761263,-0.000134223,,
Pixel to Wavelength Coefficients:,1775.68,-0.916766,-0.000235065,,
Serial Number:,5510004,,
Scan Config Name:,Column 1,,
Scan Config Type:,Slew,,
Section 1,,
Start wavelength (nm):,900,,
End wavelength (nm):,1700,,
Pattern Pixel Width (nm):,   7.03,,,,
Exposure (ms):,  0.635,,,,
Digital Resolution:,228,,
Num Repeats:,6,,
PGA Gain:,64,,
Total Measurement Time in sec:,  2.675,,
Wavelength (nm),Absorbance (AU),Reference Signal (unitless),Sample Signal (unitless)
901.51,0.068914,108485,92567
905.376,0.076233,121306,101777
909.237,0.077880,131909,110254
913.095,0.078483,143299,119608
916.948,0.079917,156982,130597
922.079,0.080534,179937,149481
925.923,0.082588,200504,165781
929.762,0.081773,222660,184446
933.597,0.083719,244426,201571
937.427,0.081229,263972,218942
941.254,0.080711,281845,234045
945.076,0.079111,297271,247766
950.165,0.078495,315605,263420
953.978,0.077205,328029,274604
957.786,0.077881,340470,284576
961.59,0.078889,352317,293795
965.389,0.077423,363056,303774
969.185,0.077772,373162,311979
972.976,0.077953,382632,319763
976.763,0.078703,391202,326361
981.806,0.079189,400190,333486
985.583,0.079782,406088,337939
989.355,0.079343,410162,341674
993.124,0.080598,412868,342936
996.888,0.080763,414263,343964
1000.65,0.081929,415476,344046
1004.4,0.082519,415479,343582
1009.41,0.083516,414358,341869
1013.15,0.084275,412923,340090
1016.89,0.084768,411526,338555
1020.63,0.084357,409066,336850
1024.36,0.084930,406777,334523
1028.09,0.084515,404427,332909
1031.82,0.083861,401911,331336
1036.78,0.084241,398410,328163
1040.49,0.083574,396204,326847
1044.2,0.083753,394236,325090
1047.91,0.083022,392042,323825
1051.61,0.083233,389823,321836
1055.31,0.083404,388234,320398
1059,0.081994,387599,320914
1063.92,0.081446,386688,320564
1067.61,0.080853,386598,320927
1071.29,0.080151,387377,322094
1074.96,0.079443,388536,323585
1078.63,0.079194,389855,324870
1082.3,0.078567,391215,326474
1085.96,0.077735,393215,328772
1090.84,0.076972,396270,331909
1094.49,0.076402,398760,334433
1098.14,0.075266,400987,337182
1101.79,0.074938,403477,339532
1105.43,0.074506,406116,342093
1109.06,0.074091,407701,343756
1112.7,0.073581,409859,345982
1117.53,0.073468,412494,348297
1121.15,0.073731,414909,350124
1124.77,0.074566,416559,350841
1128.38,0.074772,418532,352336
1131.99,0.075562,419956,352892
1135.6,0.077262,421946,353179
1139.2,0.078675,423881,353646
1143.99,0.080400,426786,354658
1147.58,0.081116,428617,355593
1151.17,0.081842,431169,357113
1154.75,0.083013,433579,358142
1158.33,0.084406,436264,359206
1161.91,0.085995,439132,360247
1165.48,0.088298,442389,360999
1169.04,0.090456,446101,362224
1173.79,0.094114,451929,363878
1177.34,0.096434,456026,365221
1180.9,0.098085,461306,368048
1184.44,0.099655,467657,371768
1187.99,0.101063,473969,375567
1191.52,0.101294,479856,380029
1195.06,0.100757,487372,386459
1199.76,0.100657,497347,394460
1203.29,0.099671,504311,400892
1206.81,0.099060,511507,407185
1210.33,0.098457,519078,413786
1213.84,0.098215,527163,420465
1217.35,0.096770,534208,427504
1220.85,0.096712,540472,432575
1225.51,0.095535,549929,441338
1229.01,0.095427,556888,447034
1232.5,0.094609,562180,452133
1235.98,0.093609,567975,457847
1239.46,0.092846,574815,464175
1242.94,0.092039,582782,471484
1246.41,0.091570,591476,479035
1251.03,0.091423,604016,489357
1254.5,0.091743,612289,495694
1257.96,0.092277,619125,500612
1261.41,0.092589,624551,504637
1264.86,0.093190,629900,508255
1268.31,0.093499,634345,511477
1271.75,0.094311,638574,513925
1276.33,0.094043,642499,517404
1279.76,0.094103,645905,520075
1283.19,0.093735,648307,522451
1286.61,0.093489,650446,524472
1290.03,0.093162,652132,526228
1293.44,0.092520,653907,528440
1296.85,0.092526,655963,530094
1301.39,0.092017,657349,531837
1304.8,0.092074,657558,531937
1308.19,0.092280,658515,532458
1311.58,0.091895,658804,533165
1314.97,0.092593,659011,532475
1318.36,0.092628,658272,531836
1321.73,0.093244,658022,530880
1326.23,0.094409,657870,529335
1329.6,0.094827,656482,527710
1332.97,0.095471,654926,525680
1336.33,0.096651,653727,523294
1339.69,0.097767,652497,520969
1343.04,0.099088,649913,517330
1346.39,0.101265,647671,512967
1349.73,0.103197,645338,508851
1354.18,0.105843,641175,502497
1357.52,0.107628,638376,498252
1360.85,0.109412,635805,494210
1364.17,0.112236,633413,489160
1367.49,0.114287,631026,485021
1370.81,0.116494,628050,480286
1374.12,0.118598,625034,475670
1378.54,0.120923,620272,469526
1381.84,0.124028,616892,463640
1385.14,0.127020,613613,458010
1388.43,0.129947,611526,453386
1391.72,0.134678,610663,447841
1395.01,0.138445,610634,443952
1398.29,0.142631,611700,440461
1402.66,0.148524,614051,436195
1405.93,0.153272,616268,433010
1409.2,0.157678,617795,429701
1412.46,0.161935,618872,426251
1415.72,0.165252,619795,423639
1418.98,0.169127,620495,420350
1422.23,0.172037,621087,417941
1426.56,0.176353,621375,414000
1429.8,0.178610,621616,412014
1433.04,0.180804,622129,410276
1436.27,0.182802,621526,407997
1439.5,0.184741,621113,405910
1442.72,0.187327,620921,403375
1445.94,0.189364,620270,401067
1450.23,0.193656,618860,396220
1453.44,0.196363,617697,393018
1456.64,0.199128,616264,389618
1459.85,0.201799,614413,386066
1463.04,0.204747,612307,382140
1466.24,0.208256,610032,377656
1469.43,0.212211,607345,372584
1473.67,0.218753,603789,364865
1476.85,0.225066,601175,358043
1480.02,0.231248,597737,350964
1483.19,0.237683,594479,343917
1486.36,0.243527,591232,337467
1489.52,0.249051,587853,331297
1492.68,0.251898,583875,326905
1496.89,0.253587,578062,322394
1500.03,0.254613,574159,319462
1503.18,0.254762,570285,317198
1506.32,0.253617,565444,315335
1509.45,0.251968,560571,313807
1512.58,0.251155,555821,311731
1515.71,0.248396,550344,310626
1519.87,0.246073,543983,308683
1522.99,0.243409,538764,307602
1526.1,0.240482,533692,306767
1529.21,0.237346,527902,305638
1532.32,0.235122,521886,303706
1535.42,0.232185,515888,302253
1538.51,0.228255,509987,301512
1541.6,0.225877,503936,299570
1545.72,0.221864,494694,296806
1548.8,0.218869,488378,295044
1551.88,0.217202,481832,292209
1554.95,0.214891,474989,289596
1558.02,0.213186,467818,286346
1561.08,0.211752,460730,282940
1564.15,0.211672,454170,278963
1568.22,0.210666,444181,273460
1571.27,0.209883,436947,269492
1574.32,0.208896,429598,265562
1577.36,0.207572,422039,261686
1580.4,0.206348,414375,257659
1583.43,0.205964,406354,252895
1586.46,0.203961,398475,249138
1590.49,0.201697,388982,244474
1593.51,0.200478,380708,239946
1596.53,0.197894,372727,236318
1599.54,0.196510,365060,232196
1602.55,0.194309,357543,228570
1605.55,0.192279,349495,224472
1608.55,0.190960,341154,219781
1612.54,0.189220,330877,214016
1615.53,0.187815,322904,209536
1618.51,0.186503,315116,205101
1621.49,0.185704,307217,200328
1624.47,0.184690,299481,195740
1627.44,0.182250,292112,191999
1630.41,0.181835,284245,187007
1634.36,0.180080,274079,181049
1637.32,0.180512,266916,176142
1640.27,0.180393,259612,171369
1643.22,0.178466,251804,166954
1646.16,0.178695,244348,161925
1649.1,0.177083,236703,157442
1652.04,0.175506,228171,152319
1655.95,0.172568,215408,144775
1658.88,0.168218,204937,139124
1661.8,0.164121,193395,132533
1664.72,0.155132,179728,125743
1667.63,0.142713,163642,117810
1670.54,0.128515,146312,108834
1673.44,0.112773,128451,99075
1677.31,0.091687,105080,85081
1680.21,0.080034,88906,73943
1683.1,0.074020,75033,63275
1685.99,0.073017,63520,53690
1688.87,0.079421,53714,44737
1691.75,0.082426,45653,37761
1694.62,0.092681,39137,31616
1697.49,0.095238,33776,27125
1701.31,0.098841,28175,22440