File: samples/wool/wool-000811/Column 1_050590_20150331_121856.csv
Method:,Column 1,,
Host Date-Time:,31/3/15 @ 12:18:56,,
Header Version:,1,,
System Temp (C):,33.85,,
Detector Temp (C):,34.58,,
Humidity (%):,1.86,,
Lamp PD:,3818,,
Shift Vector Coefficients:,-10.5391,0.0761263,-0.000134223,,
Pixel to Wavelength Coefficients:,1775.68,-0.916766,-0.000235065,,
Serial Number:,5510004,,
Scan Config Name:,Column 1,,
Scan Config Type:,Slew,,
Section 1,,
Start wavelength (nm):,900,,
End wavelength (nm):,1700,,
Pattern Pixel Width (nm):,   7.03,,,,
Exposure (ms):,  0.635,,,,
Digital Resolution:,228,,
Num Repeats:,6,,
PGA Gain:,64,,
Total Measurement Time in sec:,  2.672,,
Wavelength (nm),Absorbance (AU),Reference Signal (unitless),Sample Signal (unitless)
901.51,0.070705,108485,92186
905.376,0.075908,121306,101853
909.237,0.079506,131909,109842
913.095,0.078915,143299,119489
916.948,0.080073,156982,130550
922.079,0.081809,179937,149043
925.923,0.083136,200504,165572
929.762,0.082902,222660,183967
933.597,0.083138,244426,201841
937.427,0.081777,263972,218666
941.254,0.081523,281845,233608
945.076,0.079953,297271,247286
950.165,0.079451,315605,262841
953.978,0.079403,328029,273218
957.786,0.078768,340470,283995
961.59,0.079622,352317,293300
965.389,0.078459,363056,303050
969.185,0.079253,373162,310917
972.976,0.079244,382632,318814
976.763,0.079834,391202,325512
981.806,0.080155,400190,332745
985.583,0.081008,406088,336986
989.355,0.081800,410162,339747
993.124,0.082073,412868,341773
996.888,0.082134,414263,342880
1000.65,0.083083,415476,343133
1004.4,0.084079,415479,342350
1009.41,0.085907,414358,339992
1013.15,0.085932,412923,338795
1016.89,0.086347,411526,337326
1020.63,0.086265,409066,335373
1024.36,0.086698,406777,333164
1028.09,0.085660,404427,332032
1031.82,0.086053,401911,329668
1036.78,0.086479,398410,326476
1040.49,0.085711,396204,325243
1044.2,0.085705,394236,323632
1047.91,0.084757,392042,322534
1051.61,0.084675,389823,320769
1055.31,0.084237,388234,319784
1059,0.084083,387599,319374
1063.92,0.082895,386688,319496
1067.61,0.082334,386598,319835
1071.29,0.082176,387377,320596
1074.96,0.081543,388536,322024
1078.63,0.080614,389855,323809
1082.3,0.080143,391215,325291
1085.96,0.079429,393215,327492
1090.84,0.078522,396270,330727
1094.49,0.078235,398760,333025
1098.14,0.077681,400987,335312
1101.79,0.076946,403477,337966
1105.43,0.077442,406116,339788
1109.06,0.075638,407701,342534
1112.7,0.075560,409859,344409
1117.53,0.075658,412494,346545
1121.15,0.076114,414909,348208
1124.77,0.075841,416559,349813
1128.38,0.077550,418532,350089
1131.99,0.077981,419956,350932
1135.6,0.079556,421946,351318
1139.2,0.080751,423881,351960
1143.99,0.082843,426786,352669
1147.58,0.083868,428617,353347
1151.17,0.085053,431169,354482
1154.75,0.085887,433579,355780
1158.33,0.087489,436264,356665
1161.91,0.088729,439132,357986
1165.48,0.090891,442389,358850
1169.04,0.093012,446101,360098
1173.79,0.096760,451929,361668
1177.34,0.098753,456026,363276
1180.9,0.100891,461306,365677
1184.44,0.102675,467657,369192
1187.99,0.103354,473969,373591
1191.52,0.103144,479856,378414
1195.06,0.103068,487372,384408
1199.76,0.102446,497347,392838
1203.29,0.102050,504311,398702
1206.81,0.101687,511507,404729
1210.33,0.100964,519078,411404
1213.84,0.100180,527163,418567
1217.35,0.099968,534208,424368
1220.85,0.099005,540472,430297
1225.51,0.098498,549929,438338
1229.01,0.097926,556888,444469
1232.5,0.097005,562180,449646
1235.98,0.096388,567975,454927
1239.46,0.095822,574815,461006
1242.94,0.094647,582782,468661
1246.41,0.094150,591476,476197
1251.03,0.094101,604016,486348
1254.5,0.094074,612289,493040
1257.96,0.094294,619125,498293
1261.41,0.095006,624551,501836
1264.86,0.095461,629900,505604
1268.31,0.096083,634345,508443
1271.75,0.096829,638574,510954
1276.33,0.096986,642499,513909
1279.76,0.096781,645905,516878
1283.19,0.096604,648307,519011
1286.61,0.095914,650446,521552
1290.03,0.095828,652132,523007
1293.44,0.095181,653907,525212
1296.85,0.094963,655963,527128
1301.39,0.094539,657349,528758
1304.8,0.094857,657558,528539
1308.19,0.095284,658515,528788
1311.58,0.094922,658804,529461
1314.97,0.095548,659011,528865
1318.36,0.095841,658272,527915
1321.73,0.096267,658022,527198
1326.23,0.097333,657870,525784
1329.6,0.098236,656482,523584
1332.97,0.099024,654926,521397
1336.33,0.100225,653727,519005
1339.69,0.101843,652497,516102
1343.04,0.102758,649913,512976
1346.39,0.105116,647671,508439
1349.73,0.107363,645338,503993
1354.18,0.110253,641175,497420
1357.52,0.112598,638376,492582
1360.85,0.114423,635805,488541
1364.17,0.116346,633413,484553
1367.49,0.118549,631026,480284
1370.81,0.120449,628050,475932
1374.12,0.122528,625034,471385
1378.54,0.125614,620272,464481
1381.84,0.128863,616892,458507
1385.14,0.132470,613613,452298
1388.43,0.135968,611526,447144
1391.72,0.140744,610663,441629
1395.01,0.145192,610634,437108
1398.29,0.149600,611700,433449
1402.66,0.157253,614051,427515
1405.93,0.162144,616268,424254
1409.2,0.167732,617795,419868
1412.46,0.172426,618872,416078
1415.72,0.176449,619795,412856
1418.98,0.180344,620495,409632
1422.23,0.183316,621087,407227
1426.56,0.187760,621375,403268
1429.8,0.190579,621616,400814
1433.04,0.192629,622129,399256
1436.27,0.195334,621526,396392
1439.5,0.196676,621113,394907
1442.72,0.199597,620921,392138
1445.94,0.201504,620270,390011
1450.23,0.205245,618860,385787
1453.44,0.208174,617697,382474
1456.64,0.210566,616264,379490
1459.85,0.213300,614413,375976
1463.04,0.216005,612307,372361
1466.24,0.219108,610032,368336
1469.43,0.222742,607345,363658
1473.67,0.228283,603789,356946
1476.85,0.233543,601175,351122
1480.02,0.239100,597737,344675
1483.19,0.245109,594479,338086
1486.36,0.250480,591232,332107
1489.52,0.254863,587853,326893
1492.68,0.257580,583875,322656
1496.89,0.259811,578062,317807
1500.03,0.260548,574159,315126
1503.18,0.260521,570285,313019
1506.32,0.259411,565444,311156
1509.45,0.258360,560571,309222
1512.58,0.257040,555821,307535
1515.71,0.254691,550344,306156
1519.87,0.251391,543983,304926
1522.99,0.249334,538764,303434
1526.1,0.246316,533692,302674
1529.21,0.243866,527902,301084
1532.32,0.240967,521886,299646
1535.42,0.238311,515888,298019
1538.51,0.235243,509987,296699
1541.6,0.232799,503936,294833
1545.72,0.228272,494694,292459
1548.8,0.225144,488378,290812
1551.88,0.222750,481832,288500
1554.95,0.221042,474989,285523
1558.02,0.219655,467818,282112
1561.08,0.218515,460730,278568
1564.15,0.217665,454170,275140
1568.22,0.216858,444181,269589
1571.27,0.216042,436947,265697
1574.32,0.215551,429598,261524
1577.36,0.212813,422039,258547
1580.4,0.213152,414375,253654
1583.43,0.211010,406354,249974
1586.46,0.209885,398475,245763
1590.49,0.207379,388982,241296
1593.51,0.205856,380708,236993
1596.53,0.203223,372727,233436
1599.54,0.201756,365060,229408
1602.55,0.199960,357543,225615
1605.55,0.197726,349495,221674
1608.55,0.196409,341154,217041
1612.54,0.194603,330877,211380
1615.53,0.192610,322904,207235
1618.51,0.191375,315116,202813
1621.49,0.189449,307217,198608
1624.47,0.189406,299481,193626
1627.44,0.187986,292112,189480
1630.41,0.186714,284245,184918
1634.36,0.185265,274079,178900
1637.32,0.183580,266916,174902
1640.27,0.184420,259612,169787
1643.22,0.183534,251804,165017
1646.16,0.182980,244348,160335
1649.1,0.183256,236703,155220
1652.04,0.179822,228171,150813
1655.95,0.177082,215408,143278
1658.88,0.173662,204937,137391
1661.8,0.169084,193395,131027
1664.72,0.160777,179728,124119
1667.63,0.149134,163642,116081
1670.54,0.136469,146312,106859
1673.44,0.117489,128451,98005
1677.31,0.101532,105080,83174
1680.21,0.092861,88906,71791
1683.1,0.083590,75033,61896
1685.99,0.085440,63520,52176
1688.87,0.086013,53714,44063
1691.75,0.090658,45653,37052
1694.62,0.096530,39137,31337
1697.49,0.102146,33776,26697
1701.31,0.111946,28175,21773