File: samples/wool/wool-000811/Column 1_050569_20150331_120904.csv
Method:,Column 1,,
Host Date-Time:,31/3/15 @ 12:9:4,,
Header Version:,1,,
System Temp (C):,34.04,,
Detector Temp (C):,34.02,,
Humidity (%):,1.76,,
Lamp PD:,3818,,
Shift Vector Coefficients:,-10.5391,0.0761263,-0.000134223,,
Pixel to Wavelength Coefficients:,1775.68,-0.916766,-0.000235065,,
Serial Number:,5510004,,
Scan Config Name:,Column 1,,
Scan Config Type:,Slew,,
Section 1,,
Start wavelength (nm):,900,,
End wavelength (nm):,1700,,
Pattern Pixel Width (nm):,   7.03,,,,
Exposure (ms):,  0.635,,,,
Digital Resolution:,228,,
Num Repeats:,6,,
PGA Gain:,64,,
Total Measurement Time in sec:,  2.719,,
Wavelength (nm),Absorbance (AU),Reference Signal (unitless),Sample Signal (unitless)
901.51,0.033870,108485,100346
905.376,0.042174,121306,110080
909.237,0.044180,131909,119150
913.095,0.043963,143299,129503
916.948,0.044508,156982,141691
922.079,0.047004,179937,161479
925.923,0.048482,200504,179325
929.762,0.050114,222660,198394
933.597,0.049420,244426,218136
937.427,0.048370,263972,236150
941.254,0.048634,281845,251986
945.076,0.047027,297271,266763
950.165,0.046963,315605,283257
953.978,0.046789,328029,294526
957.786,0.046585,340470,305840
961.59,0.047105,352317,316103
965.389,0.046337,363056,326315
969.185,0.047577,373162,334442
972.976,0.048012,382632,342586
976.763,0.047750,391202,350470
981.806,0.048895,400190,357578
985.583,0.048675,406088,363032
989.355,0.049662,410162,365842
993.124,0.049999,412868,367970
996.888,0.051017,414263,368349
1000.65,0.051666,415476,368876
1004.4,0.052917,415479,367817
1009.41,0.054460,414358,365524
1013.15,0.054524,412923,364204
1016.89,0.055318,411526,362309
1020.63,0.055157,409066,360277
1024.36,0.055281,406777,358159
1028.09,0.054860,404427,356435
1031.82,0.054943,401911,354150
1036.78,0.054047,398410,351790
1040.49,0.053429,396204,350340
1044.2,0.053639,394236,348431
1047.91,0.052981,392042,347018
1051.61,0.052130,389823,345730
1055.31,0.052182,388234,344280
1059,0.051663,387599,344128
1063.92,0.050673,386688,344102
1067.61,0.049341,386598,345079
1071.29,0.049450,387377,345688
1074.96,0.048646,388536,347364
1078.63,0.048436,389855,348712
1082.3,0.047366,391215,350792
1085.96,0.046878,393215,352982
1090.84,0.045913,396270,356515
1094.49,0.045609,398760,359007
1098.14,0.045041,400987,361484
1101.79,0.044924,403477,363827
1105.43,0.044961,406116,366175
1109.06,0.044049,407701,368377
1112.7,0.044135,409859,370254
1117.53,0.044387,412494,372418
1121.15,0.045338,414909,373779
1124.77,0.045264,416559,375329
1128.38,0.046684,418532,375876
1131.99,0.048379,419956,375686
1135.6,0.049949,421946,376104
1139.2,0.051737,423881,376276
1143.99,0.054544,426786,376414
1147.58,0.055326,428617,377349
1151.17,0.056306,431169,378740
1154.75,0.058103,433579,379285
1158.33,0.059450,436264,380452
1161.91,0.061542,439132,381112
1165.48,0.063939,442389,381826
1169.04,0.066441,446101,382818
1173.79,0.070392,451929,384307
1177.34,0.072587,456026,385836
1180.9,0.075039,461306,388106
1184.44,0.076527,467657,392103
1187.99,0.078137,473969,395925
1191.52,0.077742,479856,401207
1195.06,0.077014,487372,408175
1199.76,0.076216,497347,417295
1203.29,0.075447,504311,423888
1206.81,0.074607,511507,430769
1210.33,0.073607,519078,438153
1213.84,0.072801,527163,445804
1217.35,0.072274,534208,452310
1220.85,0.071399,540472,458537
1225.51,0.070338,549929,467701
1229.01,0.069854,556888,474148
1232.5,0.069139,562180,479442
1235.98,0.068876,567975,484678
1239.46,0.067583,574815,491977
1242.94,0.066346,582782,500219
1246.41,0.065960,591476,508133
1251.03,0.065809,604016,519086
1254.5,0.066010,612289,525952
1257.96,0.066319,619125,531446
1261.41,0.066942,624551,535335
1264.86,0.067461,629900,539275
1268.31,0.068296,634345,542038
1271.75,0.068934,638574,544850
1276.33,0.069342,642499,547685
1279.76,0.069202,645905,550765
1283.19,0.068624,648307,553550
1286.61,0.068305,650446,555784
1290.03,0.067859,652132,557798
1293.44,0.067447,653907,559847
1296.85,0.067322,655963,561769
1301.39,0.066803,657349,563628
1304.8,0.067002,657558,563550
1308.19,0.067063,658515,564290
1311.58,0.067229,658804,564322
1314.97,0.068047,659011,563437
1318.36,0.068712,658272,561944
1321.73,0.068760,658022,561669
1326.23,0.069689,657870,560339
1329.6,0.070594,656482,557993
1332.97,0.071543,654926,555456
1336.33,0.072356,653727,553402
1339.69,0.074485,652497,549659
1343.04,0.076082,649913,545473
1346.39,0.077961,647671,541244
1349.73,0.080445,645338,536219
1354.18,0.083729,641175,528746
1357.52,0.085521,638376,524271
1360.85,0.087993,635805,519196
1364.17,0.089915,633413,514958
1367.49,0.092417,631026,510070
1370.81,0.095591,628050,503968
1374.12,0.097889,625034,498901
1378.54,0.100781,620272,491814
1381.84,0.104250,616892,485243
1385.14,0.107825,613613,478707
1388.43,0.112237,611526,472257
1391.72,0.116831,610663,466628
1395.01,0.122037,610634,461046
1398.29,0.126931,611700,456675
1402.66,0.133693,614051,451348
1405.93,0.139279,616268,447188
1409.2,0.145021,617795,442408
1412.46,0.150405,618872,437719
1415.72,0.154529,619795,434229
1418.98,0.158377,620495,430885
1422.23,0.161518,621087,428188
1426.56,0.166160,621375,423832
1429.8,0.168901,621616,421329
1433.04,0.172220,622129,418466
1436.27,0.174385,621526,415982
1439.5,0.176618,621113,413573
1442.72,0.179155,620921,411037
1445.94,0.180889,620270,408970
1450.23,0.185341,618860,403879
1453.44,0.187828,617697,400818
1456.64,0.191147,616264,396844
1459.85,0.193842,614413,393204
1463.04,0.197402,612307,388658
1466.24,0.200448,610032,384507
1469.43,0.204001,607345,379695
1473.67,0.210099,603789,372208
1476.85,0.216218,601175,365412
1480.02,0.222543,597737,358069
1483.19,0.228963,594479,350892
1486.36,0.235738,591232,343574
1489.52,0.240937,587853,337545
1492.68,0.244835,583875,332265
1496.89,0.246909,578062,327390
1500.03,0.247528,574159,324716
1503.18,0.247733,570285,322373
1506.32,0.246682,565444,320411
1509.45,0.245077,560571,318826
1512.58,0.243785,555821,317066
1515.71,0.241375,550344,315689
1519.87,0.238158,543983,314360
1522.99,0.235530,538764,313234
1526.1,0.232898,533692,312171
1529.21,0.229517,527902,311198
1532.32,0.226437,521886,309841
1535.42,0.223613,515888,308278
1538.51,0.220071,509987,307247
1541.6,0.217289,503936,305553
1545.72,0.212999,494694,302927
1548.8,0.209744,488378,301309
1551.88,0.206513,481832,299490
1554.95,0.204545,474989,296578
1558.02,0.202726,467818,293326
1561.08,0.201760,460730,289525
1564.15,0.200663,454170,286125
1568.22,0.200827,444181,279726
1571.27,0.199762,436947,275846
1574.32,0.198695,429598,271874
1577.36,0.196904,422039,268194
1580.4,0.195045,414375,264453
1583.43,0.193687,406354,260146
1586.46,0.192351,398475,255888
1590.49,0.189435,388982,251475
1593.51,0.187356,380708,247307
1596.53,0.184778,372727,243564
1599.54,0.183200,365060,239422
1602.55,0.180805,357543,235789
1605.55,0.178659,349495,231623
1608.55,0.176336,341154,227308
1612.54,0.174534,330877,221377
1615.53,0.172082,322904,217266
1618.51,0.171553,315116,212284
1621.49,0.170084,307217,207664
1624.47,0.168867,299481,203003
1627.44,0.167870,292112,198463
1630.41,0.165887,284245,194002
1634.36,0.164631,274079,187605
1637.32,0.163800,266916,183052
1640.27,0.163342,259612,178231
1643.22,0.163197,251804,172928
1646.16,0.161682,244348,168394
1649.1,0.160540,236703,163555
1652.04,0.159370,228171,158085
1655.95,0.156745,215408,150147
1658.88,0.154635,204937,143544
1661.8,0.148626,193395,137347
1664.72,0.143054,179728,129289
1667.63,0.130934,163642,121049
1670.54,0.119038,146312,111235
1673.44,0.105367,128451,100779
1677.31,0.088357,105080,85736
1680.21,0.079283,88906,74071
1683.1,0.077376,75033,62788
1685.99,0.079660,63520,52875
1688.87,0.079265,53714,44753
1691.75,0.086911,45653,37373
1694.62,0.094856,39137,31458
1697.49,0.097164,33776,27005
1701.31,0.103315,28175,22210