File: samples/wool/wool-000811/Column 1_050548_20150331_115900.csv
Method:,Column 1,,
Host Date-Time:,31/3/15 @ 11:59:0,,
Header Version:,1,,
System Temp (C):,33.17,,
Detector Temp (C):,31.88,,
Humidity (%):,2.34,,
Lamp PD:,3822,,
Shift Vector Coefficients:,-10.5391,0.0761263,-0.000134223,,
Pixel to Wavelength Coefficients:,1775.68,-0.916766,-0.000235065,,
Serial Number:,5510004,,
Scan Config Name:,Column 1,,
Scan Config Type:,Slew,,
Section 1,,
Start wavelength (nm):,900,,
End wavelength (nm):,1700,,
Pattern Pixel Width (nm):,   7.03,,,,
Exposure (ms):,  0.635,,,,
Digital Resolution:,228,,
Num Repeats:,6,,
PGA Gain:,64,,
Total Measurement Time in sec:,  2.680,,
Wavelength (nm),Absorbance (AU),Reference Signal (unitless),Sample Signal (unitless)
901.51,0.047150,108485,97324
905.376,0.051396,121306,107767
909.237,0.053531,131909,116612
913.095,0.054599,143299,126370
916.948,0.055493,156982,138152
922.079,0.054880,179937,158577
925.923,0.055760,200504,176345
929.762,0.056962,222660,195290
933.597,0.057719,244426,214007
937.427,0.057641,263972,231162
941.254,0.056542,281845,247439
945.076,0.056021,297271,261295
950.165,0.056509,315605,277099
953.978,0.055810,328029,288471
957.786,0.056143,340470,299182
961.59,0.057249,352317,308805
965.389,0.057436,363056,318081
969.185,0.057196,373162,327116
972.976,0.058080,382632,334735
976.763,0.058146,391202,342180
981.806,0.059029,400190,349331
985.583,0.059388,406088,354187
989.355,0.059696,410162,357486
993.124,0.060422,412868,359244
996.888,0.060923,414263,360042
1000.65,0.061955,415476,360239
1004.4,0.062824,415479,359522
1009.41,0.064839,414358,356892
1013.15,0.064865,412923,355635
1016.89,0.064829,411526,354461
1020.63,0.065412,409066,351869
1024.36,0.065172,406777,350094
1028.09,0.064872,404427,348312
1031.82,0.064824,401911,346183
1036.78,0.063673,398410,344078
1040.49,0.063559,396204,342263
1044.2,0.062741,394236,341205
1047.91,0.062135,392042,339780
1051.61,0.061833,389823,338092
1055.31,0.060941,388234,337406
1059,0.060222,387599,337412
1063.92,0.058700,386688,337801
1067.61,0.057970,386598,338290
1071.29,0.057384,387377,339430
1074.96,0.057206,388536,340585
1078.63,0.055923,389855,342752
1082.3,0.054544,391215,345042
1085.96,0.054471,393215,346864
1090.84,0.053230,396270,350559
1094.49,0.052797,398760,353114
1098.14,0.052707,400987,355159
1101.79,0.052534,403477,357507
1105.43,0.052561,406116,359823
1109.06,0.051636,407701,361998
1112.7,0.051273,409859,364218
1117.53,0.051672,412494,366223
1121.15,0.052287,414909,367846
1124.77,0.053516,416559,368265
1128.38,0.054452,418532,369213
1131.99,0.056646,419956,368602
1135.6,0.057698,421946,369453
1139.2,0.059383,423881,369710
1143.99,0.062924,426786,369221
1147.58,0.064113,428617,369791
1151.17,0.065664,431169,370667
1154.75,0.067021,433579,371576
1158.33,0.068204,436264,372860
1161.91,0.071367,439132,372587
1165.48,0.073581,442389,373442
1169.04,0.076925,446101,373687
1173.79,0.081062,451929,374980
1177.34,0.083790,456026,376010
1180.9,0.086533,461306,377969
1184.44,0.088169,467657,381732
1187.99,0.089640,473969,385576
1191.52,0.089164,479856,390793
1195.06,0.088296,487372,397708
1199.76,0.087012,497347,407050
1203.29,0.085512,504311,414177
1206.81,0.084337,511507,421225
1210.33,0.083013,519078,428765
1213.84,0.082345,527163,436114
1217.35,0.080983,534208,443330
1220.85,0.080411,540472,449120
1225.51,0.078302,549929,459203
1229.01,0.078100,556888,465230
1232.5,0.076729,562180,471136
1235.98,0.076105,567975,476677
1239.46,0.074940,574815,483713
1242.94,0.073742,582782,491772
1246.41,0.072923,591476,500051
1251.03,0.072730,604016,510879
1254.5,0.072596,612289,518037
1257.96,0.072703,619125,523691
1261.41,0.073485,624551,527330
1264.86,0.074217,629900,530951
1268.31,0.074859,634345,533908
1271.75,0.075535,638574,536632
1276.33,0.076000,642499,539352
1279.76,0.076127,645905,542053
1283.19,0.075117,648307,545336
1286.61,0.074627,650446,547752
1290.03,0.074603,652132,549203
1293.44,0.073863,653907,551637
1296.85,0.073817,655963,553430
1301.39,0.073395,657349,555138
1304.8,0.073236,657558,555518
1308.19,0.073480,658515,556014
1311.58,0.073448,658804,556299
1314.97,0.074347,659011,555323
1318.36,0.074826,658272,554089
1321.73,0.075062,658022,553577
1326.23,0.076181,657870,552026
1329.6,0.077200,656482,549570
1332.97,0.078337,654926,546834
1336.33,0.079245,653727,544693
1339.69,0.081564,652497,540772
1343.04,0.083336,649913,536437
1346.39,0.085668,647671,531724
1349.73,0.088074,645338,526882
1354.18,0.091665,641175,519172
1357.52,0.094207,638376,513889
1360.85,0.096608,635805,508998
1364.17,0.099125,633413,504152
1367.49,0.101881,631026,499075
1370.81,0.104620,628050,493599
1374.12,0.107022,625034,488519
1378.54,0.110992,620272,480386
1381.84,0.114857,616892,473535
1385.14,0.119400,613613,466117
1388.43,0.124019,611526,459617
1391.72,0.129619,610663,453088
1395.01,0.135338,610634,447139
1398.29,0.141156,611700,441960
1402.66,0.149379,614051,435337
1405.93,0.155560,616268,430734
1409.2,0.161747,617795,425694
1412.46,0.167872,618872,420464
1415.72,0.172526,619795,416603
1418.98,0.177116,620495,412688
1422.23,0.180663,621087,409722
1426.56,0.185827,621375,405067
1429.8,0.188336,621616,402890
1433.04,0.191542,622129,400257
1436.27,0.194006,621526,397606
1439.5,0.196012,621113,395511
1442.72,0.198800,620921,392859
1445.94,0.201051,620270,390418
1450.23,0.205443,618860,385611
1453.44,0.208514,617697,382174
1456.64,0.211312,616264,378839
1459.85,0.214296,614413,375115
1463.04,0.216587,612307,371862
1466.24,0.219775,610032,367771
1469.43,0.223123,607345,363339
1473.67,0.228580,603789,356702
1476.85,0.234266,601175,350538
1480.02,0.240351,597737,343684
1483.19,0.246918,594479,336681
1486.36,0.252669,591232,330437
1489.52,0.258026,587853,324521
1492.68,0.262122,583875,319299
1496.89,0.264757,578062,314208
1500.03,0.265385,574159,311636
1503.18,0.265803,570285,309235
1506.32,0.265053,565444,307140
1509.45,0.264517,560571,304869
1512.58,0.262885,555821,303424
1515.71,0.261057,550344,301701
1519.87,0.257741,543983,300500
1522.99,0.255160,538764,299391
1526.1,0.252616,533692,298315
1529.21,0.248925,527902,297597
1532.32,0.245780,521886,296344
1535.42,0.242557,515888,295120
1538.51,0.238964,509987,294168
1541.6,0.235975,503936,292685
1545.72,0.231050,494694,290594
1548.8,0.227346,488378,289341
1551.88,0.224791,481832,287147
1554.95,0.221970,474989,284914
1558.02,0.220779,467818,281383
1561.08,0.218356,460730,278670
1564.15,0.218440,454170,274649
1568.22,0.216946,444181,269534
1571.27,0.217265,436947,264950
1574.32,0.215647,429598,261466
1577.36,0.213398,422039,258199
1580.4,0.212262,414375,254174
1583.43,0.210577,406354,250223
1586.46,0.208299,398475,246662
1590.49,0.206425,388982,241827
1593.51,0.204251,380708,237871
1596.53,0.201267,372727,234490
1599.54,0.198878,365060,230933
1602.55,0.196742,357543,227293
1605.55,0.194603,349495,223274
1608.55,0.192171,341154,219169
1612.54,0.189241,330877,214006
1615.53,0.187059,322904,209901
1618.51,0.186299,315116,205197
1621.49,0.184359,307217,200949
1624.47,0.182947,299481,196527
1627.44,0.181141,292112,192490
1630.41,0.179551,284245,187993
1634.36,0.179016,274079,181493
1637.32,0.178051,266916,177143
1640.27,0.175897,259612,173152
1643.22,0.174208,251804,168599
1646.16,0.174149,244348,163629
1649.1,0.173411,236703,158779
1652.04,0.170311,228171,154152
1655.95,0.170515,215408,145461
1658.88,0.166256,204937,139754
1661.8,0.163948,193395,132586
1664.72,0.160221,179728,124278
1667.63,0.152819,163642,115100
1670.54,0.145130,146312,104749
1673.44,0.136845,128451,93733
1677.31,0.127492,105080,78348
1680.21,0.124090,88906,66810
1683.1,0.125949,75033,56144
1685.99,0.130157,63520,47071
1688.87,0.136447,53714,39232
1691.75,0.137900,45653,33233
1694.62,0.143835,39137,28103
1697.49,0.142466,33776,24330
1701.31,0.154165,28175,19756