File: samples/wool/wool-000811/Column 1_050544_20150331_115658.csv
Method:,Column 1,,
Host Date-Time:,31/3/15 @ 11:56:58,,
Header Version:,1,,
System Temp (C):,32.76,,
Detector Temp (C):,31.22,,
Humidity (%):,2.64,,
Lamp PD:,3823,,
Shift Vector Coefficients:,-10.5391,0.0761263,-0.000134223,,
Pixel to Wavelength Coefficients:,1775.68,-0.916766,-0.000235065,,
Serial Number:,5510004,,
Scan Config Name:,Column 1,,
Scan Config Type:,Slew,,
Section 1,,
Start wavelength (nm):,900,,
End wavelength (nm):,1700,,
Pattern Pixel Width (nm):,   7.03,,,,
Exposure (ms):,  0.635,,,,
Digital Resolution:,228,,
Num Repeats:,6,,
PGA Gain:,64,,
Total Measurement Time in sec:,  2.686,,
Wavelength (nm),Absorbance (AU),Reference Signal (unitless),Sample Signal (unitless)
901.51,0.044392,108485,97944
905.376,0.050294,121306,108041
909.237,0.053766,131909,116549
913.095,0.051664,143299,127227
916.948,0.052045,156982,139253
922.079,0.053718,179937,159002
925.923,0.053696,200504,177185
929.762,0.054273,222660,196503
933.597,0.055551,244426,215078
937.427,0.054467,263972,232858
941.254,0.054483,281845,248615
945.076,0.053481,297271,262828
950.165,0.054166,315605,278598
953.978,0.054058,328029,289637
957.786,0.054208,340470,300518
961.59,0.055471,352317,310072
965.389,0.054963,363056,319897
969.185,0.055416,373162,328459
972.976,0.055547,382632,336693
976.763,0.056541,391202,343447
981.806,0.056939,400190,351016
985.583,0.057331,406088,355868
989.355,0.058076,410162,358822
993.124,0.059171,412868,360280
996.888,0.059039,414263,361607
1000.65,0.060346,415476,361576
1004.4,0.060842,415479,361166
1009.41,0.062591,414358,358744
1013.15,0.063043,412923,357130
1016.89,0.063653,411526,355422
1020.63,0.063649,409066,353301
1024.36,0.063600,406777,351363
1028.09,0.063455,404427,349450
1031.82,0.062312,401911,348191
1036.78,0.062389,398410,345097
1040.49,0.061573,396204,343832
1044.2,0.061224,394236,342399
1047.91,0.060167,392042,341323
1051.61,0.059792,389823,339684
1055.31,0.059314,388234,338672
1059,0.058598,387599,338676
1063.92,0.057363,386688,338842
1067.61,0.056177,386598,339690
1071.29,0.055558,387377,340860
1074.96,0.054920,388536,342382
1078.63,0.053860,389855,344384
1082.3,0.052879,391215,346367
1085.96,0.052864,393215,348150
1090.84,0.051693,396270,351802
1094.49,0.051028,398760,354555
1098.14,0.051269,400987,356337
1101.79,0.050661,403477,359052
1105.43,0.050740,406116,361335
1109.06,0.050133,407701,363253
1112.7,0.050293,409859,365041
1117.53,0.050295,412494,367386
1121.15,0.051148,414909,368812
1124.77,0.052458,416559,369163
1128.38,0.053215,418532,370266
1131.99,0.054704,419956,370254
1135.6,0.056796,421946,370221
1139.2,0.058964,423881,370067
1143.99,0.061409,426786,370511
1147.58,0.062748,428617,370955
1151.17,0.064307,431169,371827
1154.75,0.065570,433579,372819
1158.33,0.066917,436264,373966
1161.91,0.070089,439132,373685
1165.48,0.072390,442389,374468
1169.04,0.075841,446101,374621
1173.79,0.080086,451929,375824
1177.34,0.083266,456026,376464
1180.9,0.085494,461306,378874
1184.44,0.087348,467657,382454
1187.99,0.088086,473969,386958
1191.52,0.087669,479856,392141
1195.06,0.086872,487372,399014
1199.76,0.085801,497347,408186
1203.29,0.084166,504311,415463
1206.81,0.082941,511507,422582
1210.33,0.081956,519078,429810
1213.84,0.080735,527163,437734
1217.35,0.079681,534208,444661
1220.85,0.078631,540472,450964
1225.51,0.077491,549929,460061
1229.01,0.076778,556888,466648
1232.5,0.075810,562180,472134
1235.98,0.075019,567975,477871
1239.46,0.074391,574815,484325
1242.94,0.072337,582782,493366
1246.41,0.071736,591476,501419
1251.03,0.071516,604016,512310
1254.5,0.071296,612289,519590
1257.96,0.071559,619125,525073
1261.41,0.072725,624551,528254
1264.86,0.072868,629900,532603
1268.31,0.073448,634345,535646
1271.75,0.074299,638574,538161
1276.33,0.074418,642499,541320
1279.76,0.074508,645905,544077
1283.19,0.073724,648307,547088
1286.61,0.073532,650446,549135
1290.03,0.073256,652132,550908
1293.44,0.072723,653907,553087
1296.85,0.072345,655963,555309
1301.39,0.072087,657349,556812
1304.8,0.071967,657558,557143
1308.19,0.072627,658515,557107
1311.58,0.072472,658804,557550
1314.97,0.073356,659011,556592
1318.36,0.074043,658272,555089
1321.73,0.074266,658022,554593
1326.23,0.075205,657870,553268
1329.6,0.076387,656482,550600
1332.97,0.077218,654926,548244
1336.33,0.078922,653727,545098
1339.69,0.080774,652497,541757
1343.04,0.082146,649913,537909
1346.39,0.085192,647671,532307
1349.73,0.087200,645338,527943
1354.18,0.091023,641175,519941
1357.52,0.093712,638376,514475
1360.85,0.095889,635805,509841
1364.17,0.098482,633413,504900
1367.49,0.101064,631026,500015
1370.81,0.103703,628050,494642
1374.12,0.106279,625034,489356
1378.54,0.110604,620272,480815
1381.84,0.114046,616892,474420
1385.14,0.118807,613613,466753
1388.43,0.124228,611526,459396
1391.72,0.129189,610663,453537
1395.01,0.135412,610634,447063
1398.29,0.141706,611700,441400
1402.66,0.149463,614051,435253
1405.93,0.156239,616268,430062
1409.2,0.162911,617795,424554
1412.46,0.168330,618872,420021
1415.72,0.173611,619795,415563
1418.98,0.178300,620495,411565
1422.23,0.182508,621087,407985
1426.56,0.186975,621375,403998
1429.8,0.189926,621616,401417
1433.04,0.193183,622129,398747
1436.27,0.195357,621526,396371
1439.5,0.197945,621113,393755
1442.72,0.200643,620921,391195
1445.94,0.202627,620270,389004
1450.23,0.206619,618860,384568
1453.44,0.209954,617697,380909
1456.64,0.212860,616264,377491
1459.85,0.215461,614413,374110
1463.04,0.218630,612307,370117
1466.24,0.221448,610032,366357
1469.43,0.224669,607345,362048
1473.67,0.229798,603789,355703
1476.85,0.234975,601175,349966
1480.02,0.240532,597737,343541
1483.19,0.247301,594479,336384
1486.36,0.253345,591232,329923
1489.52,0.259004,587853,323791
1492.68,0.262544,583875,318989
1496.89,0.264670,578062,314271
1500.03,0.265691,574159,311416
1503.18,0.265980,570285,309109
1506.32,0.265662,565444,306710
1509.45,0.264358,560571,304981
1512.58,0.263798,555821,302787
1515.71,0.260837,550344,301854
1519.87,0.257586,543983,300607
1522.99,0.254438,538764,299889
1526.1,0.251992,533692,298744
1529.21,0.248716,527902,297740
1532.32,0.245476,521886,296551
1535.42,0.242845,515888,294924
1538.51,0.239729,509987,293650
1541.6,0.235629,503936,292918
1545.72,0.230766,494694,290784
1548.8,0.227454,488378,289269
1551.88,0.225336,481832,286787
1554.95,0.222076,474989,284844
1558.02,0.220762,467818,281394
1561.08,0.219333,460730,278044
1564.15,0.218831,454170,274402
1568.22,0.217000,444181,269501
1571.27,0.216157,436947,265627
1574.32,0.215680,429598,261446
1577.36,0.213795,422039,257963
1580.4,0.211579,414375,254574
1583.43,0.209518,406354,250834
1586.46,0.209106,398475,246204
1590.49,0.206285,388982,241905
1593.51,0.203807,380708,238114
1596.53,0.201528,372727,234349
1599.54,0.198720,365060,231017
1602.55,0.196397,357543,227474
1605.55,0.194224,349495,223469
1608.55,0.191603,341154,219456
1612.54,0.189172,330877,214040
1615.53,0.186185,322904,210324
1618.51,0.185101,315116,205764
1621.49,0.184327,307217,200964
1624.47,0.182463,299481,196746
1627.44,0.182370,292112,191946
1630.41,0.178658,284245,188380
1634.36,0.177354,274079,182189
1637.32,0.176484,266916,177783
1640.27,0.175975,259612,173121
1643.22,0.175330,251804,168164
1646.16,0.173984,244348,163691
1649.1,0.174929,236703,158225
1652.04,0.173336,228171,153082
1655.95,0.171397,215408,145166
1658.88,0.169153,204937,138825
1661.8,0.166843,193395,131705
1664.72,0.163016,179728,123481
1667.63,0.156876,163642,114030
1670.54,0.148978,146312,103825
1673.44,0.143225,128451,92366
1677.31,0.136906,105080,76668
1680.21,0.135263,88906,65113
1683.1,0.133975,75033,55116
1685.99,0.146295,63520,45354
1688.87,0.148013,53714,38201
1691.75,0.152937,45653,32102
1694.62,0.155932,39137,27331
1697.49,0.153933,33776,23696
1701.31,0.162488,28175,19381