File: samples/wool/wool-000811/Column 1_050557_20150331_120316.csv
Method:,Column 1,,
Host Date-Time:,31/3/15 @ 12:3:16,,
Header Version:,1,,
System Temp (C):,33.55,,
Detector Temp (C):,32.86,,
Humidity (%):,2.25,,
Lamp PD:,3820,,
Shift Vector Coefficients:,-10.5391,0.0761263,-0.000134223,,
Pixel to Wavelength Coefficients:,1775.68,-0.916766,-0.000235065,,
Serial Number:,5510004,,
Scan Config Name:,Column 1,,
Scan Config Type:,Slew,,
Section 1,,
Start wavelength (nm):,900,,
End wavelength (nm):,1700,,
Pattern Pixel Width (nm):,   7.03,,,,
Exposure (ms):,  0.635,,,,
Digital Resolution:,228,,
Num Repeats:,6,,
PGA Gain:,64,,
Total Measurement Time in sec:,  2.674,,
Wavelength (nm),Absorbance (AU),Reference Signal (unitless),Sample Signal (unitless)
901.51,0.035205,108485,100038
905.376,0.040925,121306,110397
909.237,0.042859,131909,119513
913.095,0.043474,143299,129649
916.948,0.043112,156982,142147
922.079,0.045067,179937,162201
925.923,0.046318,200504,180221
929.762,0.047484,222660,199599
933.597,0.046565,244426,219575
937.427,0.047117,263972,236832
941.254,0.047079,281845,252890
945.076,0.046477,297271,267101
950.165,0.045819,315605,284004
953.978,0.045725,328029,295248
957.786,0.046008,340470,306246
961.59,0.046564,352317,316497
965.389,0.046271,363056,326364
969.185,0.046862,373162,334993
972.976,0.047828,382632,342731
976.763,0.047427,391202,350731
981.806,0.049114,400190,357398
985.583,0.049426,406088,362405
989.355,0.049276,410162,366167
993.124,0.050452,412868,367586
996.888,0.050969,414263,368389
1000.65,0.051028,415476,369418
1004.4,0.052247,415479,368385
1009.41,0.054276,414358,365679
1013.15,0.055021,412923,363788
1016.89,0.054853,411526,362697
1020.63,0.054689,409066,360665
1024.36,0.055170,406777,358250
1028.09,0.054623,404427,356629
1031.82,0.054243,401911,354721
1036.78,0.054404,398410,351501
1040.49,0.053344,396204,350409
1044.2,0.053732,394236,348357
1047.91,0.053260,392042,346795
1051.61,0.052187,389823,345685
1055.31,0.052148,388234,344307
1059,0.051364,387599,344365
1063.92,0.050364,386688,344347
1067.61,0.049296,386598,345115
1071.29,0.049123,387377,345948
1074.96,0.048170,388536,347745
1078.63,0.048014,389855,349051
1082.3,0.047037,391215,351058
1085.96,0.046892,393215,352970
1090.84,0.045655,396270,356727
1094.49,0.045484,398760,359110
1098.14,0.045161,400987,361384
1101.79,0.045292,403477,363519
1105.43,0.044619,406116,366464
1109.06,0.044585,407701,367923
1112.7,0.044439,409859,369995
1117.53,0.044006,412494,372745
1121.15,0.045188,414909,373908
1124.77,0.045732,416559,374925
1128.38,0.046797,418532,375778
1131.99,0.048235,419956,375810
1135.6,0.050445,421946,375675
1139.2,0.051900,423881,376135
1143.99,0.054319,426786,376609
1147.58,0.055445,428617,377246
1151.17,0.057215,431169,377948
1154.75,0.058594,433579,378856
1158.33,0.059829,436264,380120
1161.91,0.062307,439132,380442
1165.48,0.064632,442389,381217
1169.04,0.067246,446101,382109
1173.79,0.070419,451929,384283
1177.34,0.073274,456026,385226
1180.9,0.075596,461306,387608
1184.44,0.077599,467657,391137
1187.99,0.078308,473969,395769
1191.52,0.078127,479856,400852
1195.06,0.077515,487372,407705
1199.76,0.076886,497347,416652
1203.29,0.075611,504311,423728
1206.81,0.074838,511507,430540
1210.33,0.073873,519078,437885
1213.84,0.072909,527163,445693
1217.35,0.072773,534208,451791
1220.85,0.071875,540472,458034
1225.51,0.071040,549929,466946
1229.01,0.070170,556888,473803
1232.5,0.070072,562180,478413
1235.98,0.069022,567975,484515
1239.46,0.067713,574815,491830
1242.94,0.067164,582782,499278
1246.41,0.066461,591476,507547
1251.03,0.066198,604016,518621
1254.5,0.066597,612289,525242
1257.96,0.066660,619125,531029
1261.41,0.067255,624551,534950
1264.86,0.067876,629900,538760
1268.31,0.068386,634345,541925
1271.75,0.069409,638574,544255
1276.33,0.069879,642499,547008
1279.76,0.069778,645905,550036
1283.19,0.069083,648307,552965
1286.61,0.068488,650446,555550
1290.03,0.068363,652132,557150
1293.44,0.067686,653907,559538
1296.85,0.067350,655963,561732
1301.39,0.067278,657349,563012
1304.8,0.067386,657558,563052
1308.19,0.067878,658515,563232
1311.58,0.068000,658804,563322
1314.97,0.068238,659011,563190
1318.36,0.068962,658272,561621
1321.73,0.069350,658022,560906
1326.23,0.070321,657870,559525
1329.6,0.071471,656482,556868
1332.97,0.072594,654926,554113
1336.33,0.073547,653727,551886
1339.69,0.075632,652497,548210
1343.04,0.077381,649913,543844
1346.39,0.079624,647671,539176
1349.73,0.082021,645338,534277
1354.18,0.084979,641175,527227
1357.52,0.087193,638376,522256
1360.85,0.089422,635805,517490
1364.17,0.091436,633413,513158
1367.49,0.093910,631026,508320
1370.81,0.096540,628050,502868
1374.12,0.099073,625034,497543
1378.54,0.102542,620272,489824
1381.84,0.106293,616892,482965
1385.14,0.110221,613613,476073
1388.43,0.114574,611526,469722
1391.72,0.119759,610663,463492
1395.01,0.124832,610634,458088
1398.29,0.130804,611700,452621
1402.66,0.138560,614051,446318
1405.93,0.144459,616268,441886
1409.2,0.150803,617795,436557
1412.46,0.156301,618872,431817
1415.72,0.160254,619795,428543
1418.98,0.164740,620495,424618
1422.23,0.169062,621087,420814
1426.56,0.173193,621375,417024
1429.8,0.176210,621616,414297
1433.04,0.178658,622129,412309
1436.27,0.181370,621526,409345
1439.5,0.183352,621113,407210
1442.72,0.185838,620921,404761
1445.94,0.188475,620270,401889
1450.23,0.192203,618860,397548
1453.44,0.195305,617697,393977
1456.64,0.197792,616264,390818
1459.85,0.200532,614413,387194
1463.04,0.203818,612307,382958
1466.24,0.207313,610032,378477
1469.43,0.209935,607345,374542
1473.67,0.216199,603789,367017
1476.85,0.221100,601175,361327
1480.02,0.227164,597737,354280
1483.19,0.233343,594479,347371
1486.36,0.239294,591232,340772
1489.52,0.244024,587853,335154
1492.68,0.247246,583875,330426
1496.89,0.249744,578062,325260
1500.03,0.250741,574159,322323
1503.18,0.250574,570285,320271
1506.32,0.249882,565444,318059
1509.45,0.247925,560571,316742
1512.58,0.246252,555821,315270
1515.71,0.244728,550344,313261
1519.87,0.240905,543983,312378
1522.99,0.238074,538764,311404
1526.1,0.235610,533692,310228
1529.21,0.232216,527902,309270
1532.32,0.230331,521886,307075
1535.42,0.226896,515888,305956
1538.51,0.223724,509987,304674
1541.6,0.221060,503936,302911
1545.72,0.216067,494694,300794
1548.8,0.213232,488378,298899
1551.88,0.210442,481832,296793
1554.95,0.207887,474989,294304
1558.02,0.206235,467818,290966
1561.08,0.205138,460730,287282
1564.15,0.205263,454170,283110
1568.22,0.203736,444181,277859
1571.27,0.202380,436947,274188
1574.32,0.201396,429598,270188
1577.36,0.200446,422039,266015
1580.4,0.199024,414375,262041
1583.43,0.197510,406354,257866
1586.46,0.194877,398475,254404
1590.49,0.192567,388982,249668
1593.51,0.190725,380708,245396
1596.53,0.187886,372727,241827
1599.54,0.185992,365060,237888
1602.55,0.183968,357543,234078
1605.55,0.181534,349495,230095
1608.55,0.179296,341154,225764
1612.54,0.176820,330877,220215
1615.53,0.174178,322904,216220
1618.51,0.174658,315116,210772
1621.49,0.174306,307217,205655
1624.47,0.172206,299481,201448
1627.44,0.170709,292112,197170
1630.41,0.169883,284245,192225
1634.36,0.167330,274079,186443
1637.32,0.165824,266916,182201
1640.27,0.165425,259612,177378
1643.22,0.165128,251804,172161
1646.16,0.164414,244348,167338
1649.1,0.164552,236703,162051
1652.04,0.162925,228171,156796
1655.95,0.160108,215408,148989
1658.88,0.157388,204937,142637
1661.8,0.153798,193395,135721
1664.72,0.148316,179728,127732
1667.63,0.139148,163642,118781
1670.54,0.130010,146312,108460
1673.44,0.116330,128451,98267
1677.31,0.105783,105080,82364
1680.21,0.096305,88906,71224
1683.1,0.097224,75033,59983
1685.99,0.103168,63520,50089
1688.87,0.108257,53714,41863
1691.75,0.113927,45653,35119
1694.62,0.118546,39137,29788
1697.49,0.121762,33776,25518
1701.31,0.131133,28175,20832