File: samples/wool/wool-000811/Column 1_050605_20150331_122604.csv
Method:,Column 1,,
Host Date-Time:,31/3/15 @ 12:26:4,,
Header Version:,1,,
System Temp (C):,34.02,,
Detector Temp (C):,34.87,,
Humidity (%):,1.66,,
Lamp PD:,3818,,
Shift Vector Coefficients:,-10.5391,0.0761263,-0.000134223,,
Pixel to Wavelength Coefficients:,1775.68,-0.916766,-0.000235065,,
Serial Number:,5510004,,
Scan Config Name:,Column 1,,
Scan Config Type:,Slew,,
Section 1,,
Start wavelength (nm):,900,,
End wavelength (nm):,1700,,
Pattern Pixel Width (nm):,   7.03,,,,
Exposure (ms):,  0.635,,,,
Digital Resolution:,228,,
Num Repeats:,6,,
PGA Gain:,64,,
Total Measurement Time in sec:,  2.677,,
Wavelength (nm),Absorbance (AU),Reference Signal (unitless),Sample Signal (unitless)
901.51,0.067508,108485,92867
905.376,0.072985,121306,102541
909.237,0.074107,131909,111216
913.095,0.076769,143299,120081
916.948,0.076373,156982,131667
922.079,0.078650,179937,150131
925.923,0.080266,200504,166670
929.762,0.081667,222660,184491
933.597,0.080887,244426,202890
937.427,0.079688,263972,219720
941.254,0.079536,281845,234679
945.076,0.078155,297271,248312
950.165,0.077779,315605,263855
953.978,0.076191,328029,275246
957.786,0.077356,340470,284920
961.59,0.076910,352317,295137
965.389,0.076890,363056,304147
969.185,0.077184,373162,312402
972.976,0.077794,382632,319880
976.763,0.078280,391202,326679
981.806,0.078300,400190,334169
985.583,0.079357,406088,338270
989.355,0.078928,410162,342001
993.124,0.080194,412868,343255
996.888,0.080368,414263,344277
1000.65,0.080926,415476,344842
1004.4,0.082348,415479,343717
1009.41,0.082535,414358,342642
1013.15,0.083664,412923,340569
1016.89,0.084497,411526,338766
1020.63,0.084393,409066,336822
1024.36,0.084054,406777,335199
1028.09,0.083591,404427,333618
1031.82,0.084154,401911,331113
1036.78,0.083067,398410,329051
1040.49,0.083323,396204,327036
1044.2,0.082853,394236,325764
1047.91,0.082867,392042,323941
1051.61,0.082692,389823,322237
1055.31,0.082256,388234,321246
1059,0.081319,387599,321413
1063.92,0.080711,386688,321107
1067.61,0.080172,386598,321431
1071.29,0.079752,387377,322390
1074.96,0.079228,388536,323745
1078.63,0.078666,389855,325265
1082.3,0.078191,391215,326757
1085.96,0.076834,393215,329455
1090.84,0.076266,396270,332449
1094.49,0.075478,398760,335146
1098.14,0.075245,400987,337198
1101.79,0.074558,403477,339829
1105.43,0.074594,406116,342024
1109.06,0.073627,407701,344124
1112.7,0.073207,409859,346280
1117.53,0.072885,412494,348765
1121.15,0.073597,414909,350232
1124.77,0.073717,416559,351528
1128.38,0.074370,418532,352662
1131.99,0.075694,419956,352785
1135.6,0.077492,421946,352992
1139.2,0.078080,423881,354131
1143.99,0.080552,426786,354534
1147.58,0.080718,428617,355919
1151.17,0.081582,431169,357327
1154.75,0.082692,433579,358407
1158.33,0.084459,436264,359162
1161.91,0.086024,439132,360223
1165.48,0.088327,442389,360975
1169.04,0.090522,446101,362169
1173.79,0.093475,451929,364414
1177.34,0.095283,456026,366190
1180.9,0.097997,461306,368122
1184.44,0.099816,467657,371631
1187.99,0.100915,473969,375695
1191.52,0.100783,479856,380477
1195.06,0.100502,487372,386686
1199.76,0.100371,497347,394719
1203.29,0.099070,504311,401447
1206.81,0.099230,511507,407025
1210.33,0.098296,519078,413939
1213.84,0.098129,527163,420548
1217.35,0.097292,534208,426991
1220.85,0.096277,540472,433008
1225.51,0.095418,549929,441457
1229.01,0.095294,556888,447171
1232.5,0.094659,562180,452081
1235.98,0.093921,567975,457518
1239.46,0.093074,574815,463932
1242.94,0.092097,582782,471421
1246.41,0.091489,591476,479124
1251.03,0.090713,604016,490157
1254.5,0.091303,612289,496196
1257.96,0.091879,619125,501071
1261.41,0.092800,624551,504392
1264.86,0.092805,629900,508706
1268.31,0.093505,634345,511471
1271.75,0.094042,638574,514244
1276.33,0.094411,642499,516965
1279.76,0.094185,645905,519976
1283.19,0.093551,648307,522672
1286.61,0.093333,650446,524660
1290.03,0.093267,652132,526100
1293.44,0.092636,653907,528299
1296.85,0.092223,655963,530465
1301.39,0.092228,657349,531579
1304.8,0.092243,657558,531730
1308.19,0.092515,658515,532170
1311.58,0.092210,658804,532778
1314.97,0.092906,659011,532092
1318.36,0.092717,658272,531727
1321.73,0.093361,658022,530737
1326.23,0.094053,657870,529770
1329.6,0.094940,656482,527573
1332.97,0.096040,654926,524992
1336.33,0.097012,653727,522859
1339.69,0.098336,652497,520286
1343.04,0.099552,649913,516777
1346.39,0.101569,647671,512608
1349.73,0.103534,645338,508456
1354.18,0.106445,641175,501801
1357.52,0.108639,638376,497093
1360.85,0.110761,635805,492678
1364.17,0.112615,633413,488733
1367.49,0.114738,631026,484517
1370.81,0.116492,628050,480289
1374.12,0.119118,625034,475101
1378.54,0.121800,620272,468578
1381.84,0.124628,616892,463000
1385.14,0.127781,613613,457208
1388.43,0.131500,611526,451767
1391.72,0.135803,610663,446682
1395.01,0.140124,610634,442239
1398.29,0.144049,611700,439025
1402.66,0.150380,614051,434335
1405.93,0.155960,616268,430338
1409.2,0.160157,617795,427255
1412.46,0.164489,618872,423752
1415.72,0.168515,619795,420468
1418.98,0.171956,620495,417621
1422.23,0.175097,621087,415007
1426.56,0.179444,621375,411064
1429.8,0.181676,621616,409116
1433.04,0.184607,622129,406699
1436.27,0.186276,621526,404747
1439.5,0.188790,621113,402143
1442.72,0.190691,620921,400263
1445.94,0.193488,620270,397276
1450.23,0.196523,618860,393613
1453.44,0.199748,617697,389967
1456.64,0.202973,616264,386184
1459.85,0.205486,614413,382802
1463.04,0.208088,612307,379211
1466.24,0.211423,610032,374912
1469.43,0.215137,607345,370082
1473.67,0.221054,603789,362937
1476.85,0.226805,601175,356612
1480.02,0.232318,597737,350100
1483.19,0.238966,594479,342902
1486.36,0.244296,591232,336870
1489.52,0.249698,587853,330804
1492.68,0.253032,583875,326053
1496.89,0.254858,578062,321452
1500.03,0.256110,574159,318363
1503.18,0.255901,570285,316367
1506.32,0.255067,565444,314284
1509.45,0.253728,560571,312538
1512.58,0.251736,555821,311314
1515.71,0.249348,550344,309946
1519.87,0.246465,543983,308404
1522.99,0.243850,538764,307290
1526.1,0.241142,533692,306301
1529.21,0.238695,527902,304690
1532.32,0.236189,521886,302961
1535.42,0.232809,515888,301819
1538.51,0.230005,509987,300299
1541.6,0.226460,503936,299168
1545.72,0.222807,494694,296162
1548.8,0.220325,488378,294057
1551.88,0.217550,481832,291975
1554.95,0.215856,474989,288953
1558.02,0.214810,467818,285277
1561.08,0.213826,460730,281592
1564.15,0.213222,454170,277969
1568.22,0.211701,444181,272809
1571.27,0.211329,436947,268596
1574.32,0.210752,429598,264430
1577.36,0.208699,422039,261008
1580.4,0.207388,414375,257043
1583.43,0.206607,406354,252521
1586.46,0.204741,398475,248691
1590.49,0.202985,388982,243750
1593.51,0.201056,380708,239627
1596.53,0.198807,372727,235822
1599.54,0.197566,365060,231632
1602.55,0.195352,357543,228022
1605.55,0.193748,349495,223714
1608.55,0.191067,341154,219727
1612.54,0.189131,330877,214060
1615.53,0.186732,322904,210059
1618.51,0.186168,315116,205259
1621.49,0.184057,307217,201089
1624.47,0.184133,299481,195991
1627.44,0.182850,292112,191734
1630.41,0.181306,284245,187235
1634.36,0.180797,274079,180750
1637.32,0.180103,266916,176308
1640.27,0.179906,259612,171561
1643.22,0.178221,251804,167048
1646.16,0.178566,244348,161973
1649.1,0.177721,236703,157211
1652.04,0.175150,228171,152444
1655.95,0.172304,215408,144863
1658.88,0.169588,204937,138686
1661.8,0.164098,193395,132540
1664.72,0.154590,179728,125900
1667.63,0.143170,163642,117686
1670.54,0.127933,146312,108980
1673.44,0.111063,128451,99466
1677.31,0.090892,105080,85237
1680.21,0.077621,88906,74355
1683.1,0.077867,75033,62717
1685.99,0.074313,63520,53530
1688.87,0.075786,53714,45113
1691.75,0.079080,45653,38053
1694.62,0.082686,39137,32352
1697.49,0.088408,33776,27555
1701.31,0.093169,28175,22735