File: samples/wool/wool-000811/Column 1_050603_20150331_122503.csv
Method:,Column 1,,
Host Date-Time:,31/3/15 @ 12:25:3,,
Header Version:,1,,
System Temp (C):,34,,
Detector Temp (C):,34.84,,
Humidity (%):,1.71,,
Lamp PD:,3818,,
Shift Vector Coefficients:,-10.5391,0.0761263,-0.000134223,,
Pixel to Wavelength Coefficients:,1775.68,-0.916766,-0.000235065,,
Serial Number:,5510004,,
Scan Config Name:,Column 1,,
Scan Config Type:,Slew,,
Section 1,,
Start wavelength (nm):,900,,
End wavelength (nm):,1700,,
Pattern Pixel Width (nm):,   7.03,,,,
Exposure (ms):,  0.635,,,,
Digital Resolution:,228,,
Num Repeats:,6,,
PGA Gain:,64,,
Total Measurement Time in sec:,  2.717,,
Wavelength (nm),Absorbance (AU),Reference Signal (unitless),Sample Signal (unitless)
901.51,0.067064,108485,92962
905.376,0.076403,121306,101737
909.237,0.075778,131909,110789
913.095,0.075840,143299,120338
916.948,0.079923,156982,130595
922.079,0.079333,179937,149895
925.923,0.082638,200504,165762
929.762,0.081749,222660,184456
933.597,0.081570,244426,202571
937.427,0.081528,263972,218791
941.254,0.080557,281845,234128
945.076,0.079444,297271,247576
950.165,0.078452,315605,263446
953.978,0.076948,328029,274767
957.786,0.077902,340470,284562
961.59,0.077663,352317,294626
965.389,0.077829,363056,303490
969.185,0.077345,373162,312286
972.976,0.078571,382632,319308
976.763,0.078454,391202,326548
981.806,0.078861,400190,333738
985.583,0.079817,406088,337912
989.355,0.079427,410162,341608
993.124,0.080802,412868,342775
996.888,0.080777,414263,343953
1000.65,0.082339,415476,343722
1004.4,0.083385,415479,342897
1009.41,0.083806,414358,341641
1013.15,0.084533,412923,339888
1016.89,0.085655,411526,337864
1020.63,0.085036,409066,336324
1024.36,0.084842,406777,334591
1028.09,0.084101,404427,333226
1031.82,0.084469,401911,330873
1036.78,0.083960,398410,328375
1040.49,0.084078,396204,326468
1044.2,0.084045,394236,324871
1047.91,0.083759,392042,323276
1051.61,0.082987,389823,322018
1055.31,0.082653,388234,320952
1059,0.082155,387599,320795
1063.92,0.082049,386688,320119
1067.61,0.081360,386598,320553
1071.29,0.080715,387377,321676
1074.96,0.079890,388536,323252
1078.63,0.079572,389855,324587
1082.3,0.078611,391215,326441
1085.96,0.077141,393215,329222
1090.84,0.077187,396270,331745
1094.49,0.076538,398760,334329
1098.14,0.075977,400987,336630
1101.79,0.075282,403477,339263
1105.43,0.075219,406116,341532
1109.06,0.074473,407701,343454
1112.7,0.073889,409859,345737
1117.53,0.073937,412494,347921
1121.15,0.074324,414909,349646
1124.77,0.074143,416559,351183
1128.38,0.075031,418532,352126
1131.99,0.075987,419956,352547
1135.6,0.077779,421946,352759
1139.2,0.078884,423881,353476
1143.99,0.081409,426786,353835
1147.58,0.082083,428617,354802
1151.17,0.082799,431169,356327
1154.75,0.083662,433579,357607
1158.33,0.084721,436264,358945
1161.91,0.086658,439132,359697
1165.48,0.089155,442389,360288
1169.04,0.091521,446101,361337
1173.79,0.094360,451929,363672
1177.34,0.097063,456026,364692
1180.9,0.098617,461306,367597
1184.44,0.100746,467657,370836
1187.99,0.101283,473969,375376
1191.52,0.101431,479856,379909
1195.06,0.101168,487372,386094
1199.76,0.100729,497347,394394
1203.29,0.100001,504311,400588
1206.81,0.099688,511507,406596
1210.33,0.099005,519078,413264
1213.84,0.098699,527163,419997
1217.35,0.097774,534208,426517
1220.85,0.096505,540472,432781
1225.51,0.096352,549929,440509
1229.01,0.095747,556888,446705
1232.5,0.095434,562180,451275
1235.98,0.094673,567975,456726
1239.46,0.093581,574815,463390
1242.94,0.092767,582782,470694
1246.41,0.092089,591476,478463
1251.03,0.092228,604016,488450
1254.5,0.092349,612289,495003
1257.96,0.092611,619125,500227
1261.41,0.093043,624551,504110
1264.86,0.093323,629900,508099
1268.31,0.094128,634345,510737
1271.75,0.094950,638574,513170
1276.33,0.095352,642499,515847
1279.76,0.095396,645905,518529
1283.19,0.094009,648307,522122
1286.61,0.094235,650446,523572
1290.03,0.093540,652132,525770
1293.44,0.093455,653907,527304
1296.85,0.092726,655963,529850
1301.39,0.092904,657349,530752
1304.8,0.092897,657558,530930
1308.19,0.093072,658515,531488
1311.58,0.092613,658804,532284
1314.97,0.093873,659011,530909
1318.36,0.093994,658272,530165
1321.73,0.094157,658022,529765
1326.23,0.094937,657870,528692
1329.6,0.095600,656482,526772
1332.97,0.097089,654926,523725
1336.33,0.097581,653727,522174
1339.69,0.098798,652497,519733
1343.04,0.100345,649913,515834
1346.39,0.102307,647671,511738
1349.73,0.104410,645338,507431
1354.18,0.107470,641175,500618
1357.52,0.109318,638376,496316
1360.85,0.111465,635805,491880
1364.17,0.113665,633413,487553
1367.49,0.115269,631026,483925
1370.81,0.117647,628050,479013
1374.12,0.120096,625034,474032
1378.54,0.122518,620272,467804
1381.84,0.125673,616892,461887
1385.14,0.129013,613613,455913
1388.43,0.132479,611526,450750
1391.72,0.136653,610663,445809
1395.01,0.140601,610634,441753
1398.29,0.145114,611700,437950
1402.66,0.151366,614051,433350
1405.93,0.156782,616268,429524
1409.2,0.161502,617795,425934
1412.46,0.165594,618872,422675
1415.72,0.170042,619795,418992
1418.98,0.173341,620495,416291
1422.23,0.176545,621087,413626
1426.56,0.180894,621375,409694
1429.8,0.183076,621616,407799
1433.04,0.185554,622129,405813
1436.27,0.187693,621526,403428
1439.5,0.189505,621113,401482
1442.72,0.191960,620921,399095
1445.94,0.194289,620270,396544
1450.23,0.198047,618860,392234
1453.44,0.201070,617697,388781
1456.64,0.203190,616264,385991
1459.85,0.206365,614413,382028
1463.04,0.208972,612307,378440
1466.24,0.212416,610032,374056
1469.43,0.216048,607345,369307
1473.67,0.222614,603789,361636
1476.85,0.227843,601175,355761
1480.02,0.234434,597737,348398
1483.19,0.240333,594479,341825
1486.36,0.245534,591232,335911
1489.52,0.250360,587853,330300
1492.68,0.253842,583875,325445
1496.89,0.255785,578062,320767
1500.03,0.256287,574159,318233
1503.18,0.256164,570285,316175
1506.32,0.255443,565444,314012
1509.45,0.254331,560571,312104
1512.58,0.252676,555821,310641
1515.71,0.250653,550344,309016
1519.87,0.247308,543983,307806
1522.99,0.245216,538764,306325
1526.1,0.242804,533692,305131
1529.21,0.240020,527902,303762
1532.32,0.236747,521886,302572
1535.42,0.234019,515888,300979
1538.51,0.230813,509987,299741
1541.6,0.227568,503936,298406
1545.72,0.223973,494694,295368
1548.8,0.221006,488378,293596
1551.88,0.219579,481832,290614
1554.95,0.216651,474989,288425
1558.02,0.215577,467818,284774
1561.08,0.214339,460730,281260
1564.15,0.213013,454170,278103
1568.22,0.212806,444181,272116
1571.27,0.212294,436947,268000
1574.32,0.211361,429598,264059
1577.36,0.209928,422039,260270
1580.4,0.209296,414375,255916
1583.43,0.207528,406354,251986
1586.46,0.204633,398475,248753
1590.49,0.204742,388982,242766
1593.51,0.201865,380708,239181
1596.53,0.199778,372727,235295
1599.54,0.198431,365060,231171
1602.55,0.195656,357543,227862
1605.55,0.193668,349495,223755
1608.55,0.191579,341154,219468
1612.54,0.190403,330877,213434
1615.53,0.188238,322904,209332
1618.51,0.187609,315116,204579
1621.49,0.185832,307217,200269
1624.47,0.185191,299481,195514
1627.44,0.183778,292112,191325
1630.41,0.182772,284245,186604
1634.36,0.181752,274079,180353
1637.32,0.180746,266916,176047
1640.27,0.180626,259612,171277
1643.22,0.180588,251804,166140
1646.16,0.178563,244348,161974
1649.1,0.178105,236703,157072
1652.04,0.178008,228171,151444
1655.95,0.173866,215408,144343
1658.88,0.170243,204937,138477
1661.8,0.164069,193395,132549
1664.72,0.156866,179728,125242
1667.63,0.145197,163642,117138
1670.54,0.129746,146312,108526
1673.44,0.114293,128451,98729
1677.31,0.095080,105080,84419
1680.21,0.082059,88906,73599
1683.1,0.076816,75033,62869
1685.99,0.075410,63520,53395
1688.87,0.082734,53714,44397
1691.75,0.085068,45653,37532
1694.62,0.087546,39137,31992
1697.49,0.080939,33776,28033
1701.31,0.107599,28175,21992