File: samples/wool/wool-000811/Column 1_050615_20150331_123037.csv
Method:,Column 1,,
Host Date-Time:,31/3/15 @ 12:30:37,,
Header Version:,1,,
System Temp (C):,34.07,,
Detector Temp (C):,34.98,,
Humidity (%):,1.66,,
Lamp PD:,3818,,
Shift Vector Coefficients:,-10.5391,0.0761263,-0.000134223,,
Pixel to Wavelength Coefficients:,1775.68,-0.916766,-0.000235065,,
Serial Number:,5510004,,
Scan Config Name:,Column 1,,
Scan Config Type:,Slew,,
Section 1,,
Start wavelength (nm):,900,,
End wavelength (nm):,1700,,
Pattern Pixel Width (nm):,   7.03,,,,
Exposure (ms):,  0.635,,,,
Digital Resolution:,228,,
Num Repeats:,6,,
PGA Gain:,64,,
Total Measurement Time in sec:,  2.669,,
Wavelength (nm),Absorbance (AU),Reference Signal (unitless),Sample Signal (unitless)
901.51,0.069623,108485,92416
905.376,0.074589,121306,102163
909.237,0.076735,131909,110545
913.095,0.079428,143299,119348
916.948,0.079192,156982,130815
922.079,0.080665,179937,149436
925.923,0.080933,200504,166414
929.762,0.082171,222660,184277
933.597,0.082194,244426,202280
937.427,0.081288,263972,218912
941.254,0.080118,281845,234365
945.076,0.081995,297271,246126
950.165,0.077657,315605,263929
953.978,0.076595,328029,274990
957.786,0.077321,340470,284943
961.59,0.077570,352317,294689
965.389,0.077390,363056,303797
969.185,0.077680,373162,312045
972.976,0.077391,382632,320177
976.763,0.078231,391202,326716
981.806,0.079094,400190,333559
985.583,0.079358,406088,338269
989.355,0.080023,410162,341140
993.124,0.080135,412868,343302
996.888,0.081037,414263,343747
1000.65,0.081408,415476,344459
1004.4,0.082516,415479,343584
1009.41,0.083872,414358,341589
1013.15,0.084428,412923,339970
1016.89,0.084919,411526,338437
1020.63,0.084576,409066,336680
1024.36,0.084806,406777,334619
1028.09,0.084254,404427,333109
1031.82,0.084268,401911,331026
1036.78,0.083729,398410,328550
1040.49,0.083419,396204,326964
1044.2,0.083868,394236,325004
1047.91,0.083739,392042,323291
1051.61,0.083186,389823,321871
1055.31,0.083215,388234,320537
1059,0.081939,387599,320955
1063.92,0.081267,386688,320696
1067.61,0.080383,386598,321275
1071.29,0.080380,387377,321924
1074.96,0.080256,388536,322980
1078.63,0.078725,389855,325221
1082.3,0.078010,391215,326893
1085.96,0.078207,393215,328415
1090.84,0.076437,396270,332318
1094.49,0.075933,398760,334795
1098.14,0.075632,400987,336898
1101.79,0.075147,403477,339369
1105.43,0.074928,406116,341761
1109.06,0.073367,407701,344330
1112.7,0.073944,409859,345693
1117.53,0.073427,412494,348330
1121.15,0.073791,414909,350076
1124.77,0.074021,416559,351282
1128.38,0.074822,418532,352295
1131.99,0.075731,419956,352755
1135.6,0.077456,421946,353021
1139.2,0.078540,423881,353756
1143.99,0.080647,426786,354457
1147.58,0.080995,428617,355692
1151.17,0.082184,431169,356832
1154.75,0.082994,433579,358158
1158.33,0.084763,436264,358911
1161.91,0.086547,439132,359789
1165.48,0.088564,442389,360778
1169.04,0.090400,446101,362271
1173.79,0.093966,451929,364002
1177.34,0.095691,456026,365846
1180.9,0.098106,461306,368030
1184.44,0.099502,467657,371899
1187.99,0.101075,473969,375556
1191.52,0.101325,479856,380002
1195.06,0.100611,487372,386589
1199.76,0.100303,497347,394781
1203.29,0.099430,504311,401115
1206.81,0.098633,511507,407585
1210.33,0.098123,519078,414104
1213.84,0.097884,527163,420786
1217.35,0.097421,534208,426864
1220.85,0.096502,540472,432784
1225.51,0.095824,549929,441045
1229.01,0.095251,556888,447215
1232.5,0.094639,562180,452102
1235.98,0.093803,567975,457642
1239.46,0.092996,574815,464015
1242.94,0.092598,582782,470878
1246.41,0.091011,591476,479652
1251.03,0.091683,604016,489064
1254.5,0.091471,612289,496004
1257.96,0.092272,619125,500618
1261.41,0.092563,624551,504667
1264.86,0.092857,629900,508645
1268.31,0.093593,634345,511367
1271.75,0.094213,638574,514041
1276.33,0.094578,642499,516767
1279.76,0.093928,645905,520284
1283.19,0.094089,648307,522025
1286.61,0.093521,650446,524433
1290.03,0.093003,652132,526420
1293.44,0.092418,653907,528564
1296.85,0.092072,655963,530649
1301.39,0.092204,657349,531609
1304.8,0.092299,657558,531661
1308.19,0.092439,658515,532263
1311.58,0.092175,658804,532821
1314.97,0.092576,659011,532496
1318.36,0.093014,658272,531363
1321.73,0.093361,658022,530737
1326.23,0.094238,657870,529544
1329.6,0.094651,656482,527925
1332.97,0.095409,654926,525755
1336.33,0.096695,653727,523241
1339.69,0.097925,652497,520779
1343.04,0.099557,649913,516771
1346.39,0.101519,647671,512667
1349.73,0.103066,645338,509004
1354.18,0.106288,641175,501982
1357.52,0.108259,638376,497528
1360.85,0.110294,635805,493208
1364.17,0.112411,633413,488963
1367.49,0.114598,631026,484673
1370.81,0.116805,628050,479943
1374.12,0.118769,625034,475483
1378.54,0.121307,620272,469110
1381.84,0.124374,616892,463271
1385.14,0.127513,613613,457490
1388.43,0.130889,611526,452403
1391.72,0.134729,610663,447788
1395.01,0.138623,610634,443770
1398.29,0.143196,611700,439888
1402.66,0.148734,614051,435984
1405.93,0.153944,616268,432340
1409.2,0.158804,617795,428588
1412.46,0.163122,618872,425088
1415.72,0.166758,619795,422173
1418.98,0.170165,620495,419347
1422.23,0.173211,621087,416813
1426.56,0.177368,621375,413034
1429.8,0.179926,621616,410768
1433.04,0.181984,622129,409163
1436.27,0.184098,621526,406782
1439.5,0.186189,621113,404559
1442.72,0.188581,620921,402212
1445.94,0.190814,620270,399730
1450.23,0.194401,618860,395541
1453.44,0.197060,617697,392388
1456.64,0.200615,616264,388286
1459.85,0.203125,614413,384889
1463.04,0.206069,612307,380978
1466.24,0.209770,610032,376342
1469.43,0.213416,607345,371552
1473.67,0.219801,603789,363986
1476.85,0.225471,601175,357709
1480.02,0.231971,597737,350380
1483.19,0.237867,594479,343771
1486.36,0.243833,591232,337229
1489.52,0.249156,587853,331217
1492.68,0.252345,583875,326569
1496.89,0.253740,578062,322281
1500.03,0.255360,574159,318913
1503.18,0.255434,570285,316707
1506.32,0.253838,565444,315175
1509.45,0.252505,560571,313419
1512.58,0.250772,555821,312006
1515.71,0.249424,550344,309892
1519.87,0.245964,543983,308760
1522.99,0.243289,538764,307687
1526.1,0.240604,533692,306681
1529.21,0.238557,527902,304787
1532.32,0.235039,521886,303764
1535.42,0.232226,515888,302224
1538.51,0.228983,509987,301007
1541.6,0.225966,503936,299509
1545.72,0.222400,494694,296440
1548.8,0.219749,488378,294447
1551.88,0.216924,481832,292396
1554.95,0.215460,474989,289217
1558.02,0.213536,467818,286115
1561.08,0.212459,460730,282480
1564.15,0.211407,454170,279133
1568.22,0.211156,444181,273152
1571.27,0.210307,436947,269229
1574.32,0.209567,429598,265152
1577.36,0.208464,422039,261149
1580.4,0.206971,414375,257290
1583.43,0.206066,406354,252836
1586.46,0.204869,398475,248618
1590.49,0.202851,388982,243825
1593.51,0.200567,380708,239897
1596.53,0.198530,372727,235972
1599.54,0.196839,365060,232020
1602.55,0.195072,357543,228169
1605.55,0.192198,349495,224514
1608.55,0.190502,341154,220013
1612.54,0.189927,330877,213668
1615.53,0.187535,322904,209671
1618.51,0.186708,315116,205004
1621.49,0.185335,307217,200498
1624.47,0.184027,299481,196039
1627.44,0.183272,292112,191548
1630.41,0.182972,284245,186518
1634.36,0.180870,274079,180720
1637.32,0.180423,266916,176178
1640.27,0.179544,259612,171704
1643.22,0.178677,251804,166873
1646.16,0.178298,244348,162073
1649.1,0.177194,236703,157402
1652.04,0.175769,228171,152227
1655.95,0.171630,215408,145088
1658.88,0.168403,204937,139065
1661.8,0.162786,193395,132941
1664.72,0.154169,179728,126022
1667.63,0.143462,163642,117607
1670.54,0.127336,146312,109130
1673.44,0.110884,128451,99507
1677.31,0.092715,105080,84880
1680.21,0.077703,88906,74341
1683.1,0.074350,75033,63227
1685.99,0.072766,63520,53721
1688.87,0.075420,53714,45151
1691.75,0.083428,45653,37674
1694.62,0.083076,39137,32323
1697.49,0.084657,33776,27794
1701.31,0.090313,28175,22885