File: samples/wool/wool-000811/Column 1_050547_20150331_115837.csv
Method:,Column 1,,
Host Date-Time:,31/3/15 @ 11:58:37,,
Header Version:,1,,
System Temp (C):,33.1,,
Detector Temp (C):,31.75,,
Humidity (%):,2.34,,
Lamp PD:,3823,,
Shift Vector Coefficients:,-10.5391,0.0761263,-0.000134223,,
Pixel to Wavelength Coefficients:,1775.68,-0.916766,-0.000235065,,
Serial Number:,5510004,,
Scan Config Name:,Column 1,,
Scan Config Type:,Slew,,
Section 1,,
Start wavelength (nm):,900,,
End wavelength (nm):,1700,,
Pattern Pixel Width (nm):,   7.03,,,,
Exposure (ms):,  0.635,,,,
Digital Resolution:,228,,
Num Repeats:,6,,
PGA Gain:,64,,
Total Measurement Time in sec:,  2.672,,
Wavelength (nm),Absorbance (AU),Reference Signal (unitless),Sample Signal (unitless)
901.51,0.044321,108485,97960
905.376,0.051292,121306,107793
909.237,0.052705,131909,116834
913.095,0.054135,143299,126505
916.948,0.053695,156982,138725
922.079,0.054979,179937,158541
925.923,0.055472,200504,176462
929.762,0.055761,222660,195831
933.597,0.056708,244426,214506
937.427,0.056295,263972,231880
941.254,0.055723,281845,247906
945.076,0.055634,297271,261528
950.165,0.055471,315605,277762
953.978,0.054724,328029,289193
957.786,0.055383,340470,299706
961.59,0.055691,352317,309915
965.389,0.056544,363056,318735
969.185,0.056722,373162,327473
972.976,0.057177,382632,335432
976.763,0.057130,391202,342982
981.806,0.058455,400190,349793
985.583,0.058192,406088,355163
989.355,0.059503,410162,357645
993.124,0.059383,412868,360104
996.888,0.060195,414263,360646
1000.65,0.060929,415476,361091
1004.4,0.062178,415479,360057
1009.41,0.063641,414358,357878
1013.15,0.063849,412923,356468
1016.89,0.064279,411526,354910
1020.63,0.063753,409066,353216
1024.36,0.063248,406777,351648
1028.09,0.063775,404427,349193
1031.82,0.063163,401911,347510
1036.78,0.062800,398410,344771
1040.49,0.062394,396204,343182
1044.2,0.061853,394236,341903
1047.91,0.061549,392042,340239
1051.61,0.060700,389823,338975
1055.31,0.059733,388234,338346
1059,0.058884,387599,338453
1063.92,0.057622,386688,338640
1067.61,0.056064,386598,339778
1071.29,0.056618,387377,340029
1074.96,0.055742,388536,341735
1078.63,0.054794,389855,343644
1082.3,0.054078,391215,345412
1085.96,0.053340,393215,347768
1090.84,0.052783,396270,350920
1094.49,0.052181,398760,353615
1098.14,0.051422,400987,356212
1101.79,0.051314,403477,358513
1105.43,0.051094,406116,361041
1109.06,0.051095,407701,362449
1112.7,0.050858,409859,364566
1117.53,0.050387,412494,367308
1121.15,0.051711,414909,368334
1124.77,0.052415,416559,369200
1128.38,0.053651,418532,369894
1131.99,0.054954,419956,370041
1135.6,0.057755,421946,369404
1139.2,0.058961,423881,370069
1143.99,0.062105,426786,369918
1147.58,0.063579,428617,370246
1151.17,0.064981,431169,371250
1154.75,0.066358,433579,372143
1158.33,0.068055,436264,372988
1161.91,0.070221,439132,373572
1165.48,0.072726,442389,374178
1169.04,0.075857,446101,374607
1173.79,0.080730,451929,375267
1177.34,0.083511,456026,376252
1180.9,0.085705,461306,378690
1184.44,0.087552,467657,382275
1187.99,0.088348,473969,386725
1191.52,0.087723,479856,392092
1195.06,0.087440,487372,398493
1199.76,0.085678,497347,408302
1203.29,0.085066,504311,414603
1206.81,0.083752,511507,421793
1210.33,0.082314,519078,429456
1213.84,0.081379,527163,437085
1217.35,0.080067,534208,444266
1220.85,0.078969,540472,450614
1225.51,0.077940,549929,459586
1229.01,0.077170,556888,466227
1232.5,0.076331,562180,471568
1235.98,0.075400,567975,477452
1239.46,0.074005,574815,484756
1242.94,0.073116,582782,492482
1246.41,0.072402,591476,500651
1251.03,0.071989,604016,511752
1254.5,0.072098,612289,518631
1257.96,0.072253,619125,524234
1261.41,0.072626,624551,528374
1264.86,0.073594,629900,531713
1268.31,0.074176,634345,534749
1271.75,0.074999,638574,537294
1276.33,0.075250,642499,540285
1279.76,0.074877,645905,543615
1283.19,0.074233,648307,546447
1286.61,0.074078,650446,548445
1290.03,0.073774,652132,550252
1293.44,0.073166,653907,552522
1296.85,0.073053,655963,554404
1301.39,0.072617,657349,556134
1304.8,0.072496,657558,556465
1308.19,0.072915,658515,556738
1311.58,0.073179,658804,556644
1314.97,0.073857,659011,555950
1318.36,0.074035,658272,555099
1321.73,0.074480,658022,554320
1326.23,0.075641,657870,552712
1329.6,0.076464,656482,550502
1332.97,0.077760,654926,547561
1336.33,0.079241,653727,544698
1339.69,0.080567,652497,542015
1343.04,0.082942,649913,536924
1346.39,0.084954,647671,532599
1349.73,0.087554,645338,527513
1354.18,0.091118,641175,519827
1357.52,0.093891,638376,514263
1360.85,0.096034,635805,509671
1364.17,0.098459,633413,504926
1367.49,0.101170,631026,499893
1370.81,0.103713,628050,494631
1374.12,0.106479,625034,489130
1378.54,0.110254,620272,481203
1381.84,0.114501,616892,473923
1385.14,0.118452,613613,467135
1388.43,0.123788,611526,459861
1391.72,0.128378,610663,454385
1395.01,0.134372,610634,448135
1398.29,0.140709,611700,442415
1402.66,0.148941,614051,435776
1405.93,0.155501,616268,430793
1409.2,0.161415,617795,426019
1412.46,0.167179,618872,421135
1415.72,0.172253,619795,416865
1418.98,0.176864,620495,412928
1422.23,0.181167,621087,409247
1426.56,0.185782,621375,405109
1429.8,0.188223,621616,402995
1433.04,0.191190,622129,400581
1436.27,0.193585,621526,397992
1439.5,0.195847,621113,395661
1442.72,0.198708,620921,392942
1445.94,0.201132,620270,390345
1450.23,0.205132,618860,385887
1453.44,0.207723,617697,382871
1456.64,0.211173,616264,378960
1459.85,0.213817,614413,375529
1463.04,0.216030,612307,372340
1466.24,0.219658,610032,367870
1469.43,0.223401,607345,363107
1473.67,0.228715,603789,356591
1476.85,0.233429,601175,351214
1480.02,0.239979,597737,343978
1483.19,0.246070,594479,337339
1486.36,0.252592,591232,330496
1489.52,0.258067,587853,324490
1492.68,0.261403,583875,319828
1496.89,0.264000,578062,314756
1500.03,0.265538,574159,311526
1503.18,0.265732,570285,309286
1506.32,0.264657,565444,307420
1509.45,0.263628,560571,305494
1512.58,0.262650,555821,303588
1515.71,0.260325,550344,302210
1519.87,0.257225,543983,300857
1522.99,0.254948,538764,299537
1526.1,0.251627,533692,298995
1529.21,0.249208,527902,297403
1532.32,0.245097,521886,296810
1535.42,0.241895,515888,295570
1538.51,0.238674,509987,294364
1541.6,0.235294,503936,293144
1545.72,0.230397,494694,291031
1548.8,0.227465,488378,289262
1551.88,0.224598,481832,287275
1554.95,0.222397,474989,284634
1558.02,0.220139,467818,281798
1561.08,0.218935,460730,278299
1564.15,0.217703,454170,275116
1568.22,0.216753,444181,269654
1571.27,0.215766,436947,265866
1574.32,0.214748,429598,262008
1577.36,0.213799,422039,257961
1580.4,0.211880,414375,254398
1583.43,0.209608,406354,250782
1586.46,0.208255,398475,246687
1590.49,0.205528,388982,242327
1593.51,0.203355,380708,238362
1596.53,0.200782,372727,234752
1599.54,0.198764,365060,230994
1602.55,0.195984,357543,227690
1605.55,0.193973,349495,223598
1608.55,0.191002,341154,219760
1612.54,0.188965,330877,214142
1615.53,0.186007,322904,210410
1618.51,0.185952,315116,205361
1621.49,0.183614,307217,201294
1624.47,0.182914,299481,196542
1627.44,0.180661,292112,192703
1630.41,0.179526,284245,188004
1634.36,0.178112,274079,181871
1637.32,0.178026,266916,177153
1640.27,0.175679,259612,173239
1643.22,0.174352,251804,168543
1646.16,0.172734,244348,164163
1649.1,0.171993,236703,159298
1652.04,0.170867,228171,153955
1655.95,0.169105,215408,145934
1658.88,0.166583,204937,139649
1661.8,0.163653,193395,132676
1664.72,0.160361,179728,124238
1667.63,0.153144,163642,115014
1670.54,0.146305,146312,104466
1673.44,0.136530,128451,93801
1677.31,0.127376,105080,78369
1680.21,0.125150,88906,66647
1683.1,0.125848,75033,56157
1685.99,0.128371,63520,47265
1688.87,0.134735,53714,39387
1691.75,0.140416,45653,33041
1694.62,0.143881,39137,28100
1697.49,0.157929,33776,23479
1701.31,0.150008,28175,19946