File: samples/wool/wool-000811/Column 1_050597_20150331_122201.csv
Method:,Column 1,,
Host Date-Time:,31/3/15 @ 12:22:1,,
Header Version:,1,,
System Temp (C):,33.93,,
Detector Temp (C):,34.69,,
Humidity (%):,1.76,,
Lamp PD:,3818,,
Shift Vector Coefficients:,-10.5391,0.0761263,-0.000134223,,
Pixel to Wavelength Coefficients:,1775.68,-0.916766,-0.000235065,,
Serial Number:,5510004,,
Scan Config Name:,Column 1,,
Scan Config Type:,Slew,,
Section 1,,
Start wavelength (nm):,900,,
End wavelength (nm):,1700,,
Pattern Pixel Width (nm):,   7.03,,,,
Exposure (ms):,  0.635,,,,
Digital Resolution:,228,,
Num Repeats:,6,,
PGA Gain:,64,,
Total Measurement Time in sec:,  2.685,,
Wavelength (nm),Absorbance (AU),Reference Signal (unitless),Sample Signal (unitless)
901.51,0.070017,108485,92332
905.376,0.075235,121306,102011
909.237,0.079154,131909,109931
913.095,0.077906,143299,119767
916.948,0.079627,156982,130684
922.079,0.081736,179937,149068
925.923,0.082515,200504,165809
929.762,0.082077,222660,184317
933.597,0.082736,244426,202028
937.427,0.081499,263972,218806
941.254,0.081231,281845,233765
945.076,0.079523,297271,247531
950.165,0.079205,315605,262990
953.978,0.078652,328029,273691
957.786,0.078716,340470,284029
961.59,0.078789,352317,293863
965.389,0.078451,363056,303056
969.185,0.078685,373162,311324
972.976,0.079651,382632,318515
976.763,0.079450,391202,325800
981.806,0.079955,400190,332898
985.583,0.080512,406088,337371
989.355,0.080980,410162,340389
993.124,0.081606,412868,342141
996.888,0.081748,414263,343185
1000.65,0.082749,415476,343397
1004.4,0.083825,415479,342550
1009.41,0.084293,414358,341258
1013.15,0.085171,412923,339389
1016.89,0.085493,411526,337990
1020.63,0.085175,409066,336216
1024.36,0.085972,406777,333722
1028.09,0.085552,404427,332115
1031.82,0.085341,401911,330209
1036.78,0.085293,398410,327369
1040.49,0.084533,396204,326126
1044.2,0.085282,394236,323947
1047.91,0.084574,392042,322670
1051.61,0.084418,389823,320959
1055.31,0.083651,388234,320216
1059,0.083260,387599,319980
1063.92,0.082663,386688,319667
1067.61,0.082063,386598,320034
1071.29,0.081296,387377,321246
1074.96,0.081125,388536,322334
1078.63,0.080516,389855,323882
1082.3,0.079290,391215,325931
1085.96,0.079083,393215,327753
1090.84,0.077911,396270,331192
1094.49,0.076990,398760,333981
1098.14,0.076841,400987,335961
1101.79,0.076011,403477,338694
1105.43,0.075872,406116,341019
1109.06,0.075708,407701,342479
1112.7,0.075241,409859,344662
1117.53,0.074617,412494,347377
1121.15,0.075203,414909,348939
1124.77,0.075120,416559,350394
1128.38,0.076646,418532,350819
1131.99,0.077101,419956,351644
1135.6,0.079233,421946,351580
1139.2,0.080142,423881,352454
1143.99,0.082429,426786,353005
1147.58,0.082724,428617,354279
1151.17,0.084271,431169,355121
1154.75,0.084817,433579,356657
1158.33,0.086507,436264,357472
1161.91,0.087905,439132,358666
1165.48,0.089976,442389,359607
1169.04,0.092501,446101,360522
1173.79,0.096151,451929,362176
1177.34,0.097615,456026,364229
1180.9,0.099570,461306,366791
1184.44,0.101876,467657,369872
1187.99,0.102406,473969,374407
1191.52,0.102379,479856,379081
1195.06,0.102655,487372,384774
1199.76,0.101791,497347,393431
1203.29,0.101642,504311,399077
1206.81,0.100606,511507,405738
1210.33,0.099948,519078,412368
1213.84,0.099482,527163,419240
1217.35,0.099286,534208,425035
1220.85,0.098485,540472,430812
1225.51,0.097598,549929,439247
1229.01,0.096934,556888,445486
1232.5,0.096667,562180,449996
1235.98,0.095852,567975,455488
1239.46,0.094601,574815,462303
1242.94,0.093596,582782,469797
1246.41,0.093369,591476,477055
1251.03,0.093039,604016,487539
1254.5,0.093107,612289,494139
1257.96,0.093738,619125,498931
1261.41,0.093983,624551,503020
1264.86,0.094524,629900,506696
1268.31,0.095321,634345,509336
1271.75,0.096069,638574,511850
1276.33,0.096312,642499,514708
1279.76,0.095811,645905,518033
1283.19,0.095261,648307,520619
1286.61,0.095266,650446,522330
1290.03,0.094954,652132,524060
1293.44,0.094577,653907,525943
1296.85,0.094173,655963,528088
1301.39,0.093691,657349,529792
1304.8,0.093573,657558,530104
1308.19,0.094140,658515,530183
1311.58,0.093943,658804,530656
1314.97,0.094923,659011,529626
1318.36,0.094924,658272,529031
1321.73,0.095241,658022,528444
1326.23,0.095988,657870,527415
1329.6,0.097126,656482,524925
1332.97,0.097948,654926,522690
1336.33,0.099027,653727,520439
1339.69,0.100444,652497,517767
1343.04,0.102155,649913,513689
1346.39,0.104183,647671,509532
1349.73,0.105734,645338,505887
1354.18,0.108692,641175,499211
1357.52,0.110912,638376,494498
1360.85,0.112837,635805,490328
1364.17,0.114980,633413,486079
1367.49,0.116767,631026,482259
1370.81,0.119322,628050,477169
1374.12,0.121114,625034,472922
1378.54,0.124555,620272,465615
1381.84,0.127349,616892,460108
1385.14,0.130397,613613,454462
1388.43,0.134841,611526,448305
1391.72,0.139028,610663,443377
1395.01,0.143323,610634,438993
1398.29,0.147603,611700,435447
1402.66,0.154395,614051,430338
1405.93,0.159256,616268,427084
1409.2,0.164475,617795,423028
1412.46,0.168387,618872,419966
1415.72,0.172850,619795,416292
1418.98,0.176345,620495,413422
1422.23,0.179964,621087,410382
1426.56,0.184238,621375,406552
1429.8,0.186451,621616,404642
1433.04,0.189021,622129,402587
1436.27,0.191555,621526,399857
1439.5,0.192967,621113,398294
1442.72,0.195879,620921,395510
1445.94,0.197939,620270,393226
1450.23,0.201279,618860,389326
1453.44,0.204158,617697,386027
1456.64,0.207427,616264,382243
1459.85,0.209959,614413,378880
1463.04,0.212384,612307,375479
1466.24,0.215696,610032,371242
1469.43,0.218961,607345,366838
1473.67,0.224991,603789,359662
1476.85,0.230365,601175,353701
1480.02,0.236034,597737,347117
1483.19,0.242416,594479,340189
1486.36,0.247995,591232,334013
1489.52,0.252595,587853,328605
1492.68,0.256165,583875,323709
1496.89,0.258320,578062,318900
1500.03,0.259270,574159,316055
1503.18,0.258775,570285,314280
1506.32,0.257476,565444,312546
1509.45,0.256453,560571,310583
1512.58,0.254468,555821,309362
1515.71,0.252457,550344,307735
1519.87,0.249342,543983,306368
1522.99,0.246972,538764,305089
1526.1,0.244897,533692,303664
1529.21,0.241725,527902,302572
1532.32,0.239084,521886,300948
1535.42,0.235989,515888,299617
1538.51,0.232936,509987,298279
1541.6,0.230494,503936,296402
1545.72,0.225945,494694,294030
1548.8,0.223538,488378,291889
1551.88,0.221076,481832,289614
1554.95,0.219365,474989,286628
1558.02,0.217325,467818,283630
1561.08,0.216808,460730,279665
1564.15,0.215723,454170,276373
1568.22,0.214302,444181,271180
1571.27,0.213996,436947,266952
1574.32,0.213605,429598,262698
1577.36,0.212397,422039,258795
1580.4,0.211501,414375,254620
1583.43,0.208655,406354,251333
1586.46,0.207678,398475,247015
1590.49,0.205770,388982,242192
1593.51,0.204030,380708,237992
1596.53,0.201669,372727,234273
1599.54,0.200059,365060,230306
1602.55,0.198185,357543,226539
1605.55,0.195752,349495,222684
1608.55,0.193869,341154,218314
1612.54,0.192089,330877,212607
1615.53,0.190395,322904,208295
1618.51,0.190188,315116,203368
1621.49,0.188542,307217,199023
1624.47,0.187052,299481,194678
1627.44,0.186864,292112,189970
1630.41,0.185159,284245,185581
1634.36,0.184051,274079,179401
1637.32,0.182950,266916,175156
1640.27,0.182132,259612,170684
1643.22,0.180324,251804,166241
1646.16,0.180690,244348,161183
1649.1,0.180014,236703,156383
1652.04,0.178006,228171,151445
1655.95,0.175615,215408,143763
1658.88,0.171575,204937,138053
1661.8,0.165671,193395,132061
1664.72,0.160127,179728,124305
1667.63,0.146556,163642,116772
1670.54,0.131185,146312,108167
1673.44,0.116109,128451,98317
1677.31,0.096187,105080,84204
1680.21,0.088545,88906,72508
1683.1,0.080869,75033,62285
1685.99,0.083008,63520,52469
1688.87,0.081903,53714,44482
1691.75,0.090423,45653,37072
1694.62,0.094829,39137,31460
1697.49,0.097953,33776,26956
1701.31,0.105059,28175,22121