File: samples/wool/wool-000811/Column 1_050603_20150331_122515.csv
Method:,Column 1,,
Host Date-Time:,31/3/15 @ 12:25:15,,
Header Version:,1,,
System Temp (C):,33.99,,
Detector Temp (C):,34.82,,
Humidity (%):,1.71,,
Lamp PD:,3818,,
Shift Vector Coefficients:,-10.5391,0.0761263,-0.000134223,,
Pixel to Wavelength Coefficients:,1775.68,-0.916766,-0.000235065,,
Serial Number:,5510004,,
Scan Config Name:,Column 1,,
Scan Config Type:,Slew,,
Section 1,,
Start wavelength (nm):,900,,
End wavelength (nm):,1700,,
Pattern Pixel Width (nm):,   7.03,,,,
Exposure (ms):,  0.635,,,,
Digital Resolution:,228,,
Num Repeats:,6,,
PGA Gain:,64,,
Total Measurement Time in sec:,  2.680,,
Wavelength (nm),Absorbance (AU),Reference Signal (unitless),Sample Signal (unitless)
901.51,0.069115,108485,92524
905.376,0.074589,121306,102163
909.237,0.076582,131909,110584
913.095,0.078458,143299,119615
916.948,0.076647,156982,131584
922.079,0.080488,179937,149497
925.923,0.081139,200504,166335
929.762,0.082346,222660,184203
933.597,0.082886,244426,201958
937.427,0.079757,263972,219685
941.254,0.080232,281845,234303
945.076,0.079260,297271,247681
950.165,0.078436,315605,263456
953.978,0.077664,328029,274314
957.786,0.077652,340470,284726
961.59,0.078059,352317,294357
965.389,0.077885,363056,303451
969.185,0.078049,373162,311780
972.976,0.078414,382632,319424
976.763,0.078622,391202,326422
981.806,0.079410,400190,333316
985.583,0.079977,406088,337787
989.355,0.080244,410162,340966
993.124,0.080473,412868,343035
996.888,0.080969,414263,343801
1000.65,0.081401,415476,344465
1004.4,0.082707,415479,343433
1009.41,0.084362,414358,341204
1013.15,0.084480,412923,339930
1016.89,0.085194,411526,338223
1020.63,0.085100,409066,336274
1024.36,0.085371,406777,334184
1028.09,0.084422,404427,332980
1031.82,0.084641,401911,330742
1036.78,0.084418,398410,328029
1040.49,0.083557,396204,326860
1044.2,0.084353,394236,324641
1047.91,0.083525,392042,323450
1051.61,0.083381,389823,321726
1055.31,0.083327,388234,320455
1059,0.082496,387599,320543
1063.92,0.081702,386688,320375
1067.61,0.081325,386598,320579
1071.29,0.080248,387377,322022
1074.96,0.080199,388536,323022
1078.63,0.079438,389855,324687
1082.3,0.078608,391215,326443
1085.96,0.077980,393215,328587
1090.84,0.076993,396270,331893
1094.49,0.076869,398760,334074
1098.14,0.076162,400987,336487
1101.79,0.075518,403477,339079
1105.43,0.075583,406116,341246
1109.06,0.074266,407701,343618
1112.7,0.074425,409859,345310
1117.53,0.073118,412494,348578
1121.15,0.073895,414909,349992
1124.77,0.074034,416559,351271
1128.38,0.075577,418532,351683
1131.99,0.076168,419956,352400
1135.6,0.077645,421946,352868
1139.2,0.078995,423881,353386
1143.99,0.081150,426786,354046
1147.58,0.081751,428617,355074
1151.17,0.082918,431169,356229
1154.75,0.084163,433579,357195
1158.33,0.085482,436264,358317
1161.91,0.087336,439132,359136
1165.48,0.089584,442389,359932
1169.04,0.091240,446101,361571
1173.79,0.094594,451929,363476
1177.34,0.096756,456026,364950
1180.9,0.098759,461306,367477
1184.44,0.100956,467657,370656
1187.99,0.101162,473969,375481
1191.52,0.101260,479856,380059
1195.06,0.101444,487372,385848
1199.76,0.100944,497347,394199
1203.29,0.100101,504311,400495
1206.81,0.099748,511507,406540
1210.33,0.099386,519078,412902
1213.84,0.098800,527163,419899
1217.35,0.097735,534208,426555
1220.85,0.097440,540472,431850
1225.51,0.096416,549929,440444
1229.01,0.096002,556888,446443
1232.5,0.095498,562180,451209
1235.98,0.094926,567975,456461
1239.46,0.093653,574815,463314
1242.94,0.092895,582782,470556
1246.41,0.091867,591476,478707
1251.03,0.092495,604016,488150
1254.5,0.092331,612289,495023
1257.96,0.092648,619125,500185
1261.41,0.092859,624551,504323
1264.86,0.093602,629900,507773
1268.31,0.094167,634345,510691
1271.75,0.095250,638574,512816
1276.33,0.095640,642499,515505
1279.76,0.095141,645905,518833
1283.19,0.094660,648307,521340
1286.61,0.094313,650446,523478
1290.03,0.093631,652132,525659
1293.44,0.093050,653907,527796
1296.85,0.093058,655963,529446
1301.39,0.092760,657349,530928
1304.8,0.092588,657558,531308
1308.19,0.092902,658515,531696
1311.58,0.093295,658804,531448
1314.97,0.093477,659011,531393
1318.36,0.094125,658272,530006
1321.73,0.094076,658022,529864
1326.23,0.095421,657870,528103
1329.6,0.095918,656482,526387
1332.97,0.096778,654926,524100
1336.33,0.097690,653727,522043
1339.69,0.099334,652497,519092
1343.04,0.100787,649913,515309
1346.39,0.102712,647671,511261
1349.73,0.104343,645338,507510
1354.18,0.107459,641175,500631
1357.52,0.109641,638376,495947
1360.85,0.111329,635805,492034
1364.17,0.113402,633413,487849
1367.49,0.115696,631026,483450
1370.81,0.117677,628050,478980
1374.12,0.120264,625034,473849
1378.54,0.122676,620272,467634
1381.84,0.125530,616892,462040
1385.14,0.129027,613613,455898
1388.43,0.132265,611526,450972
1391.72,0.136757,610663,445702
1395.01,0.140903,610634,441446
1398.29,0.145431,611700,437630
1402.66,0.151975,614051,432742
1405.93,0.156924,616268,429384
1409.2,0.161103,617795,426326
1412.46,0.165997,618872,422283
1415.72,0.169407,619795,419605
1418.98,0.173179,620495,416447
1422.23,0.177003,621087,413190
1426.56,0.180563,621375,410007
1429.8,0.183283,621616,407605
1433.04,0.185427,622129,405932
1436.27,0.187993,621526,403150
1439.5,0.189885,621113,401130
1442.72,0.192276,620921,398805
1445.94,0.194424,620270,396421
1450.23,0.198229,618860,392070
1453.44,0.201310,617697,388567
1456.64,0.203978,616264,385291
1459.85,0.206346,614413,382045
1463.04,0.208661,612307,378711
1466.24,0.212307,610032,374150
1469.43,0.216127,607345,369240
1473.67,0.222400,603789,361814
1476.85,0.227952,601175,355671
1480.02,0.234334,597737,348479
1483.19,0.240425,594479,341752
1486.36,0.246253,591232,335355
1489.52,0.250864,587853,329917
1492.68,0.254411,583875,325019
1496.89,0.256211,578062,320452
1500.03,0.257174,574159,317584
1503.18,0.256248,570285,316114
1506.32,0.255316,565444,314104
1509.45,0.256528,560571,310529
1512.58,0.253055,555821,310370
1515.71,0.250719,550344,308969
1519.87,0.247819,543983,307444
1522.99,0.245470,538764,306146
1526.1,0.243122,533692,304908
1529.21,0.240026,527902,303758
1532.32,0.237237,521886,302231
1535.42,0.233683,515888,301212
1538.51,0.231299,509987,299406
1541.6,0.228669,503936,297650
1545.72,0.224238,494694,295188
1548.8,0.221404,488378,293327
1551.88,0.218874,481832,291086
1554.95,0.217735,474989,287706
1558.02,0.215508,467818,284819
1561.08,0.214569,460730,281111
1564.15,0.214316,454170,277270
1568.22,0.212906,444181,272053
1571.27,0.212526,436947,267857
1574.32,0.211223,429598,264143
1577.36,0.209488,422039,260534
1580.4,0.209091,414375,256037
1583.43,0.207649,406354,251916
1586.46,0.205535,398475,248237
1590.49,0.203687,388982,243356
1593.51,0.202953,380708,238583
1596.53,0.199496,372727,235448
1599.54,0.197930,365060,231438
1602.55,0.196267,357543,227542
1605.55,0.193866,349495,223653
1608.55,0.192649,341154,218928
1612.54,0.190912,330877,213184
1615.53,0.188003,322904,209445
1618.51,0.187953,315116,204417
1621.49,0.187243,307217,199619
1624.47,0.185114,299481,195549
1627.44,0.184436,292112,191035
1630.41,0.183664,284245,186221
1634.36,0.182840,274079,179902
1637.32,0.182031,266916,175527
1640.27,0.181105,259612,171088
1643.22,0.180737,251804,166083
1646.16,0.179261,244348,161714
1649.1,0.178769,236703,156832
1652.04,0.177808,228171,151514
1655.95,0.174486,215408,144137
1658.88,0.171115,204937,138199
1661.8,0.163892,193395,132603
1664.72,0.156627,179728,125311
1667.63,0.145932,163642,116940
1670.54,0.128635,146312,108804
1673.44,0.113743,128451,98854
1677.31,0.096017,105080,84237
1680.21,0.083312,88906,73387
1683.1,0.075953,75033,62994
1685.99,0.077301,63520,53163
1688.87,0.077165,53714,44970
1691.75,0.086493,45653,37409
1694.62,0.087858,39137,31969
1697.49,0.095751,33776,27093
1701.31,0.104079,28175,22171