File: samples/wool/wool-000811/Column 1_050559_20150331_120356.csv
Method:,Column 1,,
Host Date-Time:,31/3/15 @ 12:3:56,,
Header Version:,1,,
System Temp (C):,33.62,,
Detector Temp (C):,32.99,,
Humidity (%):,2.25,,
Lamp PD:,3819,,
Shift Vector Coefficients:,-10.5391,0.0761263,-0.000134223,,
Pixel to Wavelength Coefficients:,1775.68,-0.916766,-0.000235065,,
Serial Number:,5510004,,
Scan Config Name:,Column 1,,
Scan Config Type:,Slew,,
Section 1,,
Start wavelength (nm):,900,,
End wavelength (nm):,1700,,
Pattern Pixel Width (nm):,   7.03,,,,
Exposure (ms):,  0.635,,,,
Digital Resolution:,228,,
Num Repeats:,6,,
PGA Gain:,64,,
Total Measurement Time in sec:,  2.739,,
Wavelength (nm),Absorbance (AU),Reference Signal (unitless),Sample Signal (unitless)
901.51,0.032880,108485,100575
905.376,0.039888,121306,110661
909.237,0.041865,131909,119787
913.095,0.042905,143299,129819
916.948,0.042996,156982,142185
922.079,0.044617,179937,162369
925.923,0.045874,200504,180405
929.762,0.046743,222660,199940
933.597,0.047461,244426,219122
937.427,0.046784,263972,237014
941.254,0.046313,281845,253336
945.076,0.046370,297271,267167
950.165,0.046315,315605,283680
953.978,0.045136,328029,295649
957.786,0.046031,340470,306230
961.59,0.046089,352317,316843
965.389,0.046580,363056,326132
969.185,0.046855,373162,334998
972.976,0.047504,382632,342987
976.763,0.048008,391202,350262
981.806,0.048173,400190,358173
985.583,0.049535,406088,362314
989.355,0.049154,410162,366270
993.124,0.050113,412868,367873
996.888,0.050548,414263,368747
1000.65,0.051522,415476,368998
1004.4,0.052983,415479,367761
1009.41,0.053577,414358,366268
1013.15,0.054718,412923,364042
1016.89,0.054479,411526,363010
1020.63,0.054847,409066,360534
1024.36,0.055199,406777,358226
1028.09,0.054603,404427,356646
1031.82,0.054494,401911,354516
1036.78,0.053746,398410,352034
1040.49,0.053743,396204,350087
1044.2,0.053487,394236,348553
1047.91,0.053320,392042,346747
1051.61,0.052551,389823,345395
1055.31,0.051535,388234,344793
1059,0.051376,387599,344355
1063.92,0.050135,386688,344529
1067.61,0.049505,386598,344949
1071.29,0.048812,387377,346196
1074.96,0.048298,388536,347643
1078.63,0.047719,389855,349288
1082.3,0.047079,391215,351024
1085.96,0.046255,393215,353488
1090.84,0.045840,396270,356575
1094.49,0.045025,398760,359490
1098.14,0.045392,400987,361192
1101.79,0.044968,403477,363790
1105.43,0.044762,406116,366343
1109.06,0.044295,407701,368169
1112.7,0.043816,409859,370526
1117.53,0.044351,412494,372449
1121.15,0.045419,414909,373709
1124.77,0.045050,416559,375514
1128.38,0.046728,418532,375838
1131.99,0.048079,419956,375945
1135.6,0.049818,421946,376217
1139.2,0.051375,423881,376590
1143.99,0.054215,426786,376700
1147.58,0.055127,428617,377522
1151.17,0.056397,431169,378661
1154.75,0.057954,433579,379415
1158.33,0.059727,436264,380209
1161.91,0.061409,439132,381229
1165.48,0.064624,442389,381224
1169.04,0.066266,446101,382972
1173.79,0.070156,451929,384516
1177.34,0.072713,456026,385724
1180.9,0.075163,461306,387995
1184.44,0.077359,467657,391353
1187.99,0.077737,473969,396290
1191.52,0.078007,479856,400963
1195.06,0.077550,487372,407672
1199.76,0.076073,497347,417433
1203.29,0.075495,504311,423841
1206.81,0.074884,511507,430494
1210.33,0.073964,519078,437793
1213.84,0.073166,527163,445429
1217.35,0.072284,534208,452300
1220.85,0.071521,540472,458408
1225.51,0.070606,549929,467413
1229.01,0.070541,556888,473398
1232.5,0.069234,562180,479338
1235.98,0.068820,567975,484740
1239.46,0.067834,574815,491693
1242.94,0.066801,582782,499695
1246.41,0.065895,591476,508209
1251.03,0.065760,604016,519145
1254.5,0.066138,612289,525797
1257.96,0.066482,619125,531247
1261.41,0.067355,624551,534827
1264.86,0.067750,629900,538917
1268.31,0.068345,634345,541977
1271.75,0.068820,638574,544994
1276.33,0.069588,642499,547374
1279.76,0.069631,645905,550221
1283.19,0.068961,648307,553120
1286.61,0.068523,650446,555505
1290.03,0.068133,652132,557446
1293.44,0.068064,653907,559052
1296.85,0.067502,655963,561536
1301.39,0.067408,657349,562844
1304.8,0.067213,657558,563276
1308.19,0.067411,658515,563838
1311.58,0.067827,658804,563546
1314.97,0.068495,659011,562856
1318.36,0.068823,658272,561801
1321.73,0.069551,658022,560647
1326.23,0.070161,657870,559730
1329.6,0.071240,656482,557164
1332.97,0.072154,654926,554674
1336.33,0.073497,653727,551949
1339.69,0.075332,652497,548588
1343.04,0.076622,649913,544795
1346.39,0.079378,647671,539481
1349.73,0.081511,645338,534905
1354.18,0.084813,641175,527429
1357.52,0.086899,638376,522610
1360.85,0.089168,635805,517793
1364.17,0.091269,633413,513355
1367.49,0.093932,631026,508294
1370.81,0.096192,628050,503271
1374.12,0.098741,625034,497924
1378.54,0.102005,620272,490430
1381.84,0.105803,616892,483511
1385.14,0.109969,613613,476349
1388.43,0.114537,611526,469762
1391.72,0.119070,610663,464228
1395.01,0.124879,610634,458038
1398.29,0.129943,611700,453519
1402.66,0.137721,614051,447181
1405.93,0.143340,616268,443026
1409.2,0.149155,617795,438217
1412.46,0.155033,618872,433080
1415.72,0.159859,619795,428933
1418.98,0.163764,620495,425573
1422.23,0.167824,621087,422016
1426.56,0.171701,621375,418459
1429.8,0.174841,621616,415605
1433.04,0.177643,622129,413273
1436.27,0.180141,621526,410505
1439.5,0.181964,621113,408514
1442.72,0.184961,620921,405579
1445.94,0.187409,620270,402876
1450.23,0.191100,618860,398559
1453.44,0.194085,617697,395085
1456.64,0.196731,616264,391774
1459.85,0.200011,614413,387659
1463.04,0.202372,612307,384235
1466.24,0.206084,610032,379550
1469.43,0.208909,607345,375428
1473.67,0.214760,603789,368235
1476.85,0.220478,601175,361845
1480.02,0.225890,597737,355320
1483.19,0.232859,594479,347758
1486.36,0.238285,591232,341565
1489.52,0.243742,587853,335372
1492.68,0.246829,583875,330743
1496.89,0.249219,578062,325653
1500.03,0.250029,574159,322852
1503.18,0.250204,570285,320544
1506.32,0.248890,565444,318786
1509.45,0.247951,560571,316723
1512.58,0.246000,555821,315453
1515.71,0.244045,550344,313754
1519.87,0.240738,543983,312498
1522.99,0.237733,538764,311649
1526.1,0.235375,533692,310396
1529.21,0.231632,527902,309686
1532.32,0.229331,521886,307783
1535.42,0.226932,515888,305931
1538.51,0.222640,509987,305435
1541.6,0.220109,503936,303575
1545.72,0.215672,494694,301068
1548.8,0.212191,488378,299616
1551.88,0.209324,481832,297558
1554.95,0.207626,474989,294481
1558.02,0.205103,467818,291725
1561.08,0.203894,460730,288106
1564.15,0.203822,454170,284051
1568.22,0.202744,444181,278494
1571.27,0.201814,436947,274546
1574.32,0.200598,429598,270685
1577.36,0.199245,422039,266752
1580.4,0.198387,414375,262426
1583.43,0.196234,406354,258625
1586.46,0.194737,398475,254486
1590.49,0.191840,388982,250086
1593.51,0.190284,380708,245645
1596.53,0.187581,372727,241997
1599.54,0.185525,365060,238144
1602.55,0.183460,357543,234352
1605.55,0.181232,349495,230255
1608.55,0.179609,341154,225601
1612.54,0.176741,330877,220255
1615.53,0.174378,322904,216120
1618.51,0.173912,315116,211134
1621.49,0.172298,307217,206608
1624.47,0.170650,299481,202171
1627.44,0.169525,292112,197708
1630.41,0.168064,284245,193032
1634.36,0.167691,274079,186288
1637.32,0.165922,266916,182160
1640.27,0.164987,259612,177557
1643.22,0.164823,251804,172282
1646.16,0.162539,244348,168062
1649.1,0.162168,236703,162943
1652.04,0.161399,228171,157348
1655.95,0.158069,215408,149690
1658.88,0.155486,204937,143263
1661.8,0.152549,193395,136112
1664.72,0.145236,179728,128641
1667.63,0.136774,163642,119432
1670.54,0.128140,146312,108928
1673.44,0.116003,128451,98341
1677.31,0.101277,105080,83223
1680.21,0.096372,88906,71213
1683.1,0.092622,75033,60622
1685.99,0.100170,63520,50436
1688.87,0.102404,53714,42431
1691.75,0.107361,45653,35654
1694.62,0.113733,39137,30120
1697.49,0.116568,33776,25825
1701.31,0.125993,28175,21080