File: samples/wool/wool-000811/Column 1_050608_20150331_122715.csv
Method:,Column 1,,
Host Date-Time:,31/3/15 @ 12:27:15,,
Header Version:,1,,
System Temp (C):,34.03,,
Detector Temp (C):,34.84,,
Humidity (%):,1.66,,
Lamp PD:,3818,,
Shift Vector Coefficients:,-10.5391,0.0761263,-0.000134223,,
Pixel to Wavelength Coefficients:,1775.68,-0.916766,-0.000235065,,
Serial Number:,5510004,,
Scan Config Name:,Column 1,,
Scan Config Type:,Slew,,
Section 1,,
Start wavelength (nm):,900,,
End wavelength (nm):,1700,,
Pattern Pixel Width (nm):,   7.03,,,,
Exposure (ms):,  0.635,,,,
Digital Resolution:,228,,
Num Repeats:,6,,
PGA Gain:,64,,
Total Measurement Time in sec:,  2.683,,
Wavelength (nm),Absorbance (AU),Reference Signal (unitless),Sample Signal (unitless)
901.51,0.070422,108485,92246
905.376,0.073527,121306,102413
909.237,0.079352,131909,109881
913.095,0.078450,143299,119617
916.948,0.078396,156982,131055
922.079,0.080459,179937,149507
925.923,0.081074,200504,166360
929.762,0.082263,222660,184238
933.597,0.081300,244426,202697
937.427,0.080549,263972,219285
941.254,0.080162,281845,234341
945.076,0.079025,297271,247815
950.165,0.078054,315605,263688
953.978,0.077117,328029,274660
957.786,0.076923,340470,285204
961.59,0.077654,352317,294632
965.389,0.077403,363056,303788
969.185,0.077730,373162,312009
972.976,0.078348,382632,319472
976.763,0.078320,391202,326649
981.806,0.078664,400190,333889
985.583,0.079363,406088,338265
989.355,0.079962,410162,341188
993.124,0.080302,412868,343170
996.888,0.080589,414263,344102
1000.65,0.081147,415476,344666
1004.4,0.082756,415479,343394
1009.41,0.083942,414358,341534
1013.15,0.084261,412923,340101
1016.89,0.085072,411526,338318
1020.63,0.084903,409066,336427
1024.36,0.084306,406777,335004
1028.09,0.084380,404427,333012
1031.82,0.084870,401911,330567
1036.78,0.084043,398410,328312
1040.49,0.083734,396204,326727
1044.2,0.084426,394236,324586
1047.91,0.082943,392042,323884
1051.61,0.082916,389823,322071
1055.31,0.083065,388234,320648
1059,0.082397,387599,320616
1063.92,0.081346,386688,320638
1067.61,0.081184,386598,320683
1071.29,0.080107,387377,322127
1074.96,0.079584,388536,323480
1078.63,0.079454,389855,324675
1082.3,0.078236,391215,326723
1085.96,0.077094,393215,329258
1090.84,0.076929,396270,331942
1094.49,0.076305,398760,334508
1098.14,0.075622,400987,336906
1101.79,0.075208,403477,339321
1105.43,0.075308,406116,341462
1109.06,0.073921,407701,343891
1112.7,0.073811,409859,345799
1117.53,0.073626,412494,348170
1121.15,0.073910,414909,349980
1124.77,0.074249,416559,351097
1128.38,0.074899,418532,352233
1131.99,0.076849,419956,351848
1135.6,0.077746,421946,352786
1139.2,0.079325,423881,353117
1143.99,0.080930,426786,354226
1147.58,0.081775,428617,355054
1151.17,0.082377,431169,356673
1154.75,0.083351,433579,357863
1158.33,0.084865,436264,358826
1161.91,0.086512,439132,359818
1165.48,0.089064,442389,360363
1169.04,0.090851,446101,361895
1173.79,0.094092,451929,363897
1177.34,0.096178,456026,365436
1180.9,0.098566,461306,367640
1184.44,0.100040,467657,371439
1187.99,0.100726,473969,375858
1191.52,0.101014,479856,380274
1195.06,0.101134,487372,386124
1199.76,0.100550,497347,394557
1203.29,0.099548,504311,401006
1206.81,0.099364,511507,406900
1210.33,0.098731,519078,413525
1213.84,0.098116,527163,420561
1217.35,0.098113,534208,426184
1220.85,0.096913,540472,432375
1225.51,0.096458,549929,440401
1229.01,0.095547,556888,446911
1232.5,0.095036,562180,451689
1235.98,0.094219,567975,457204
1239.46,0.093519,574815,463457
1242.94,0.092058,582782,471464
1246.41,0.091516,591476,479094
1251.03,0.091784,604016,488950
1254.5,0.091674,612289,495772
1257.96,0.092339,619125,500541
1261.41,0.092530,624551,504705
1264.86,0.093677,629900,507685
1268.31,0.093612,634345,511344
1271.75,0.094601,638574,513582
1276.33,0.094741,642499,516573
1279.76,0.094707,645905,519352
1283.19,0.094302,648307,521770
1286.61,0.093795,650446,524103
1290.03,0.093306,652132,526053
1293.44,0.092961,653907,527904
1296.85,0.092485,655963,530144
1301.39,0.092204,657349,531609
1304.8,0.092553,657558,531350
1308.19,0.092389,658515,532325
1311.58,0.092749,658804,532117
1314.97,0.093063,659011,531900
1318.36,0.093570,658272,530683
1321.73,0.093857,658022,530131
1326.23,0.094729,657870,528946
1329.6,0.095266,656482,527177
1332.97,0.096220,654926,524774
1336.33,0.097500,653727,522272
1339.69,0.098830,652497,519695
1343.04,0.099966,649913,516285
1346.39,0.101997,647671,512103
1349.73,0.104097,645338,507797
1354.18,0.106856,641175,501326
1357.52,0.109080,638376,496588
1360.85,0.111036,635805,492366
1364.17,0.112640,633413,488705
1367.49,0.114774,631026,484477
1370.81,0.117226,628050,479478
1374.12,0.119224,625034,474985
1378.54,0.122006,620272,468356
1381.84,0.125026,616892,462576
1385.14,0.128334,613613,456626
1388.43,0.131802,611526,451453
1391.72,0.135849,610663,446635
1395.01,0.140033,610634,442332
1398.29,0.144252,611700,438820
1402.66,0.150544,614051,434171
1405.93,0.155598,616268,430697
1409.2,0.160077,617795,427334
1412.46,0.164253,618872,423982
1415.72,0.168699,619795,420290
1418.98,0.171755,620495,417814
1422.23,0.175177,621087,414931
1426.56,0.178962,621375,411521
1429.8,0.181784,621616,409014
1433.04,0.183927,622129,407337
1436.27,0.186188,621526,404829
1439.5,0.188121,621113,402763
1442.72,0.191132,620921,399857
1445.94,0.193169,620270,397568
1450.23,0.196788,618860,393373
1453.44,0.199100,617697,390549
1456.64,0.202449,616264,386650
1459.85,0.204590,614413,383593
1463.04,0.207802,612307,379461
1466.24,0.211536,610032,374815
1469.43,0.214910,607345,370276
1473.67,0.221388,603789,362658
1476.85,0.226414,601175,356933
1480.02,0.232878,597737,349649
1483.19,0.239164,594479,342746
1486.36,0.244950,591232,336363
1489.52,0.249849,587853,330689
1492.68,0.253002,583875,326075
1496.89,0.255472,578062,320998
1500.03,0.256136,574159,318344
1503.18,0.255916,570285,316356
1506.32,0.255392,565444,314049
1509.45,0.253688,560571,312567
1512.58,0.252330,555821,310889
1515.71,0.249710,550344,309688
1519.87,0.246427,543983,308431
1522.99,0.244008,538764,307178
1526.1,0.241774,533692,305856
1529.21,0.238872,527902,304566
1532.32,0.236190,521886,302960
1535.42,0.233611,515888,301262
1538.51,0.230253,509987,300128
1541.6,0.227281,503936,298603
1545.72,0.222494,494694,296376
1548.8,0.221002,488378,293599
1551.88,0.218448,481832,291372
1554.95,0.216156,474989,288754
1558.02,0.214685,467818,285359
1561.08,0.213344,460730,281905
1564.15,0.212839,454170,278214
1568.22,0.212329,444181,272415
1571.27,0.211069,436947,268757
1574.32,0.210824,429598,264386
1577.36,0.209493,422039,260531
1580.4,0.208024,414375,256667
1583.43,0.206091,406354,252821
1586.46,0.205344,398475,248346
1590.49,0.203720,388982,243338
1593.51,0.201297,380708,239494
1596.53,0.199418,372727,235490
1599.54,0.198010,365060,231395
1602.55,0.195529,357543,227929
1605.55,0.193338,349495,223925
1608.55,0.192112,341154,219199
1612.54,0.190472,330877,213400
1615.53,0.188151,322904,209374
1618.51,0.188342,315116,204234
1621.49,0.186020,307217,200182
1624.47,0.185229,299481,195497
1627.44,0.184527,292112,190995
1630.41,0.182774,284245,186603
1634.36,0.181964,274079,180265
1637.32,0.182466,266916,175351
1640.27,0.180727,259612,171237
1643.22,0.179857,251804,166420
1646.16,0.179471,244348,161636
1649.1,0.177682,236703,157225
1652.04,0.176425,228171,151997
1655.95,0.172919,215408,144658
1658.88,0.168824,204937,138930
1661.8,0.164744,193395,132343
1664.72,0.157119,179728,125169
1667.63,0.144201,163642,117407
1670.54,0.130387,146312,108366
1673.44,0.114011,128451,98793
1677.31,0.094406,105080,84550
1680.21,0.081104,88906,73761
1683.1,0.076250,75033,62951
1685.99,0.076509,63520,53260
1688.87,0.079052,53714,44775
1691.75,0.087028,45653,37363
1694.62,0.091446,39137,31706
1697.49,0.096425,33776,27051
1701.31,0.106849,28175,22030