File: samples/wool/wool-000811/Column 1_050583_20150331_121539.csv
Method:,Column 1,,
Host Date-Time:,31/3/15 @ 12:15:39,,
Header Version:,1,,
System Temp (C):,33.76,,
Detector Temp (C):,34.51,,
Humidity (%):,1.91,,
Lamp PD:,3818,,
Shift Vector Coefficients:,-10.5391,0.0761263,-0.000134223,,
Pixel to Wavelength Coefficients:,1775.68,-0.916766,-0.000235065,,
Serial Number:,5510004,,
Scan Config Name:,Column 1,,
Scan Config Type:,Slew,,
Section 1,,
Start wavelength (nm):,900,,
End wavelength (nm):,1700,,
Pattern Pixel Width (nm):,   7.03,,,,
Exposure (ms):,  0.635,,,,
Digital Resolution:,228,,
Num Repeats:,6,,
PGA Gain:,64,,
Total Measurement Time in sec:,  2.670,,
Wavelength (nm),Absorbance (AU),Reference Signal (unitless),Sample Signal (unitless)
901.51,0.069651,108485,92410
905.376,0.077036,121306,101589
909.237,0.078696,131909,110047
913.095,0.080113,143299,119160
916.948,0.080263,156982,130493
922.079,0.081547,179937,149133
925.923,0.083806,200504,165317
929.762,0.083386,222660,183762
933.597,0.083775,244426,201545
937.427,0.083101,263972,218000
941.254,0.082474,281845,233097
945.076,0.081420,297271,246452
950.165,0.080780,315605,262038
953.978,0.080276,328029,272669
957.786,0.079881,340470,283268
961.59,0.080453,352317,292739
965.389,0.080096,363056,301910
969.185,0.080260,373162,310197
972.976,0.080114,382632,318176
976.763,0.081014,391202,324629
981.806,0.081230,400190,331922
985.583,0.081880,406088,336310
989.355,0.082450,410162,339239
993.124,0.082795,412868,341206
996.888,0.083682,414263,341660
1000.65,0.083860,415476,342520
1004.4,0.085090,415479,341554
1009.41,0.087118,414358,339045
1013.15,0.086387,412923,338440
1016.89,0.087596,411526,336358
1020.63,0.087339,409066,334545
1024.36,0.087676,406777,332415
1028.09,0.087437,404427,330676
1031.82,0.086985,401911,328961
1036.78,0.087110,398410,326002
1040.49,0.086586,396204,324588
1044.2,0.086329,394236,323167
1047.91,0.086314,392042,321380
1051.61,0.085650,389823,320050
1055.31,0.084676,388234,319461
1059,0.084913,387599,318764
1063.92,0.083296,386688,319201
1067.61,0.083387,386598,319060
1071.29,0.083128,387377,319894
1074.96,0.082722,388536,321151
1078.63,0.082118,389855,322690
1082.3,0.081633,391215,324177
1085.96,0.080407,393215,326756
1090.84,0.079539,396270,329953
1094.49,0.079099,398760,332363
1098.14,0.079162,400987,334171
1101.79,0.078489,403477,336767
1105.43,0.077631,406116,339640
1109.06,0.077354,407701,341183
1112.7,0.077150,409859,343150
1117.53,0.076933,412494,345529
1121.15,0.077633,414909,346992
1124.77,0.076830,416559,349017
1128.38,0.078295,418532,349489
1131.99,0.079532,419956,349681
1135.6,0.080429,421946,350613
1139.2,0.081916,423881,351017
1143.99,0.083526,426786,352115
1147.58,0.085130,428617,352322
1151.17,0.085814,431169,353862
1154.75,0.087025,433579,354849
1158.33,0.088451,436264,355876
1161.91,0.090242,439132,356741
1165.48,0.091878,442389,358036
1169.04,0.094747,446101,358663
1173.79,0.097695,451929,360890
1177.34,0.100162,456026,362099
1180.9,0.101812,461306,364903
1184.44,0.103162,467657,368778
1187.99,0.104708,473969,372428
1191.52,0.104360,479856,377356
1195.06,0.104517,487372,383128
1199.76,0.104331,497347,391137
1203.29,0.102750,504311,398060
1206.81,0.102527,511507,403947
1210.33,0.102237,519078,410200
1213.84,0.101404,527163,417389
1217.35,0.100714,534208,423639
1220.85,0.100079,540472,429234
1225.51,0.099007,549929,437824
1229.01,0.099128,556888,443241
1232.5,0.098534,562180,448065
1235.98,0.097896,567975,453350
1239.46,0.097162,574815,459585
1242.94,0.095865,582782,467349
1246.41,0.095544,591476,474671
1251.03,0.094854,604016,485506
1254.5,0.095003,612289,491987
1257.96,0.095506,619125,496904
1261.41,0.096150,624551,500516
1264.86,0.096813,629900,504032
1268.31,0.097273,634345,507052
1271.75,0.098505,638574,508986
1276.33,0.097977,642499,512738
1279.76,0.098017,645905,515408
1283.19,0.097357,648307,518112
1286.61,0.097357,650446,519822
1290.03,0.097225,652132,521327
1293.44,0.096176,653907,524010
1296.85,0.096254,655963,525564
1301.39,0.096112,657349,526846
1304.8,0.096031,657558,527112
1308.19,0.096127,658515,527763
1311.58,0.096172,658804,527939
1314.97,0.097032,659011,527061
1318.36,0.097132,658272,526349
1321.73,0.097923,658022,525191
1326.23,0.098741,657870,524082
1329.6,0.099368,656482,522221
1332.97,0.100710,654926,519377
1336.33,0.101495,653727,517489
1339.69,0.103319,652497,514351
1343.04,0.104933,649913,510414
1346.39,0.106743,647671,506537
1349.73,0.108741,645338,502396
1354.18,0.112020,641175,495401
1357.52,0.114288,638376,490669
1360.85,0.116111,635805,486646
1364.17,0.118125,633413,482572
1367.49,0.119951,631026,478736
1370.81,0.122443,628050,473752
1374.12,0.124805,625034,468920
1378.54,0.127411,620272,462563
1381.84,0.130722,616892,456549
1385.14,0.135324,613613,449335
1388.43,0.138741,611526,444298
1391.72,0.143725,610663,438608
1395.01,0.148449,610634,433842
1398.29,0.153720,611700,429357
1402.66,0.161397,614051,423455
1405.93,0.166803,616268,419727
1409.2,0.171698,617795,416051
1412.46,0.177178,618872,411550
1415.72,0.181520,619795,408064
1418.98,0.185453,620495,404842
1422.23,0.189017,621087,401916
1426.56,0.193196,621375,398252
1429.8,0.196445,621616,395437
1433.04,0.198307,622129,394070
1436.27,0.201047,621526,391212
1439.5,0.202904,621113,389284
1442.72,0.205842,620921,386540
1445.94,0.207769,620270,384425
1450.23,0.210869,618860,380823
1453.44,0.213625,617697,377703
1456.64,0.215857,616264,374895
1459.85,0.218792,614413,371252
1463.04,0.221363,612307,367795
1466.24,0.224322,610032,363941
1469.43,0.227959,607345,359316
1473.67,0.232957,603789,353125
1476.85,0.237614,601175,347846
1480.02,0.242711,597737,341821
1483.19,0.248892,594479,335154
1486.36,0.253996,591232,329429
1489.52,0.258405,587853,324238
1492.68,0.260966,583875,320150
1496.89,0.262687,578062,315709
1500.03,0.263663,574159,312874
1503.18,0.263227,570285,311075
1506.32,0.262767,565444,308761
1509.45,0.261221,560571,307192
1512.58,0.259561,555821,305755
1515.71,0.257601,550344,304112
1519.87,0.254533,543983,302728
1522.99,0.252536,538764,301205
1526.1,0.249973,533692,300136
1529.21,0.247288,527902,298721
1532.32,0.243970,521886,297581
1535.42,0.241025,515888,296163
1538.51,0.238085,509987,294764
1541.6,0.236175,503936,292550
1545.72,0.231469,494694,290314
1548.8,0.228948,488378,288276
1551.88,0.226935,481832,285733
1554.95,0.224288,474989,283397
1558.02,0.223048,467818,279917
1561.08,0.221398,460730,276725
1564.15,0.221145,454170,272944
1568.22,0.219543,444181,267927
1571.27,0.218904,436947,263952
1574.32,0.218169,429598,259952
1577.36,0.216731,422039,256225
1580.4,0.215294,414375,252406
1583.43,0.213853,406354,248343
1586.46,0.212259,398475,244423
1590.49,0.210954,388982,239318
1593.51,0.207535,380708,236079
1596.53,0.207003,372727,231413
1599.54,0.204405,365060,228013
1602.55,0.203109,357543,223985
1605.55,0.200734,349495,220144
1608.55,0.198334,341154,216081
1612.54,0.196904,330877,210263
1615.53,0.194953,322904,206120
1618.51,0.194109,315116,201540
1621.49,0.192774,307217,197093
1624.47,0.191562,299481,192667
1627.44,0.189837,292112,188674
1630.41,0.188889,284245,183994
1634.36,0.188049,274079,177757
1637.32,0.186832,266916,173597
1640.27,0.186837,259612,168845
1643.22,0.184572,251804,164623
1646.16,0.185433,244348,159432
1649.1,0.184169,236703,154894
1652.04,0.183146,228171,149663
1655.95,0.179212,215408,142577
1658.88,0.177415,204937,136209
1661.8,0.171251,193395,130375
1664.72,0.164093,179728,123175
1667.63,0.150881,163642,115615
1670.54,0.136729,146312,106795
1673.44,0.121979,128451,96997
1677.31,0.103338,105080,82829
1680.21,0.091743,88906,71976
1683.1,0.088458,75033,61206
1685.99,0.087710,63520,51904
1688.87,0.094916,53714,43169
1691.75,0.098559,45653,36384
1694.62,0.100820,39137,31029
1697.49,0.097647,33776,26975
1701.31,0.118396,28175,21452