File: samples/wool/wool-000811/Column 1_050620_20150331_123257.csv
Method:,Column 1,,
Host Date-Time:,31/3/15 @ 12:32:57,,
Header Version:,1,,
System Temp (C):,34.12,,
Detector Temp (C):,34.97,,
Humidity (%):,1.66,,
Lamp PD:,3818,,
Shift Vector Coefficients:,-10.5391,0.0761263,-0.000134223,,
Pixel to Wavelength Coefficients:,1775.68,-0.916766,-0.000235065,,
Serial Number:,5510004,,
Scan Config Name:,Column 1,,
Scan Config Type:,Slew,,
Section 1,,
Start wavelength (nm):,900,,
End wavelength (nm):,1700,,
Pattern Pixel Width (nm):,   7.03,,,,
Exposure (ms):,  0.635,,,,
Digital Resolution:,228,,
Num Repeats:,6,,
PGA Gain:,64,,
Total Measurement Time in sec:,  2.719,,
Wavelength (nm),Absorbance (AU),Reference Signal (unitless),Sample Signal (unitless)
901.51,0.069519,108485,92438
905.376,0.075687,121306,101905
909.237,0.079107,131909,109943
913.095,0.078937,143299,119483
916.948,0.079724,156982,130655
922.079,0.080657,179937,149439
925.923,0.081727,200504,166110
929.762,0.082400,222660,184180
933.597,0.082521,244426,202128
937.427,0.081783,263972,218663
941.254,0.080570,281845,234121
945.076,0.079972,297271,247275
950.165,0.079162,315605,263016
953.978,0.077549,328029,274387
957.786,0.077743,340470,284666
961.59,0.078132,352317,294308
965.389,0.077908,363056,303435
969.185,0.078180,373162,311686
972.976,0.078491,382632,319367
976.763,0.079016,391202,326126
981.806,0.078871,400190,333730
985.583,0.079326,406088,338294
989.355,0.079815,410162,341303
993.124,0.080560,412868,342966
996.888,0.081047,414263,343739
1000.65,0.081793,415476,344154
1004.4,0.082534,415479,343570
1009.41,0.084157,414358,341365
1013.15,0.085015,412923,339511
1016.89,0.085418,411526,338049
1020.63,0.084821,409066,336490
1024.36,0.085268,406777,334263
1028.09,0.084947,404427,332578
1031.82,0.084651,401911,330734
1036.78,0.084070,398410,328292
1040.49,0.083662,396204,326781
1044.2,0.083984,394236,324917
1047.91,0.084075,392042,323041
1051.61,0.083807,389823,321411
1055.31,0.082989,388234,320704
1059,0.082780,387599,320334
1063.92,0.081930,386688,320207
1067.61,0.080748,386598,321005
1071.29,0.080416,387377,321898
1074.96,0.080004,388536,323167
1078.63,0.079382,389855,324729
1082.3,0.077584,391215,327214
1085.96,0.077517,393215,328937
1090.84,0.076663,396270,332145
1094.49,0.076061,398760,334696
1098.14,0.075333,400987,337130
1101.79,0.075399,403477,339172
1105.43,0.074907,406116,341777
1109.06,0.074099,407701,343750
1112.7,0.073521,409859,346030
1117.53,0.073368,412494,348377
1121.15,0.073926,414909,349967
1124.77,0.074063,416559,351248
1128.38,0.074782,418532,352328
1131.99,0.076569,419956,352075
1135.6,0.077205,421946,353225
1139.2,0.078740,423881,353593
1143.99,0.080383,426786,354672
1147.58,0.081447,428617,355322
1151.17,0.082041,431169,356949
1154.75,0.083413,433579,357812
1158.33,0.084683,436264,358977
1161.91,0.086658,439132,359697
1165.48,0.088487,442389,360842
1169.04,0.090032,446101,362578
1173.79,0.094145,451929,363852
1177.34,0.096102,456026,365500
1180.9,0.098595,461306,367616
1184.44,0.100389,467657,371141
1187.99,0.101228,473969,375424
1191.52,0.101668,479856,379702
1195.06,0.100698,487372,386512
1199.76,0.100431,497347,394665
1203.29,0.099622,504311,400937
1206.81,0.099351,511507,406912
1210.33,0.098389,519078,413851
1213.84,0.097882,527163,420788
1217.35,0.097587,534208,426701
1220.85,0.097258,540472,432031
1225.51,0.095507,549929,441367
1229.01,0.095512,556888,446947
1232.5,0.094418,562180,452332
1235.98,0.094327,567975,457091
1239.46,0.092934,574815,464081
1242.94,0.092155,582782,471358
1246.41,0.091269,591476,479367
1251.03,0.091403,604016,489379
1254.5,0.091729,612289,495710
1257.96,0.092203,619125,500697
1261.41,0.092560,624551,504671
1264.86,0.092941,629900,508546
1268.31,0.093558,634345,511408
1271.75,0.094102,638574,514173
1276.33,0.094326,642499,517066
1279.76,0.094141,645905,520029
1283.19,0.093810,648307,522361
1286.61,0.093243,650446,524769
1290.03,0.093061,652132,526350
1293.44,0.093098,653907,527738
1296.85,0.092618,655963,529982
1301.39,0.091766,657349,532145
1304.8,0.092072,657558,531939
1308.19,0.092315,658515,532416
1311.58,0.092111,658804,532900
1314.97,0.092466,659011,532631
1318.36,0.093109,658272,531247
1321.73,0.093474,658022,530599
1326.23,0.094161,657870,529638
1329.6,0.095046,656482,527445
1332.97,0.095510,654926,525632
1336.33,0.096278,653727,523743
1339.69,0.097947,652497,520753
1343.04,0.099455,649913,516893
1346.39,0.101284,647671,512945
1349.73,0.103361,645338,508659
1354.18,0.106162,641175,502128
1357.52,0.108227,638376,497565
1360.85,0.109992,635805,493551
1364.17,0.111935,633413,489499
1367.49,0.114306,631026,485000
1370.81,0.116191,628050,480621
1374.12,0.118224,625034,476080
1378.54,0.121138,620272,469293
1381.84,0.124038,616892,463630
1385.14,0.127233,613613,457785
1388.43,0.130763,611526,452535
1391.72,0.134548,610663,447975
1395.01,0.138232,610634,444170
1398.29,0.142809,611700,440281
1402.66,0.148717,614051,436001
1405.93,0.153124,616268,433157
1409.2,0.157829,617795,429552
1412.46,0.161656,618872,426525
1415.72,0.165754,619795,423150
1418.98,0.169048,620495,420427
1422.23,0.172428,621087,417565
1426.56,0.176237,621375,414111
1429.8,0.178879,621616,411759
1433.04,0.181322,622129,409787
1436.27,0.183291,621526,407538
1439.5,0.185017,621113,405652
1442.72,0.187927,620921,402818
1445.94,0.189957,620270,400520
1450.23,0.194241,618860,395687
1453.44,0.196559,617697,392841
1456.64,0.199700,616264,389105
1459.85,0.202329,614413,385595
1463.04,0.205040,612307,381882
1466.24,0.208735,610032,377240
1469.43,0.212750,607345,372122
1473.67,0.219340,603789,364372
1476.85,0.224940,601175,358147
1480.02,0.231290,597737,350930
1483.19,0.238033,594479,343640
1486.36,0.243869,591232,337201
1489.52,0.249012,587853,331327
1492.68,0.252110,583875,326746
1496.89,0.255087,578062,321283
1500.03,0.255150,574159,319067
1503.18,0.255068,570285,316974
1506.32,0.254353,565444,314801
1509.45,0.252496,560571,313426
1512.58,0.251296,555821,311630
1515.71,0.248683,550344,310421
1519.87,0.246422,543983,308435
1522.99,0.243941,538764,307226
1526.1,0.240785,533692,306553
1529.21,0.237891,527902,305255
1532.32,0.235295,521886,303585
1535.42,0.232337,515888,302147
1538.51,0.229748,509987,300477
1541.6,0.226735,503936,298979
1545.72,0.221747,494694,296886
1548.8,0.219573,488378,294566
1551.88,0.216556,481832,292644
1554.95,0.215128,474989,289438
1558.02,0.213819,467818,285929
1561.08,0.212304,460730,282581
1564.15,0.212028,454170,278734
1568.22,0.210774,444181,273392
1571.27,0.210513,436947,269101
1574.32,0.209956,429598,264915
1577.36,0.208388,422039,261195
1580.4,0.207564,414375,256939
1583.43,0.206253,406354,252727
1586.46,0.204085,398475,249067
1590.49,0.202371,388982,244095
1593.51,0.199876,380708,240279
1596.53,0.198904,372727,235769
1599.54,0.196435,365060,232236
1602.55,0.194841,357543,228290
1605.55,0.192625,349495,224293
1608.55,0.190887,341154,219818
1612.54,0.188525,330877,214359
1615.53,0.187266,322904,209801
1618.51,0.186369,315116,205164
1621.49,0.185411,307217,200463
1624.47,0.183836,299481,196125
1627.44,0.182995,292112,191670
1630.41,0.181851,284245,187000
1634.36,0.181695,274079,180377
1637.32,0.180924,266916,175975
1640.27,0.179362,259612,171776
1643.22,0.178755,251804,166843
1646.16,0.179632,244348,161576
1649.1,0.176284,236703,157732
1652.04,0.175746,228171,152235
1655.95,0.173142,215408,144584
1658.88,0.169829,204937,138609
1661.8,0.162920,193395,132900
1664.72,0.154897,179728,125811
1667.63,0.143838,163642,117505
1670.54,0.129890,146312,108490
1673.44,0.111797,128451,99298
1677.31,0.091162,105080,85184
1680.21,0.082981,88906,73443
1683.1,0.076043,75033,62981
1685.99,0.077456,63520,53144
1688.87,0.078180,53714,44865
1691.75,0.082357,45653,37767
1694.62,0.083815,39137,32268
1697.49,0.092287,33776,27310
1701.31,0.098802,28175,22442