File: samples/wool/wool-000811/Column 1_050615_20150331_123034.csv
Method:,Column 1,,
Host Date-Time:,31/3/15 @ 12:30:34,,
Header Version:,1,,
System Temp (C):,34.08,,
Detector Temp (C):,34.93,,
Humidity (%):,1.66,,
Lamp PD:,3818,,
Shift Vector Coefficients:,-10.5391,0.0761263,-0.000134223,,
Pixel to Wavelength Coefficients:,1775.68,-0.916766,-0.000235065,,
Serial Number:,5510004,,
Scan Config Name:,Column 1,,
Scan Config Type:,Slew,,
Section 1,,
Start wavelength (nm):,900,,
End wavelength (nm):,1700,,
Pattern Pixel Width (nm):,   7.03,,,,
Exposure (ms):,  0.635,,,,
Digital Resolution:,228,,
Num Repeats:,6,,
PGA Gain:,64,,
Total Measurement Time in sec:,  2.674,,
Wavelength (nm),Absorbance (AU),Reference Signal (unitless),Sample Signal (unitless)
901.51,0.067798,108485,92805
905.376,0.074117,121306,102274
909.237,0.076245,131909,110670
913.095,0.078857,143299,119505
916.948,0.077235,156982,131406
922.079,0.080520,179937,149486
925.923,0.081853,200504,166062
929.762,0.082784,222660,184017
933.597,0.081948,244426,202395
937.427,0.080313,263972,219404
941.254,0.079892,281845,234487
945.076,0.078939,297271,247864
950.165,0.078090,315605,263666
953.978,0.077212,328029,274600
957.786,0.077473,340470,284843
961.59,0.077390,352317,294811
965.389,0.076889,363056,304148
969.185,0.078391,373162,311535
972.976,0.077832,382632,319852
976.763,0.077813,391202,327030
981.806,0.078656,400190,333895
985.583,0.079114,406088,338459
989.355,0.080206,410162,340996
993.124,0.080073,412868,343351
996.888,0.081037,414263,343747
1000.65,0.081407,415476,344460
1004.4,0.082455,415479,343632
1009.41,0.084201,414358,341330
1013.15,0.084252,412923,340108
1016.89,0.085283,411526,338154
1020.63,0.084147,409066,337013
1024.36,0.084340,406777,334978
1028.09,0.084152,404427,333187
1031.82,0.083855,401911,331341
1036.78,0.083727,398410,328551
1040.49,0.083775,396204,326696
1044.2,0.084081,394236,324844
1047.91,0.083407,392042,323538
1051.61,0.083362,389823,321740
1055.31,0.082457,388234,321097
1059,0.082875,387599,320264
1063.92,0.081357,386688,320630
1067.61,0.080672,386598,321061
1071.29,0.080453,387377,321870
1074.96,0.079507,388536,323537
1078.63,0.079450,389855,324678
1082.3,0.078506,391215,326520
1085.96,0.077000,393215,329329
1090.84,0.076318,396270,332409
1094.49,0.075820,398760,334882
1098.14,0.075545,400987,336965
1101.79,0.074852,403477,339599
1105.43,0.074618,406116,342005
1109.06,0.073429,407701,344281
1112.7,0.073491,409859,346054
1117.53,0.073515,412494,348259
1121.15,0.073223,414909,350534
1124.77,0.074277,416559,351075
1128.38,0.074470,418532,352581
1131.99,0.075817,419956,352685
1135.6,0.077073,421946,353333
1139.2,0.078360,423881,353903
1143.99,0.080714,426786,354402
1147.58,0.081667,428617,355142
1151.17,0.082017,431169,356969
1154.75,0.082562,433579,358514
1158.33,0.083589,436264,359882
1161.91,0.086360,439132,359944
1165.48,0.088664,442389,360695
1169.04,0.090325,446101,362333
1173.79,0.093772,451929,364165
1177.34,0.095550,456026,365965
1180.9,0.097878,461306,368223
1184.44,0.099679,467657,371748
1187.99,0.101185,473969,375461
1191.52,0.099976,479856,381184
1195.06,0.100672,487372,386535
1199.76,0.100627,497347,394487
1203.29,0.099539,504311,401014
1206.81,0.098979,511507,407261
1210.33,0.098113,519078,414114
1213.84,0.097592,527163,421069
1217.35,0.097228,534208,427054
1220.85,0.096156,540472,433129
1225.51,0.095560,549929,441313
1229.01,0.095667,556888,446787
1232.5,0.094703,562180,452035
1235.98,0.094145,567975,457282
1239.46,0.092880,574815,464139
1242.94,0.092107,582782,471410
1246.41,0.091798,591476,478783
1251.03,0.091158,604016,489655
1254.5,0.091653,612289,495796
1257.96,0.091994,619125,500938
1261.41,0.092345,624551,504920
1264.86,0.093071,629900,508394
1268.31,0.093384,634345,511613
1271.75,0.093931,638574,514375
1276.33,0.094263,642499,517142
1279.76,0.094055,645905,520132
1283.19,0.093739,648307,522446
1286.61,0.093344,650446,524647
1290.03,0.093189,652132,526195
1293.44,0.092100,653907,528952
1296.85,0.092202,655963,530490
1301.39,0.092096,657349,531741
1304.8,0.091926,657558,532118
1308.19,0.092028,658515,532767
1311.58,0.092201,658804,532789
1314.97,0.092566,659011,532509
1318.36,0.092838,658272,531578
1321.73,0.093183,658022,530955
1326.23,0.093995,657870,529841
1329.6,0.094753,656482,527801
1332.97,0.096000,654926,525040
1336.33,0.096390,653727,523608
1339.69,0.098085,652497,520587
1343.04,0.099302,649913,517075
1346.39,0.101361,647671,512854
1349.73,0.103393,645338,508621
1354.18,0.106299,641175,501970
1357.52,0.107752,638376,498109
1360.85,0.109833,635805,493732
1364.17,0.112051,633413,489368
1367.49,0.114473,631026,484813
1370.81,0.116456,628050,480328
1374.12,0.118582,625034,475687
1378.54,0.121397,620272,469013
1381.84,0.124025,616892,463643
1385.14,0.127264,613613,457752
1388.43,0.130875,611526,452418
1391.72,0.134354,610663,448175
1395.01,0.138606,610634,443787
1398.29,0.143153,611700,439932
1402.66,0.149138,614051,435579
1405.93,0.154060,616268,432225
1409.2,0.159021,617795,428374
1412.46,0.162487,618872,425710
1415.72,0.166410,619795,422511
1418.98,0.170384,620495,419135
1422.23,0.173168,621087,416854
1426.56,0.176864,621375,413514
1429.8,0.179525,621616,411147
1433.04,0.181493,622129,409626
1436.27,0.184190,621526,406695
1439.5,0.185903,621113,404825
1442.72,0.188747,620921,402059
1445.94,0.191317,620270,399267
1450.23,0.194587,618860,395372
1453.44,0.197201,617697,392260
1456.64,0.200617,616264,388284
1459.85,0.203003,614413,384997
1463.04,0.206169,612307,380891
1466.24,0.209347,610032,376709
1469.43,0.212685,607345,372178
1473.67,0.219550,603789,364196
1476.85,0.225976,601175,357293
1480.02,0.231626,597737,350658
1483.19,0.238305,594479,343425
1486.36,0.244633,591232,336608
1489.52,0.249294,587853,331112
1492.68,0.252622,583875,326361
1496.89,0.254502,578062,321716
1500.03,0.254937,574159,319224
1503.18,0.254916,570285,317085
1506.32,0.253774,565444,315221
1509.45,0.252275,560571,313585
1512.58,0.251236,555821,311673
1515.71,0.248689,550344,310417
1519.87,0.245340,543983,309204
1522.99,0.243227,538764,307731
1526.1,0.240709,533692,306607
1529.21,0.238014,527902,305168
1532.32,0.235503,521886,303440
1535.42,0.232168,515888,302265
1538.51,0.228988,509987,301003
1541.6,0.226793,503936,298939
1545.72,0.221646,494694,296955
1548.8,0.218816,488378,295080
1551.88,0.217049,481832,292312
1554.95,0.214954,474989,289554
1558.02,0.214063,467818,285768
1561.08,0.212559,460730,282415
1564.15,0.211403,454170,279136
1568.22,0.211114,444181,273178
1571.27,0.210307,436947,269229
1574.32,0.209600,429598,265132
1577.36,0.208366,422039,261208
1580.4,0.207270,414375,257113
1583.43,0.205928,406354,252916
1586.46,0.204050,398475,249087
1590.49,0.202663,388982,243931
1593.51,0.199903,380708,240264
1596.53,0.198952,372727,235743
1599.54,0.197455,365060,231691
1602.55,0.194938,357543,228239
1605.55,0.192557,349495,224328
1608.55,0.190050,341154,220242
1612.54,0.188094,330877,214572
1615.53,0.187365,322904,209753
1618.51,0.185733,315116,205465
1621.49,0.184978,307217,200663
1624.47,0.183433,299481,196307
1627.44,0.183247,292112,191559
1630.41,0.181719,284245,187057
1634.36,0.181581,274079,180424
1637.32,0.181198,266916,175864
1640.27,0.178703,259612,172037
1643.22,0.178536,251804,166927
1646.16,0.177142,244348,162505
1649.1,0.178445,236703,156949
1652.04,0.176151,228171,152093
1655.95,0.171717,215408,145059
1658.88,0.167626,204937,139314
1661.8,0.162613,193395,132994
1664.72,0.153863,179728,126111
1667.63,0.142930,163642,117751
1670.54,0.128919,146312,108733
1673.44,0.111316,128451,99408
1677.31,0.092433,105080,84935
1680.21,0.077638,88906,74352
1683.1,0.073430,75033,63361
1685.99,0.076102,63520,53310
1688.87,0.078713,53714,44810
1691.75,0.075931,45653,38330
1694.62,0.080718,39137,32499
1697.49,0.089244,33776,27502
1701.31,0.092386,28175,22776