File: samples/wool/wool-000811/Column 1_050597_20150331_122224.csv
Method:,Column 1,,
Host Date-Time:,31/3/15 @ 12:22:24,,
Header Version:,1,,
System Temp (C):,33.94,,
Detector Temp (C):,34.72,,
Humidity (%):,1.76,,
Lamp PD:,3818,,
Shift Vector Coefficients:,-10.5391,0.0761263,-0.000134223,,
Pixel to Wavelength Coefficients:,1775.68,-0.916766,-0.000235065,,
Serial Number:,5510004,,
Scan Config Name:,Column 1,,
Scan Config Type:,Slew,,
Section 1,,
Start wavelength (nm):,900,,
End wavelength (nm):,1700,,
Pattern Pixel Width (nm):,   7.03,,,,
Exposure (ms):,  0.635,,,,
Digital Resolution:,228,,
Num Repeats:,6,,
PGA Gain:,64,,
Total Measurement Time in sec:,  2.669,,
Wavelength (nm),Absorbance (AU),Reference Signal (unitless),Sample Signal (unitless)
901.51,0.069425,108485,92458
905.376,0.073833,121306,102341
909.237,0.077482,131909,110355
913.095,0.076451,143299,120169
916.948,0.079737,156982,130651
922.079,0.079977,179937,149673
925.923,0.081385,200504,166241
929.762,0.082888,222660,183973
933.597,0.081905,244426,202415
937.427,0.081237,263972,218938
941.254,0.080626,281845,234091
945.076,0.079742,297271,247406
950.165,0.078860,315605,263199
953.978,0.077913,328029,274157
957.786,0.078667,340470,284061
961.59,0.078073,352317,294348
965.389,0.078005,363056,303367
969.185,0.078490,373162,311464
972.976,0.078633,382632,319263
976.763,0.079350,391202,325875
981.806,0.079542,400190,333215
985.583,0.080474,406088,337401
989.355,0.080466,410162,340792
993.124,0.080594,412868,342939
996.888,0.081685,414263,343235
1000.65,0.082246,415476,343795
1004.4,0.083700,415479,342649
1009.41,0.085010,414358,340695
1013.15,0.085968,412923,338767
1016.89,0.085491,411526,337992
1020.63,0.085430,409066,336019
1024.36,0.085258,406777,334271
1028.09,0.085305,404427,332304
1031.82,0.084626,401911,330753
1036.78,0.085180,398410,327454
1040.49,0.084755,396204,325960
1044.2,0.084496,394236,324534
1047.91,0.084261,392042,322903
1051.61,0.083993,389823,321273
1055.31,0.083503,388234,320325
1059,0.082907,387599,320240
1063.92,0.081668,386688,320400
1067.61,0.081376,386598,320541
1071.29,0.080943,387377,321507
1074.96,0.080531,388536,322775
1078.63,0.080625,389855,323801
1082.3,0.079852,391215,325509
1085.96,0.078224,393215,328402
1090.84,0.077851,396270,331238
1094.49,0.077518,398760,333575
1098.14,0.076238,400987,336428
1101.79,0.076589,403477,338244
1105.43,0.075723,406116,341136
1109.06,0.075145,407701,342923
1112.7,0.074218,409859,345475
1117.53,0.074600,412494,347390
1121.15,0.075361,414909,348812
1124.77,0.074976,416559,350510
1128.38,0.076405,418532,351013
1131.99,0.076391,419956,352219
1135.6,0.078513,421946,352163
1139.2,0.079952,423881,352608
1143.99,0.082102,426786,353271
1147.58,0.082856,428617,354171
1151.17,0.083505,431169,355748
1154.75,0.084270,433579,357107
1158.33,0.085863,436264,358003
1161.91,0.087438,439132,359052
1165.48,0.089531,442389,359976
1169.04,0.091779,446101,361122
1173.79,0.095191,451929,362977
1177.34,0.097302,456026,364492
1180.9,0.099396,461306,366938
1184.44,0.101099,467657,370534
1187.99,0.101796,473969,374933
1191.52,0.101839,479856,379553
1195.06,0.102122,487372,385246
1199.76,0.101352,497347,393829
1203.29,0.100984,504311,399682
1206.81,0.100635,511507,405711
1210.33,0.099690,519078,412613
1213.84,0.099174,527163,419538
1217.35,0.098925,534208,425388
1220.85,0.098222,540472,431073
1225.51,0.096716,549929,440140
1229.01,0.096769,556888,445655
1232.5,0.095805,562180,450890
1235.98,0.095210,567975,456162
1239.46,0.094584,574815,462321
1242.94,0.093940,582782,469425
1246.41,0.092854,591476,477621
1251.03,0.092444,604016,488208
1254.5,0.092848,612289,494434
1257.96,0.093333,619125,499396
1261.41,0.094206,624551,502761
1264.86,0.094618,629900,506587
1268.31,0.095018,634345,509692
1271.75,0.095705,638574,512279
1276.33,0.095621,642499,515527
1279.76,0.095673,645905,518198
1283.19,0.095133,648307,520772
1286.61,0.094563,650446,523177
1290.03,0.094397,652132,524733
1293.44,0.094285,653907,526297
1296.85,0.093631,655963,528747
1301.39,0.093874,657349,529568
1304.8,0.093197,657558,530563
1308.19,0.093718,658515,530698
1311.58,0.093901,658804,530708
1314.97,0.094295,659011,530393
1318.36,0.094585,658272,529444
1321.73,0.095364,658022,528295
1326.23,0.095774,657870,527674
1329.6,0.096877,656482,525226
1332.97,0.097609,654926,523098
1336.33,0.098658,653727,520881
1339.69,0.100121,652497,518152
1343.04,0.101684,649913,514246
1346.39,0.103622,647671,510191
1349.73,0.105668,645338,505964
1354.18,0.108311,641175,499650
1357.52,0.110489,638376,494980
1360.85,0.112349,635805,490879
1364.17,0.114175,633413,486981
1367.49,0.116605,631026,482439
1370.81,0.118899,628050,477634
1374.12,0.121059,625034,472982
1378.54,0.124109,620272,466094
1381.84,0.127223,616892,460242
1385.14,0.130171,613613,454699
1388.43,0.134047,611526,449126
1391.72,0.138129,610663,444296
1395.01,0.142678,610634,439646
1398.29,0.146734,611700,436319
1402.66,0.153416,614051,431309
1405.93,0.158438,616268,427889
1409.2,0.163935,617795,423555
1412.46,0.167993,618872,420347
1415.72,0.172160,619795,416954
1418.98,0.175900,620495,413846
1422.23,0.179127,621087,411174
1426.56,0.183528,621375,407217
1429.8,0.185515,621616,405515
1433.04,0.188766,622129,402823
1436.27,0.190222,621526,401086
1439.5,0.192863,621113,398389
1442.72,0.195055,620921,396261
1445.94,0.197674,620270,393466
1450.23,0.200693,618860,389852
1453.44,0.203497,617697,386615
1456.64,0.205962,616264,383535
1459.85,0.208988,614413,379728
1463.04,0.211898,612307,375899
1466.24,0.214971,610032,371862
1469.43,0.218727,607345,367036
1473.67,0.224281,603789,360250
1476.85,0.229447,601175,354449
1480.02,0.235634,597737,347437
1483.19,0.241698,594479,340752
1486.36,0.247616,591232,334304
1489.52,0.252383,587853,328765
1492.68,0.255329,583875,324333
1496.89,0.257659,578062,319386
1500.03,0.258157,574159,316866
1503.18,0.257612,570285,315123
1506.32,0.257845,565444,312280
1509.45,0.256049,560571,310872
1512.58,0.254667,555821,309220
1515.71,0.252168,550344,307940
1519.87,0.249272,543983,306417
1522.99,0.246602,538764,305349
1526.1,0.243502,533692,304641
1529.21,0.241142,527902,302978
1532.32,0.238258,521886,301521
1535.42,0.235747,515888,299784
1538.51,0.232055,509987,298885
1541.6,0.229552,503936,297046
1545.72,0.225867,494694,294083
1548.8,0.222969,488378,292272
1551.88,0.219956,481832,290362
1554.95,0.218430,474989,287246
1558.02,0.216974,467818,283859
1561.08,0.215695,460730,280383
1564.15,0.215239,454170,276681
1568.22,0.214403,444181,271117
1571.27,0.213313,436947,267372
1574.32,0.212399,429598,263429
1577.36,0.211468,422039,259349
1580.4,0.210050,414375,255472
1583.43,0.208329,406354,251522
1586.46,0.207363,398475,247194
1590.49,0.204996,388982,242624
1593.51,0.203402,380708,238336
1596.53,0.200985,372727,234642
1599.54,0.199268,365060,230726
1602.55,0.197919,357543,226678
1605.55,0.195701,349495,222710
1608.55,0.192937,341154,218783
1612.54,0.191768,330877,212764
1615.53,0.189231,322904,208854
1618.51,0.188589,315116,204118
1621.49,0.188409,307217,199084
1624.47,0.186542,299481,194907
1627.44,0.185404,292112,190610
1630.41,0.184357,284245,185924
1634.36,0.182782,274079,179926
1637.32,0.183394,266916,174977
1640.27,0.182565,259612,170514
1643.22,0.181167,251804,165919
1646.16,0.180827,244348,161132
1649.1,0.179481,236703,156575
1652.04,0.177530,228171,151611
1655.95,0.175597,215408,143769
1658.88,0.170215,204937,138486
1661.8,0.165224,193395,132197
1664.72,0.157466,179728,125069
1667.63,0.146240,163642,116857
1670.54,0.132138,146312,107930
1673.44,0.114513,128451,98679
1677.31,0.096151,105080,84211
1680.21,0.084076,88906,73258
1683.1,0.077763,75033,62732
1685.99,0.082313,63520,52553
1688.87,0.079120,53714,44768
1691.75,0.083647,45653,37655
1694.62,0.088457,39137,31925
1697.49,0.094806,33776,27152
1701.31,0.102300,28175,22262