File: samples/wool/wool-000811/Column 1_050610_20150331_122809.csv
Method:,Column 1,,
Host Date-Time:,31/3/15 @ 12:28:9,,
Header Version:,1,,
System Temp (C):,34.06,,
Detector Temp (C):,34.88,,
Humidity (%):,1.66,,
Lamp PD:,3818,,
Shift Vector Coefficients:,-10.5391,0.0761263,-0.000134223,,
Pixel to Wavelength Coefficients:,1775.68,-0.916766,-0.000235065,,
Serial Number:,5510004,,
Scan Config Name:,Column 1,,
Scan Config Type:,Slew,,
Section 1,,
Start wavelength (nm):,900,,
End wavelength (nm):,1700,,
Pattern Pixel Width (nm):,   7.03,,,,
Exposure (ms):,  0.635,,,,
Digital Resolution:,228,,
Num Repeats:,6,,
PGA Gain:,64,,
Total Measurement Time in sec:,  2.667,,
Wavelength (nm),Absorbance (AU),Reference Signal (unitless),Sample Signal (unitless)
901.51,0.068351,108485,92687
905.376,0.074219,121306,102250
909.237,0.076268,131909,110664
913.095,0.077975,143299,119748
916.948,0.078771,156982,130942
922.079,0.080189,179937,149600
925.923,0.081014,200504,166383
929.762,0.082386,222660,184186
933.597,0.081101,244426,202790
937.427,0.080323,263972,219399
941.254,0.080459,281845,234181
945.076,0.078659,297271,248024
950.165,0.078492,315605,263422
953.978,0.077691,328029,274297
957.786,0.076861,340470,285245
961.59,0.077878,352317,294480
965.389,0.077692,363056,303586
969.185,0.077350,373162,312282
972.976,0.076997,382632,320468
976.763,0.078304,391202,326661
981.806,0.078307,400190,334164
985.583,0.079741,406088,337971
989.355,0.079673,410162,341415
993.124,0.080127,412868,343308
996.888,0.080720,414263,343998
1000.65,0.081473,415476,344408
1004.4,0.082277,415479,343773
1009.41,0.083999,414358,341489
1013.15,0.084033,412923,340280
1016.89,0.084952,411526,338412
1020.63,0.084479,409066,336755
1024.36,0.084196,406777,335089
1028.09,0.083658,404427,333566
1031.82,0.084831,401911,330597
1036.78,0.084107,398410,328264
1040.49,0.083533,396204,326878
1044.2,0.083308,394236,325423
1047.91,0.083289,392042,323626
1051.61,0.082848,389823,322121
1055.31,0.082828,388234,320823
1059,0.082223,387599,320745
1063.92,0.081698,386688,320378
1067.61,0.080679,386598,321056
1071.29,0.080549,387377,321799
1074.96,0.079536,388536,323516
1078.63,0.079299,389855,324791
1082.3,0.077718,391215,327113
1085.96,0.077226,393215,329158
1090.84,0.076460,396270,332301
1094.49,0.076241,398760,334557
1098.14,0.075602,400987,336921
1101.79,0.074710,403477,339710
1105.43,0.074517,406116,342084
1109.06,0.073857,407701,343942
1112.7,0.073533,409859,346020
1117.53,0.073030,412494,348648
1121.15,0.073680,414909,350165
1124.77,0.073870,416559,351404
1128.38,0.075008,418532,352144
1131.99,0.076181,419956,352389
1135.6,0.076971,421946,353416
1139.2,0.078932,423881,353437
1143.99,0.081089,426786,354096
1147.58,0.081653,428617,355154
1151.17,0.082488,431169,356582
1154.75,0.083229,433579,357964
1158.33,0.084453,436264,359167
1161.91,0.086624,439132,359725
1165.48,0.088203,442389,361078
1169.04,0.090833,446101,361910
1173.79,0.093735,451929,364196
1177.34,0.096531,456026,365139
1180.9,0.098307,461306,367860
1184.44,0.099733,467657,371702
1187.99,0.101916,473969,374830
1191.52,0.100576,479856,380658
1195.06,0.101292,487372,385983
1199.76,0.100563,497347,394545
1203.29,0.099561,504311,400994
1206.81,0.099404,511507,406862
1210.33,0.098400,519078,413840
1213.84,0.097973,527163,420699
1217.35,0.097567,534208,426720
1220.85,0.096943,540472,432345
1225.51,0.095795,549929,441074
1229.01,0.094770,556888,447711
1232.5,0.094749,562180,451987
1235.98,0.093906,567975,457534
1239.46,0.093595,574815,463376
1242.94,0.092239,582782,471267
1246.41,0.091709,591476,478882
1251.03,0.091862,604016,488862
1254.5,0.091977,612289,495427
1257.96,0.092551,619125,500296
1261.41,0.092368,624551,504894
1264.86,0.093324,629900,508098
1268.31,0.093620,634345,511335
1271.75,0.094620,638574,513560
1276.33,0.094778,642499,516529
1279.76,0.094273,645905,519871
1283.19,0.094237,648307,521848
1286.61,0.093609,650446,524327
1290.03,0.093453,652132,525875
1293.44,0.092707,653907,528213
1296.85,0.092640,655963,529955
1301.39,0.092097,657349,531739
1304.8,0.092334,657558,531619
1308.19,0.092456,658515,532243
1311.58,0.092468,658804,532461
1314.97,0.092842,659011,532170
1318.36,0.093549,658272,530709
1321.73,0.093347,658022,530754
1326.23,0.094102,657870,529710
1329.6,0.095313,656482,527120
1332.97,0.095859,654926,525210
1336.33,0.096321,653727,523691
1339.69,0.098327,652497,520297
1343.04,0.099650,649913,516660
1346.39,0.101785,647671,512353
1349.73,0.103847,645338,508089
1354.18,0.106639,641175,501577
1357.52,0.108429,638376,497333
1360.85,0.110542,635805,492926
1364.17,0.112579,633413,488774
1367.49,0.115100,631026,484114
1370.81,0.116786,628050,479964
1374.12,0.119398,625034,474794
1378.54,0.121975,620272,468389
1381.84,0.124578,616892,463053
1385.14,0.127726,613613,457266
1388.43,0.131415,611526,451856
1391.72,0.135497,610663,446997
1395.01,0.139301,610634,443078
1398.29,0.144931,611700,438135
1402.66,0.150057,614051,434658
1405.93,0.154569,616268,431718
1409.2,0.159860,617795,427548
1412.46,0.164075,618872,424156
1415.72,0.168129,619795,420842
1418.98,0.171342,620495,418212
1422.23,0.174557,621087,415523
1426.56,0.178280,621375,412168
1429.8,0.181457,621616,409322
1433.04,0.183674,622129,407574
1436.27,0.185836,621526,405157
1439.5,0.187412,621113,403421
1442.72,0.190150,620921,400762
1445.94,0.192313,620270,398353
1450.23,0.196279,618860,393834
1453.44,0.198617,617697,390984
1456.64,0.201488,616264,387506
1459.85,0.204393,614413,383767
1463.04,0.207331,612307,379873
1466.24,0.210573,610032,375647
1469.43,0.214591,607345,370548
1473.67,0.220316,603789,363554
1476.85,0.226748,601175,356659
1480.02,0.232427,597737,350012
1483.19,0.239111,594479,342788
1486.36,0.244862,591232,336431
1489.52,0.249611,587853,330870
1492.68,0.252864,583875,326179
1496.89,0.255974,578062,320627
1500.03,0.255816,574159,318578
1503.18,0.256153,570285,316183
1506.32,0.254356,565444,314799
1509.45,0.253662,560571,312585
1512.58,0.252467,555821,310791
1515.71,0.249301,550344,309980
1519.87,0.247101,543983,307953
1522.99,0.243883,538764,307267
1526.1,0.241490,533692,306056
1529.21,0.238655,527902,304718
1532.32,0.236350,521886,302849
1535.42,0.232685,515888,301905
1538.51,0.229845,509987,300410
1541.6,0.226661,503936,299030
1545.72,0.222976,494694,296047
1548.8,0.219743,488378,294451
1551.88,0.218197,481832,291540
1554.95,0.216298,474989,288659
1558.02,0.214628,467818,285397
1561.08,0.213023,460730,282113
1564.15,0.212329,454170,278541
1568.22,0.211615,444181,272863
1571.27,0.211502,436947,268489
1574.32,0.210449,429598,264614
1577.36,0.209382,422039,260598
1580.4,0.207990,414375,256687
1583.43,0.206972,406354,252309
1586.46,0.203944,398475,249148
1590.49,0.202960,388982,243764
1593.51,0.201332,380708,239475
1596.53,0.199453,372727,235471
1599.54,0.197916,365060,231445
1602.55,0.195582,357543,227901
1605.55,0.193511,349495,223836
1608.55,0.190486,341154,220021
1612.54,0.188938,330877,214155
1615.53,0.187912,322904,209489
1618.51,0.186869,315116,204928
1621.49,0.186791,307217,199827
1624.47,0.184821,299481,195681
1627.44,0.184641,292112,190945
1630.41,0.182590,284245,186682
1634.36,0.181579,274079,180425
1637.32,0.181383,266916,175789
1640.27,0.180821,259612,171200
1643.22,0.179755,251804,166459
1646.16,0.178456,244348,162014
1649.1,0.177298,236703,157364
1652.04,0.176440,228171,151992
1655.95,0.172517,215408,144792
1658.88,0.170660,204937,138344
1661.8,0.163015,193395,132871
1664.72,0.156301,179728,125405
1667.63,0.144053,163642,117447
1670.54,0.128855,146312,108749
1673.44,0.114315,128451,98724
1677.31,0.093329,105080,84760
1680.21,0.080216,88906,73912
1683.1,0.078574,75033,62615
1685.99,0.075247,63520,53415
1688.87,0.075430,53714,45150
1691.75,0.081909,45653,37806
1694.62,0.092639,39137,31619
1697.49,0.092589,33776,27291
1701.31,0.095448,28175,22616