File: samples/wool/wool-000811/Column 1_050602_20150331_122424.csv
Method:,Column 1,,
Host Date-Time:,31/3/15 @ 12:24:24,,
Header Version:,1,,
System Temp (C):,33.97,,
Detector Temp (C):,34.75,,
Humidity (%):,1.76,,
Lamp PD:,3818,,
Shift Vector Coefficients:,-10.5391,0.0761263,-0.000134223,,
Pixel to Wavelength Coefficients:,1775.68,-0.916766,-0.000235065,,
Serial Number:,5510004,,
Scan Config Name:,Column 1,,
Scan Config Type:,Slew,,
Section 1,,
Start wavelength (nm):,900,,
End wavelength (nm):,1700,,
Pattern Pixel Width (nm):,   7.03,,,,
Exposure (ms):,  0.635,,,,
Digital Resolution:,228,,
Num Repeats:,6,,
PGA Gain:,64,,
Total Measurement Time in sec:,  2.672,,
Wavelength (nm),Absorbance (AU),Reference Signal (unitless),Sample Signal (unitless)
901.51,0.069843,108485,92369
905.376,0.074895,121306,102091
909.237,0.076920,131909,110498
913.095,0.077717,143299,119819
916.948,0.080822,156982,130325
922.079,0.080111,179937,149627
925.923,0.081032,200504,166376
929.762,0.084188,222660,183423
933.597,0.081825,244426,202452
937.427,0.081052,263972,219031
941.254,0.080778,281845,234009
945.076,0.080533,297271,246956
950.165,0.078708,315605,263291
953.978,0.077292,328029,274549
957.786,0.078360,340470,284262
961.59,0.078555,352317,294021
965.389,0.078252,363056,303195
969.185,0.077832,373162,311936
972.976,0.078173,382632,319601
976.763,0.079354,391202,325872
981.806,0.079633,400190,333145
985.583,0.080264,406088,337564
989.355,0.080919,410162,340437
993.124,0.081224,412868,342442
996.888,0.081389,414263,343469
1000.65,0.082662,415476,343466
1004.4,0.083211,415479,343035
1009.41,0.084283,414358,341266
1013.15,0.084945,412923,339566
1016.89,0.086005,411526,337592
1020.63,0.085002,409066,336350
1024.36,0.085551,406777,334045
1028.09,0.084736,404427,332739
1031.82,0.084903,401911,330542
1036.78,0.084050,398410,328307
1040.49,0.084672,396204,326022
1044.2,0.083999,394236,324906
1047.91,0.084714,392042,322566
1051.61,0.084350,389823,321009
1055.31,0.083401,388234,320400
1059,0.082645,387599,320433
1063.92,0.082104,386688,320079
1067.61,0.080945,386598,320859
1071.29,0.081051,387377,321427
1074.96,0.080650,388536,322687
1078.63,0.079668,389855,324515
1082.3,0.078989,391215,326157
1085.96,0.078409,393215,328262
1090.84,0.077365,396270,331609
1094.49,0.077322,398760,333726
1098.14,0.076627,400987,336127
1101.79,0.076191,403477,338554
1105.43,0.075159,406116,341579
1109.06,0.074108,407701,343743
1112.7,0.074656,409859,345127
1117.53,0.074404,412494,347547
1121.15,0.074350,414909,349625
1124.77,0.074810,416559,350644
1128.38,0.076289,418532,351107
1131.99,0.077209,419956,351556
1135.6,0.078580,421946,352109
1139.2,0.079343,423881,353103
1143.99,0.081903,426786,353433
1147.58,0.081839,428617,355002
1151.17,0.083376,431169,355854
1154.75,0.084649,433579,356795
1158.33,0.085695,436264,358141
1161.91,0.086929,439132,359473
1165.48,0.089552,442389,359958
1169.04,0.091886,446101,361033
1173.79,0.095046,451929,363098
1177.34,0.097204,456026,364574
1180.9,0.099133,461306,367161
1184.44,0.100527,467657,371023
1187.99,0.102120,473969,374654
1191.52,0.102184,479856,379251
1195.06,0.101301,487372,385975
1199.76,0.101129,497347,394031
1203.29,0.100286,504311,400325
1206.81,0.100092,511507,406218
1210.33,0.099283,519078,413000
1213.84,0.098689,527163,420006
1217.35,0.098531,534208,425774
1220.85,0.097376,540472,431914
1225.51,0.096990,549929,439862
1229.01,0.096524,556888,445907
1232.5,0.095946,562180,450743
1235.98,0.095123,567975,456253
1239.46,0.093758,574815,463202
1242.94,0.093057,582782,470380
1246.41,0.092947,591476,477518
1251.03,0.092317,604016,488350
1254.5,0.092428,612289,494912
1257.96,0.093071,619125,499698
1261.41,0.093486,624551,503595
1264.86,0.093682,629900,507680
1268.31,0.094412,634345,510403
1271.75,0.095063,638574,513037
1276.33,0.095905,642499,515190
1279.76,0.095468,645905,518442
1283.19,0.094881,648307,521074
1286.61,0.094270,650446,523530
1290.03,0.094225,652132,524941
1293.44,0.093564,653907,527172
1296.85,0.093446,655963,528973
1301.39,0.092935,657349,530714
1304.8,0.092990,657558,530816
1308.19,0.093550,658515,530903
1311.58,0.093492,658804,531208
1314.97,0.093527,659011,531332
1318.36,0.094568,658272,529465
1321.73,0.094726,658022,529072
1326.23,0.095629,657870,527851
1329.6,0.095961,656482,526334
1332.97,0.096543,654926,524384
1336.33,0.097939,653727,521744
1339.69,0.099738,652497,518609
1343.04,0.100862,649913,515221
1346.39,0.102827,647671,511125
1349.73,0.105001,645338,506741
1354.18,0.107692,641175,500362
1357.52,0.109842,638376,495718
1360.85,0.111769,635805,491536
1364.17,0.114060,633413,487110
1367.49,0.115585,631026,483573
1370.81,0.118029,628050,478592
1374.12,0.119969,625034,474171
1378.54,0.122890,620272,467404
1381.84,0.126051,616892,461486
1385.14,0.129335,613613,455575
1388.43,0.133309,611526,449890
1391.72,0.136846,610663,445611
1395.01,0.141512,610634,440828
1398.29,0.145663,611700,437397
1402.66,0.152636,614051,432084
1405.93,0.157530,616268,428785
1409.2,0.161998,617795,425448
1412.46,0.166406,618872,421886
1415.72,0.170674,619795,418383
1418.98,0.174268,620495,415404
1422.23,0.177622,621087,412601
1426.56,0.181515,621375,409109
1429.8,0.184118,621616,406822
1433.04,0.186431,622129,404995
1436.27,0.188771,621526,402428
1439.5,0.190628,621113,400445
1442.72,0.193003,620921,398138
1445.94,0.195667,620270,395288
1450.23,0.199277,618860,391125
1453.44,0.201713,617697,388206
1456.64,0.204811,616264,384553
1459.85,0.206977,614413,381490
1463.04,0.210135,612307,377428
1466.24,0.213402,610032,373208
1469.43,0.217458,607345,368110
1473.67,0.223335,603789,361036
1476.85,0.228718,601175,355045
1480.02,0.235580,597737,347480
1483.19,0.240809,594479,341450
1486.36,0.246674,591232,335030
1489.52,0.251262,587853,329615
1492.68,0.254395,583875,325031
1496.89,0.257048,578062,319835
1500.03,0.257989,574159,316988
1503.18,0.257521,570285,315189
1506.32,0.256546,565444,313216
1509.45,0.255159,560571,311510
1512.58,0.253500,555821,310052
1515.71,0.250992,550344,308775
1519.87,0.247856,543983,307418
1522.99,0.245690,538764,305991
1526.1,0.242757,533692,305164
1529.21,0.240047,527902,303743
1532.32,0.237205,521886,302253
1535.42,0.235058,515888,300260
1538.51,0.232292,509987,298722
1541.6,0.228773,503936,297579
1545.72,0.224964,494694,294695
1548.8,0.221678,488378,293142
1551.88,0.219877,481832,290415
1554.95,0.218260,474989,287358
1558.02,0.216375,467818,284251
1561.08,0.214889,460730,280904
1564.15,0.214554,454170,277118
1568.22,0.213346,444181,271778
1571.27,0.212959,436947,267590
1574.32,0.212102,429598,263609
1577.36,0.210304,422039,260045
1580.4,0.209379,414375,255867
1583.43,0.207864,406354,251791
1586.46,0.206449,398475,247715
1590.49,0.204055,388982,243150
1593.51,0.203044,380708,238533
1596.53,0.200186,372727,235074
1599.54,0.198561,365060,231102
1602.55,0.196870,357543,227226
1605.55,0.195158,349495,222989
1608.55,0.192979,341154,218762
1612.54,0.191242,330877,213022
1615.53,0.189064,322904,208934
1618.51,0.189243,315116,203811
1621.49,0.187287,307217,199599
1624.47,0.186230,299481,195047
1627.44,0.186503,292112,190128
1630.41,0.184797,284245,185736
1634.36,0.182929,274079,179865
1637.32,0.181860,266916,175596
1640.27,0.181491,259612,170936
1643.22,0.180834,251804,166046
1646.16,0.179949,244348,161458
1649.1,0.180184,236703,156322
1652.04,0.178172,228171,151387
1655.95,0.175219,215408,143894
1658.88,0.171125,204937,138196
1661.8,0.166883,193395,131693
1664.72,0.158095,179728,124888
1667.63,0.145668,163642,117011
1670.54,0.130279,146312,108393
1673.44,0.114993,128451,98570
1677.31,0.097220,105080,84004
1680.21,0.083590,88906,73340
1683.1,0.077867,75033,62717
1685.99,0.078881,63520,52970
1688.87,0.083605,53714,44308
1691.75,0.087342,45653,37336
1694.62,0.091843,39137,31677
1697.49,0.098388,33776,26929
1701.31,0.101306,28175,22313