File: samples/wool/wool-000811/Column 1_050616_20150331_123108.csv
Method:,Column 1,,
Host Date-Time:,31/3/15 @ 12:31:8,,
Header Version:,1,,
System Temp (C):,34.11,,
Detector Temp (C):,34.9,,
Humidity (%):,1.66,,
Lamp PD:,3818,,
Shift Vector Coefficients:,-10.5391,0.0761263,-0.000134223,,
Pixel to Wavelength Coefficients:,1775.68,-0.916766,-0.000235065,,
Serial Number:,5510004,,
Scan Config Name:,Column 1,,
Scan Config Type:,Slew,,
Section 1,,
Start wavelength (nm):,900,,
End wavelength (nm):,1700,,
Pattern Pixel Width (nm):,   7.03,,,,
Exposure (ms):,  0.635,,,,
Digital Resolution:,228,,
Num Repeats:,6,,
PGA Gain:,64,,
Total Measurement Time in sec:,  2.702,,
Wavelength (nm),Absorbance (AU),Reference Signal (unitless),Sample Signal (unitless)
901.51,0.068885,108485,92573
905.376,0.076352,121306,101749
909.237,0.079704,131909,109792
913.095,0.077594,143299,119853
916.948,0.079003,156982,130872
922.079,0.080343,179937,149547
925.923,0.082303,200504,165890
929.762,0.082515,222660,184131
933.597,0.082373,244426,202197
937.427,0.080955,263972,219080
941.254,0.080728,281845,234036
945.076,0.079297,297271,247660
950.165,0.078245,315605,263572
953.978,0.076712,328029,274916
957.786,0.077595,340470,284763
961.59,0.077590,352317,294675
965.389,0.077557,363056,303680
969.185,0.077481,373162,312188
972.976,0.078483,382632,319373
976.763,0.078841,391202,326257
981.806,0.078636,400190,333911
985.583,0.079389,406088,338245
989.355,0.080071,410162,341102
993.124,0.080170,412868,343274
996.888,0.080648,414263,344055
1000.65,0.081710,415476,344220
1004.4,0.082644,415479,343483
1009.41,0.083660,414358,341756
1013.15,0.084454,412923,339950
1016.89,0.084964,411526,338402
1020.63,0.085282,409066,336133
1024.36,0.085577,406777,334025
1028.09,0.084615,404427,332832
1031.82,0.084844,401911,330587
1036.78,0.084163,398410,328222
1040.49,0.083714,396204,326742
1044.2,0.083797,394236,325057
1047.91,0.083139,392042,323738
1051.61,0.082696,389823,322234
1055.31,0.082771,388234,320865
1059,0.082648,387599,320431
1063.92,0.081294,386688,320676
1067.61,0.080560,386598,321144
1071.29,0.080244,387377,322025
1074.96,0.079756,388536,323352
1078.63,0.078727,389855,325219
1082.3,0.078552,391215,326485
1085.96,0.077067,393215,329278
1090.84,0.076678,396270,332134
1094.49,0.075887,398760,334830
1098.14,0.075339,400987,337125
1101.79,0.075176,403477,339346
1105.43,0.075314,406116,341457
1109.06,0.073867,407701,343934
1112.7,0.073744,409859,345852
1117.53,0.073675,412494,348131
1121.15,0.074340,414909,349633
1124.77,0.073701,416559,351541
1128.38,0.074685,418532,352406
1131.99,0.076087,419956,352466
1135.6,0.077182,421946,353244
1139.2,0.079023,423881,353363
1143.99,0.080938,426786,354219
1147.58,0.081622,428617,355179
1151.17,0.082344,431169,356700
1154.75,0.083338,433579,357874
1158.33,0.084677,436264,358982
1161.91,0.086143,439132,360124
1165.48,0.088275,442389,361018
1169.04,0.090233,446101,362410
1173.79,0.094111,451929,363881
1177.34,0.096273,456026,365356
1180.9,0.098314,461306,367854
1184.44,0.099935,467657,371529
1187.99,0.100656,473969,375919
1191.52,0.100931,479856,380347
1195.06,0.100913,487372,386320
1199.76,0.100343,497347,394745
1203.29,0.099249,504311,401282
1206.81,0.099206,511507,407048
1210.33,0.098565,519078,413683
1213.84,0.098114,527163,420563
1217.35,0.097372,534208,426912
1220.85,0.097010,540472,432278
1225.51,0.095835,549929,441034
1229.01,0.095313,556888,447152
1232.5,0.094773,562180,451963
1235.98,0.094376,567975,457039
1239.46,0.093335,574815,463653
1242.94,0.092181,582782,471330
1246.41,0.091746,591476,478841
1251.03,0.091506,604016,489263
1254.5,0.091451,612289,496027
1257.96,0.092154,619125,500754
1261.41,0.092756,624551,504443
1264.86,0.093233,629900,508205
1268.31,0.093726,634345,511210
1271.75,0.094340,638574,513891
1276.33,0.094142,642499,517286
1279.76,0.093926,645905,520287
1283.19,0.093866,648307,522294
1286.61,0.093592,650446,524348
1290.03,0.092854,652132,526601
1293.44,0.092925,653907,527948
1296.85,0.092467,655963,530166
1301.39,0.091972,657349,531893
1304.8,0.092222,657558,531755
1308.19,0.091938,658515,532878
1311.58,0.092092,658804,532923
1314.97,0.092854,659011,532156
1318.36,0.093209,658272,531125
1321.73,0.093148,658022,530997
1326.23,0.093987,657870,529850
1329.6,0.094535,656482,528066
1332.97,0.095877,654926,525189
1336.33,0.096605,653727,523349
1339.69,0.098064,652497,520612
1343.04,0.099491,649913,516850
1346.39,0.101881,647671,512240
1349.73,0.103362,645338,508657
1354.18,0.106171,641175,502118
1357.52,0.108111,638376,497698
1360.85,0.110707,635805,492739
1364.17,0.112210,633413,489189
1367.49,0.114338,631026,484964
1370.81,0.116796,628050,479953
1374.12,0.118440,625034,475843
1378.54,0.121240,620272,469183
1381.84,0.124000,616892,463670
1385.14,0.127353,613613,457659
1388.43,0.131045,611526,452241
1391.72,0.134982,610663,447527
1395.01,0.138792,610634,443597
1398.29,0.142968,611700,440119
1402.66,0.149364,614051,435352
1405.93,0.153817,616268,432467
1409.2,0.158726,617795,428665
1412.46,0.162577,618872,425622
1415.72,0.166379,619795,422541
1418.98,0.169869,620495,419633
1422.23,0.173299,621087,416729
1426.56,0.176964,621375,413418
1429.8,0.179469,621616,411200
1433.04,0.182004,622129,409144
1436.27,0.184247,621526,406642
1439.5,0.185972,621113,404761
1442.72,0.188533,620921,402257
1445.94,0.191034,620270,399528
1450.23,0.194415,618860,395528
1453.44,0.197493,617697,391997
1456.64,0.200141,616264,388710
1459.85,0.202914,614413,385076
1463.04,0.206329,612307,380750
1466.24,0.209379,610032,376681
1469.43,0.213624,607345,371374
1473.67,0.219731,603789,364044
1476.85,0.225578,601175,357621
1480.02,0.231862,597737,350468
1483.19,0.238265,594479,343456
1486.36,0.244306,591232,336862
1489.52,0.248839,587853,331459
1492.68,0.252426,583875,326508
1496.89,0.254310,578062,321858
1500.03,0.255013,574159,319168
1503.18,0.255057,570285,316982
1506.32,0.254080,565444,314999
1509.45,0.252461,560571,313451
1512.58,0.250922,555821,311898
1515.71,0.248998,550344,310196
1519.87,0.246004,543983,308732
1522.99,0.242703,538764,308103
1526.1,0.240496,533692,306757
1529.21,0.238272,527902,304987
1532.32,0.235054,521886,303754
1535.42,0.231631,515888,302639
1538.51,0.229978,509987,300318
1541.6,0.226517,503936,299129
1545.72,0.222417,494694,296428
1548.8,0.219551,488378,294581
1551.88,0.217013,481832,292336
1554.95,0.214780,474989,289670
1558.02,0.213596,467818,286076
1561.08,0.212247,460730,282618
1564.15,0.211367,454170,279159
1568.22,0.211043,444181,273223
1571.27,0.210522,436947,269096
1574.32,0.210408,429598,264639
1577.36,0.208556,422039,261094
1580.4,0.207205,414375,257151
1583.43,0.206598,406354,252526
1586.46,0.204572,398475,248788
1590.49,0.203286,388982,243581
1593.51,0.200341,380708,240022
1596.53,0.198402,372727,236042
1599.54,0.197271,365060,231789
1602.55,0.195195,357543,228104
1605.55,0.192937,349495,224132
1608.55,0.191073,341154,219724
1612.54,0.188725,330877,214260
1615.53,0.186893,322904,209981
1618.51,0.187138,315116,204801
1621.49,0.185981,307217,200200
1624.47,0.184730,299481,195722
1627.44,0.184236,292112,191123
1630.41,0.182518,284245,186713
1634.36,0.180204,274079,180997
1637.32,0.180322,266916,176219
1640.27,0.180527,259612,171316
1643.22,0.178006,251804,167131
1646.16,0.178153,244348,162127
1649.1,0.176543,236703,157638
1652.04,0.175969,228171,152157
1655.95,0.173439,215408,144485
1658.88,0.169171,204937,138819
1661.8,0.163244,193395,132801
1664.72,0.157602,179728,125030
1667.63,0.143846,163642,117503
1670.54,0.127909,146312,108986
1673.44,0.111373,128451,99395
1677.31,0.092474,105080,84927
1680.21,0.079717,88906,73997
1683.1,0.075602,75033,63045
1685.99,0.073527,63520,53627
1688.87,0.081552,53714,44518
1691.75,0.080784,45653,37904
1694.62,0.091323,39137,31715
1697.49,0.090731,33776,27408
1701.31,0.098725,28175,22446