File: samples/wool/wool-000811/Column 1_050601_20150331_122406.csv
Method:,Column 1,,
Host Date-Time:,31/3/15 @ 12:24:6,,
Header Version:,1,,
System Temp (C):,33.95,,
Detector Temp (C):,34.77,,
Humidity (%):,1.76,,
Lamp PD:,3818,,
Shift Vector Coefficients:,-10.5391,0.0761263,-0.000134223,,
Pixel to Wavelength Coefficients:,1775.68,-0.916766,-0.000235065,,
Serial Number:,5510004,,
Scan Config Name:,Column 1,,
Scan Config Type:,Slew,,
Section 1,,
Start wavelength (nm):,900,,
End wavelength (nm):,1700,,
Pattern Pixel Width (nm):,   7.03,,,,
Exposure (ms):,  0.635,,,,
Digital Resolution:,228,,
Num Repeats:,6,,
PGA Gain:,64,,
Total Measurement Time in sec:,  2.684,,
Wavelength (nm),Absorbance (AU),Reference Signal (unitless),Sample Signal (unitless)
901.51,0.071346,108485,92050
905.376,0.075444,121306,101962
909.237,0.077463,131909,110360
913.095,0.078040,143299,119730
916.948,0.079707,156982,130660
922.079,0.080991,179937,149324
925.923,0.082059,200504,165983
929.762,0.081886,222660,184398
933.597,0.082897,244426,201953
937.427,0.081384,263972,218864
941.254,0.081049,281845,233863
945.076,0.079358,297271,247625
950.165,0.079147,315605,263025
953.978,0.077941,328029,274139
957.786,0.078218,340470,284355
961.59,0.078563,352317,294016
965.389,0.078509,363056,303015
969.185,0.078413,373162,311519
972.976,0.078776,382632,319158
976.763,0.079631,391202,325664
981.806,0.079817,400190,333004
985.583,0.080651,406088,337263
989.355,0.080644,410162,340652
993.124,0.081264,412868,342411
996.888,0.081698,414263,343224
1000.65,0.082427,415476,343652
1004.4,0.083507,415479,342801
1009.41,0.084313,414358,341242
1013.15,0.085244,412923,339332
1016.89,0.085851,411526,337712
1020.63,0.085109,409066,336267
1024.36,0.085564,406777,334035
1028.09,0.085387,404427,332241
1031.82,0.085392,401911,330170
1036.78,0.085421,398410,327272
1040.49,0.084889,396204,325859
1044.2,0.085025,394236,324139
1047.91,0.084934,392042,322403
1051.61,0.083411,389823,321704
1055.31,0.083595,388234,320257
1059,0.083451,387599,319839
1063.92,0.082644,386688,319681
1067.61,0.081833,386598,320204
1071.29,0.081300,387377,321243
1074.96,0.080435,388536,322847
1078.63,0.080357,389855,324001
1082.3,0.079284,391215,325935
1085.96,0.078763,393215,327995
1090.84,0.077824,396270,331259
1094.49,0.077116,398760,333884
1098.14,0.076278,400987,336397
1101.79,0.076442,403477,338358
1105.43,0.075469,406116,341335
1109.06,0.074654,407701,343311
1112.7,0.074732,409859,345066
1117.53,0.074299,412494,347631
1121.15,0.075195,414909,348946
1124.77,0.074572,416559,350836
1128.38,0.076105,418532,351256
1131.99,0.077280,419956,351499
1135.6,0.078238,421946,352386
1139.2,0.079526,423881,352954
1143.99,0.081937,426786,353405
1147.58,0.082570,428617,354405
1151.17,0.083193,431169,356004
1154.75,0.084881,433579,356605
1158.33,0.085773,436264,358077
1161.91,0.087272,439132,359189
1165.48,0.090060,442389,359538
1169.04,0.091682,446101,361203
1173.79,0.094923,451929,363201
1177.34,0.097366,456026,364438
1180.9,0.099643,461306,366730
1184.44,0.101443,467657,370241
1187.99,0.101824,473969,374909
1191.52,0.102362,479856,379096
1195.06,0.102737,487372,384701
1199.76,0.101275,497347,393899
1203.29,0.100827,504311,399826
1206.81,0.100061,511507,406247
1210.33,0.099552,519078,412744
1213.84,0.098532,527163,420158
1217.35,0.098484,534208,425820
1220.85,0.098077,540472,431217
1225.51,0.097138,549929,439712
1229.01,0.096408,556888,446026
1232.5,0.095945,562180,450744
1235.98,0.095658,567975,455692
1239.46,0.094481,574815,462431
1242.94,0.093526,582782,469873
1246.41,0.092939,591476,477527
1251.03,0.092912,604016,487682
1254.5,0.092901,612289,494374
1257.96,0.093393,619125,499327
1261.41,0.093475,624551,503608
1264.86,0.094268,629900,506995
1268.31,0.094783,634345,509967
1271.75,0.095812,638574,512153
1276.33,0.096121,642499,514934
1279.76,0.095560,645905,518333
1283.19,0.095156,648307,520744
1286.61,0.095013,650446,522635
1290.03,0.094486,652132,524626
1293.44,0.093709,653907,526995
1296.85,0.093557,655963,528838
1301.39,0.093919,657349,529514
1304.8,0.093200,657558,530559
1308.19,0.093335,658515,531167
1311.58,0.093516,658804,531178
1314.97,0.094525,659011,530112
1318.36,0.094671,658272,529340
1321.73,0.094937,658022,528814
1326.23,0.095729,657870,527729
1329.6,0.096524,656482,525653
1332.97,0.097175,654926,523621
1336.33,0.098664,653727,520874
1339.69,0.099430,652497,518978
1343.04,0.101121,649913,514914
1346.39,0.102910,647671,511028
1349.73,0.105248,645338,506453
1354.18,0.108066,641175,499932
1357.52,0.110640,638376,494808
1360.85,0.111999,635805,491275
1364.17,0.113735,633413,487475
1367.49,0.116154,631026,482940
1370.81,0.118021,628050,478601
1374.12,0.120578,625034,473506
1378.54,0.123597,620272,466643
1381.84,0.126273,616892,461250
1385.14,0.129766,613613,455123
1388.43,0.132983,611526,450227
1391.72,0.137256,610663,445190
1395.01,0.142170,610634,440160
1398.29,0.146388,611700,436667
1402.66,0.152188,614051,432530
1405.93,0.157365,616268,428948
1409.2,0.162555,617795,424903
1412.46,0.166858,618872,421447
1415.72,0.170842,619795,418221
1418.98,0.174649,620495,415039
1422.23,0.178429,621087,411835
1426.56,0.181943,621375,408706
1429.8,0.184222,621616,406724
1433.04,0.186601,622129,404836
1436.27,0.189220,621526,402012
1439.5,0.191359,621113,399771
1442.72,0.193238,620921,397922
1445.94,0.195255,620270,395663
1450.23,0.199198,618860,391196
1453.44,0.202796,617697,387239
1456.64,0.205567,616264,383884
1459.85,0.207624,614413,380922
1463.04,0.210574,612307,377047
1466.24,0.213121,610032,373449
1469.43,0.217483,607345,368089
1473.67,0.224027,603789,360461
1476.85,0.228661,601175,355091
1480.02,0.234599,597737,348266
1483.19,0.241418,594479,340972
1486.36,0.247497,591232,334396
1489.52,0.250884,587853,329902
1492.68,0.254743,583875,324771
1496.89,0.256976,578062,319888
1500.03,0.258043,574159,316949
1503.18,0.257645,570285,315099
1506.32,0.257289,565444,312680
1509.45,0.255488,560571,311274
1512.58,0.254187,555821,309562
1515.71,0.251364,550344,308511
1519.87,0.248671,543983,306842
1522.99,0.246123,538764,305686
1526.1,0.243860,533692,304390
1529.21,0.240657,527902,303317
1532.32,0.237267,521886,302210
1535.42,0.235368,515888,300046
1538.51,0.232404,509987,298645
1541.6,0.229007,503936,297419
1545.72,0.224384,494694,295089
1548.8,0.222797,488378,292388
1551.88,0.220176,481832,290215
1554.95,0.218096,474989,287467
1558.02,0.215967,467818,284518
1561.08,0.215713,460730,280371
1564.15,0.215195,454170,276709
1568.22,0.213386,444181,271753
1571.27,0.213219,436947,267430
1574.32,0.212329,429598,263471
1577.36,0.211326,422039,259434
1580.4,0.209656,414375,255704
1583.43,0.208539,406354,251400
1586.46,0.206956,398475,247426
1590.49,0.205451,388982,242370
1593.51,0.203013,380708,238550
1596.53,0.201129,372727,234564
1599.54,0.199950,365060,230364
1602.55,0.197406,357543,226946
1605.55,0.195343,349495,222894
1608.55,0.193336,341154,218582
1612.54,0.192195,330877,212555
1615.53,0.189125,322904,208905
1618.51,0.188921,315116,203962
1621.49,0.187973,307217,199284
1624.47,0.186640,299481,194863
1627.44,0.185299,292112,190656
1630.41,0.183942,284245,186102
1634.36,0.183998,274079,179423
1637.32,0.183113,266916,175090
1640.27,0.182010,259612,170732
1643.22,0.179915,251804,166398
1646.16,0.180466,244348,161266
1649.1,0.178094,236703,157076
1652.04,0.177750,228171,151534
1655.95,0.174610,215408,144096
1658.88,0.171493,204937,138079
1661.8,0.165385,193395,132148
1664.72,0.158533,179728,124762
1667.63,0.146329,163642,116833
1670.54,0.132911,146312,107738
1673.44,0.115579,128451,98437
1677.31,0.096182,105080,84205
1680.21,0.084735,88906,73147
1683.1,0.077355,75033,62791
1685.99,0.077767,63520,53106
1688.87,0.080928,53714,44582
1691.75,0.089429,45653,37157
1694.62,0.095423,39137,31417
1697.49,0.095078,33776,27135
1701.31,0.101111,28175,22323