File: samples/wool/wool-000811/Column 1_050597_20150331_122207.csv
Method:,Column 1,,
Host Date-Time:,31/3/15 @ 12:22:7,,
Header Version:,1,,
System Temp (C):,33.93,,
Detector Temp (C):,34.74,,
Humidity (%):,1.76,,
Lamp PD:,3818,,
Shift Vector Coefficients:,-10.5391,0.0761263,-0.000134223,,
Pixel to Wavelength Coefficients:,1775.68,-0.916766,-0.000235065,,
Serial Number:,5510004,,
Scan Config Name:,Column 1,,
Scan Config Type:,Slew,,
Section 1,,
Start wavelength (nm):,900,,
End wavelength (nm):,1700,,
Pattern Pixel Width (nm):,   7.03,,,,
Exposure (ms):,  0.635,,,,
Digital Resolution:,228,,
Num Repeats:,6,,
PGA Gain:,64,,
Total Measurement Time in sec:,  2.675,,
Wavelength (nm),Absorbance (AU),Reference Signal (unitless),Sample Signal (unitless)
901.51,0.070733,108485,92180
905.376,0.074703,121306,102136
909.237,0.077904,131909,110248
913.095,0.077942,143299,119757
916.948,0.077668,156982,131275
922.079,0.081538,179937,149136
925.923,0.082216,200504,165923
929.762,0.083578,222660,183681
933.597,0.082547,244426,202116
937.427,0.081225,263972,218944
941.254,0.081259,281845,233750
945.076,0.079318,297271,247648
950.165,0.079269,315605,262951
953.978,0.078388,328029,273857
957.786,0.078731,340470,284019
961.59,0.078081,352317,294342
965.389,0.079063,363056,302629
969.185,0.078556,373162,311416
972.976,0.079060,382632,318949
976.763,0.079121,391202,326047
981.806,0.079873,400190,332961
985.583,0.080491,406088,337388
989.355,0.081270,410162,340162
993.124,0.081166,412868,342488
996.888,0.081896,414263,343068
1000.65,0.082710,415476,343428
1004.4,0.083470,415479,342830
1009.41,0.084907,414358,340776
1013.15,0.085169,412923,339391
1016.89,0.086086,411526,337529
1020.63,0.085312,409066,336110
1024.36,0.086343,406777,333437
1028.09,0.085873,404427,331869
1031.82,0.084881,401911,330559
1036.78,0.084968,398410,327614
1040.49,0.085290,396204,325558
1044.2,0.084997,394236,324160
1047.91,0.084156,392042,322981
1051.61,0.083993,389823,321273
1055.31,0.083855,388234,320065
1059,0.083492,387599,319809
1063.92,0.082664,386688,319666
1067.61,0.081368,386598,320547
1071.29,0.081503,387377,321093
1074.96,0.080888,388536,322510
1078.63,0.080180,389855,324133
1082.3,0.079412,391215,325839
1085.96,0.078780,393215,327982
1090.84,0.077561,396270,331459
1094.49,0.077419,398760,333651
1098.14,0.076671,400987,336093
1101.79,0.076318,403477,338455
1105.43,0.075928,406116,340975
1109.06,0.074987,407701,343048
1112.7,0.074648,409859,345133
1117.53,0.074739,412494,347279
1121.15,0.075374,414909,348802
1124.77,0.075072,416559,350433
1128.38,0.076441,418532,350984
1131.99,0.077376,419956,351421
1135.6,0.078993,421946,351774
1139.2,0.079842,423881,352697
1143.99,0.082391,426786,353036
1147.58,0.082981,428617,354069
1151.17,0.083790,431169,355515
1154.75,0.084811,433579,356662
1158.33,0.085920,436264,357956
1161.91,0.087391,439132,359091
1165.48,0.089632,442389,359892
1169.04,0.091878,446101,361040
1173.79,0.095694,451929,362557
1177.34,0.097362,456026,364441
1180.9,0.099623,461306,366747
1184.44,0.101597,467657,370110
1187.99,0.102136,473969,374640
1191.52,0.102607,479856,378882
1195.06,0.102562,487372,384856
1199.76,0.102014,497347,393229
1203.29,0.100956,504311,399708
1206.81,0.100521,511507,405817
1210.33,0.100146,519078,412180
1213.84,0.099389,527163,419330
1217.35,0.098741,534208,425568
1220.85,0.098331,540472,430965
1225.51,0.097583,549929,439262
1229.01,0.096899,556888,445522
1232.5,0.095903,562180,450788
1235.98,0.095391,567975,455972
1239.46,0.094443,574815,462472
1242.94,0.093869,582782,469502
1246.41,0.093598,591476,476803
1251.03,0.093265,604016,487285
1254.5,0.093053,612289,494201
1257.96,0.093798,619125,498862
1261.41,0.094259,624551,502700
1264.86,0.094723,629900,506464
1268.31,0.095127,634345,509564
1271.75,0.095954,638574,511985
1276.33,0.096188,642499,514854
1279.76,0.096099,645905,517690
1283.19,0.095377,648307,520480
1286.61,0.095164,650446,522453
1290.03,0.094621,652132,524462
1293.44,0.093888,653907,526778
1296.85,0.093909,655963,528409
1301.39,0.093730,657349,529744
1304.8,0.093705,657558,529943
1308.19,0.093619,658515,530819
1311.58,0.094055,658804,530519
1314.97,0.094552,659011,530079
1318.36,0.094964,658272,528982
1321.73,0.095495,658022,528136
1326.23,0.096084,657870,527298
1329.6,0.096530,656482,525645
1332.97,0.097961,654926,522674
1336.33,0.098326,653727,521279
1339.69,0.100761,652497,517389
1343.04,0.101902,649913,513988
1346.39,0.103565,647671,510258
1349.73,0.105578,645338,506068
1354.18,0.108575,641175,499346
1357.52,0.110750,638376,494683
1360.85,0.112094,635805,491168
1364.17,0.114797,633413,486284
1367.49,0.116989,631026,482013
1370.81,0.119011,628050,477511
1374.12,0.121074,625034,472966
1378.54,0.124158,620272,466041
1381.84,0.127130,616892,460340
1385.14,0.130187,613613,454682
1388.43,0.134720,611526,448430
1391.72,0.138581,610663,443834
1395.01,0.142799,610634,439523
1398.29,0.147558,611700,435492
1402.66,0.153888,614051,430840
1405.93,0.158647,616268,427684
1409.2,0.164047,617795,423445
1412.46,0.168418,618872,419936
1415.72,0.172602,619795,416530
1418.98,0.176519,620495,413256
1422.23,0.179321,621087,410990
1426.56,0.183529,621375,407216
1429.8,0.186257,621616,404823
1433.04,0.188979,622129,402626
1436.27,0.191113,621526,400264
1439.5,0.193080,621113,398190
1442.72,0.195856,620921,395531
1445.94,0.198272,620270,392924
1450.23,0.201052,618860,389530
1453.44,0.204229,617697,385964
1456.64,0.206867,616264,382736
1459.85,0.209268,614413,379483
1463.04,0.212026,612307,375788
1466.24,0.215612,610032,371313
1469.43,0.218851,607345,366931
1473.67,0.224927,603789,359715
1476.85,0.230532,601175,353565
1480.02,0.235500,597737,347544
1483.19,0.242263,594479,340309
1486.36,0.247616,591232,334304
1489.52,0.252082,587853,328993
1492.68,0.255955,583875,323866
1496.89,0.257766,578062,319307
1500.03,0.258178,574159,316850
1503.18,0.258072,570285,314789
1506.32,0.257442,565444,312570
1509.45,0.256024,560571,310890
1512.58,0.255155,555821,308873
1515.71,0.251535,550344,308389
1519.87,0.249032,543983,306587
1522.99,0.246730,538764,305259
1526.1,0.244229,533692,304132
1529.21,0.241184,527902,302949
1532.32,0.238127,521886,301612
1535.42,0.235927,515888,299660
1538.51,0.232734,509987,298418
1541.6,0.230021,503936,296725
1545.72,0.225941,494694,294033
1548.8,0.223091,488378,292190
1551.88,0.220760,481832,289825
1554.95,0.219089,474989,286810
1558.02,0.217332,467818,283625
1561.08,0.215909,460730,280245
1564.15,0.215820,454170,276311
1568.22,0.214903,444181,270805
1571.27,0.213766,436947,267093
1574.32,0.212296,429598,263491
1577.36,0.211652,422039,259239
1580.4,0.210305,414375,255322
1583.43,0.209894,406354,250617
1586.46,0.207544,398475,247091
1590.49,0.205282,388982,242464
1593.51,0.203477,380708,238295
1596.53,0.202173,372727,234001
1599.54,0.199238,365060,230742
1602.55,0.197436,357543,226930
1605.55,0.195799,349495,222660
1608.55,0.194625,341154,217934
1612.54,0.192854,330877,212233
1615.53,0.190593,322904,208200
1618.51,0.190021,315116,203446
1621.49,0.187217,307217,199631
1624.47,0.187075,299481,194668
1627.44,0.186631,292112,190072
1630.41,0.185377,284245,185488
1634.36,0.183507,274079,179626
1637.32,0.183180,266916,175063
1640.27,0.182127,259612,170686
1643.22,0.181389,251804,165834
1646.16,0.181458,244348,160898
1649.1,0.180003,236703,156387
1652.04,0.177710,228171,151548
1655.95,0.176065,215408,143614
1658.88,0.170359,204937,138440
1661.8,0.164905,193395,132294
1664.72,0.158133,179728,124877
1667.63,0.145297,163642,117111
1670.54,0.131824,146312,108008
1673.44,0.116790,128451,98163
1677.31,0.097944,105080,83864
1680.21,0.085852,88906,72959
1683.1,0.076947,75033,62850
1685.99,0.076428,63520,53270
1688.87,0.082509,53714,44420
1691.75,0.087574,45653,37316
1694.62,0.088620,39137,31913
1697.49,0.094007,33776,27202
1701.31,0.105275,28175,22110