File: samples/wool/wool-000811/Column 1_050577_20150331_121248.csv
Method:,Column 1,,
Host Date-Time:,31/3/15 @ 12:12:48,,
Header Version:,1,,
System Temp (C):,33.83,,
Detector Temp (C):,34.61,,
Humidity (%):,2.25,,
Lamp PD:,3819,,
Shift Vector Coefficients:,-10.5391,0.0761263,-0.000134223,,
Pixel to Wavelength Coefficients:,1775.68,-0.916766,-0.000235065,,
Serial Number:,5510004,,
Scan Config Name:,Column 1,,
Scan Config Type:,Slew,,
Section 1,,
Start wavelength (nm):,900,,
End wavelength (nm):,1700,,
Pattern Pixel Width (nm):,   7.03,,,,
Exposure (ms):,  0.635,,,,
Digital Resolution:,228,,
Num Repeats:,6,,
PGA Gain:,64,,
Total Measurement Time in sec:,  2.679,,
Wavelength (nm),Absorbance (AU),Reference Signal (unitless),Sample Signal (unitless)
901.51,0.071303,108485,92059
905.376,0.076809,121306,101642
909.237,0.082231,131909,109155
913.095,0.080452,143299,119067
916.948,0.080892,156982,130304
922.079,0.082897,179937,148670
925.923,0.084505,200504,165051
929.762,0.084693,222660,183210
933.597,0.084604,244426,201161
937.427,0.084252,263972,217423
941.254,0.083860,281845,232354
945.076,0.082034,297271,246104
950.165,0.081564,315605,261565
953.978,0.081147,328029,272123
957.786,0.080919,340470,282592
961.59,0.080851,352317,292471
965.389,0.081234,363056,301120
969.185,0.081787,373162,309108
972.976,0.081764,382632,316969
976.763,0.082474,391202,323539
981.806,0.082568,400190,330901
985.583,0.083583,406088,334994
989.355,0.084507,410162,337636
993.124,0.083906,412868,340334
996.888,0.084643,414263,340905
1000.65,0.085436,415476,341279
1004.4,0.086776,415479,340230
1009.41,0.087752,414358,338551
1013.15,0.088295,412923,336957
1016.89,0.088542,411526,335626
1020.63,0.088275,409066,333825
1024.36,0.088525,406777,331766
1028.09,0.088300,404427,330020
1031.82,0.087993,401911,328199
1036.78,0.087619,398410,325620
1040.49,0.088273,396204,323330
1044.2,0.086883,394236,322755
1047.91,0.087215,392042,320714
1051.61,0.087375,389823,318781
1055.31,0.087083,388234,317695
1059,0.086564,387599,317555
1063.92,0.085711,386688,317431
1067.61,0.084695,386598,318101
1071.29,0.084693,387377,318743
1074.96,0.083587,388536,320512
1078.63,0.083457,389855,321696
1082.3,0.082674,391215,323401
1085.96,0.081596,393215,325862
1090.84,0.081458,396270,328498
1094.49,0.080379,398760,331385
1098.14,0.079955,400987,333561
1101.79,0.079796,403477,335755
1105.43,0.079023,406116,338553
1109.06,0.078220,407701,340504
1112.7,0.078009,409859,342472
1117.53,0.077874,412494,344781
1121.15,0.078537,414909,346271
1124.77,0.078892,416559,347364
1128.38,0.079773,418532,348302
1131.99,0.080706,419956,348737
1135.6,0.082074,421946,349287
1139.2,0.083753,423881,349535
1143.99,0.085564,426786,350466
1147.58,0.086364,428617,351322
1151.17,0.087756,431169,352283
1154.75,0.088450,433579,353686
1158.33,0.089749,436264,354814
1161.91,0.092050,439132,355259
1165.48,0.094265,442389,356073
1169.04,0.096583,446101,357150
1173.79,0.099411,451929,359467
1177.34,0.101589,456026,360911
1180.9,0.103338,461306,363623
1184.44,0.105402,467657,366881
1187.99,0.106337,473969,371033
1191.52,0.106535,479856,375471
1195.06,0.106405,487372,381466
1199.76,0.105706,497347,389900
1203.29,0.104177,504311,396754
1206.81,0.103975,511507,402603
1210.33,0.103588,519078,408926
1213.84,0.103182,527163,415684
1217.35,0.102852,534208,421559
1220.85,0.102060,540472,427281
1225.51,0.101359,549929,435459
1229.01,0.101122,556888,441211
1232.5,0.100238,562180,446311
1235.98,0.099934,567975,451227
1239.46,0.098835,574815,457818
1242.94,0.097470,582782,465625
1246.41,0.096902,591476,473189
1251.03,0.096954,604016,483164
1254.5,0.097390,612289,489290
1257.96,0.097241,619125,494923
1261.41,0.098279,624551,498068
1264.86,0.098436,629900,502153
1268.31,0.099093,634345,504931
1271.75,0.099285,638574,508073
1276.33,0.099998,642499,510358
1279.76,0.099804,645905,513292
1283.19,0.099279,648307,515824
1286.61,0.098934,650446,517937
1290.03,0.098849,652132,519382
1293.44,0.098236,653907,521531
1296.85,0.098148,655963,523277
1301.39,0.098004,657349,524556
1304.8,0.097849,657558,524910
1308.19,0.098363,658515,525053
1311.58,0.098750,658804,524815
1314.97,0.098810,659011,524907
1318.36,0.099237,658272,523803
1321.73,0.100138,658022,522519
1326.23,0.100816,657870,521584
1329.6,0.101427,656482,519751
1332.97,0.102572,654926,517155
1336.33,0.104125,653727,514365
1339.69,0.105902,652497,511301
1343.04,0.107033,649913,507952
1346.39,0.109199,647671,503681
1349.73,0.111696,645338,498989
1354.18,0.114480,641175,492602
1357.52,0.116307,638376,488393
1360.85,0.118486,635805,483992
1364.17,0.120560,633413,479874
1367.49,0.122309,631026,476144
1370.81,0.124924,628050,471053
1374.12,0.126640,625034,466943
1378.54,0.130427,620272,459362
1381.84,0.134053,616892,453060
1385.14,0.138050,613613,446524
1388.43,0.142162,611526,440812
1391.72,0.147517,610663,434795
1395.01,0.152351,610634,429962
1398.29,0.157870,611700,425274
1402.66,0.165549,614051,419426
1405.93,0.171585,616268,415130
1409.2,0.177569,617795,410464
1412.46,0.182975,618872,406093
1415.72,0.187580,619795,402409
1418.98,0.191842,620495,398930
1422.23,0.195132,621087,396297
1426.56,0.200429,621375,391674
1429.8,0.203211,621616,389324
1433.04,0.205618,622129,387492
1436.27,0.208185,621526,384835
1439.5,0.210356,621113,382661
1442.72,0.213068,620921,380162
1445.94,0.215169,620270,377930
1450.23,0.218139,618860,374501
1453.44,0.220763,617697,371546
1456.64,0.223345,616264,368487
1459.85,0.225291,614413,365737
1463.04,0.228340,612307,361934
1466.24,0.230897,610032,358472
1469.43,0.234021,607345,354335
1473.67,0.238664,603789,348515
1476.85,0.243327,601175,343300
1480.02,0.247998,597737,337685
1483.19,0.254218,594479,331069
1486.36,0.258576,591232,325973
1489.52,0.261919,587853,321625
1492.68,0.264857,583875,317295
1496.89,0.266848,578062,312699
1500.03,0.267287,574159,310274
1503.18,0.267090,570285,308320
1506.32,0.266150,565444,306365
1509.45,0.265414,560571,304240
1512.58,0.263964,555821,302671
1515.71,0.261271,550344,301553
1519.87,0.258746,543983,299805
1522.99,0.255963,538764,298838
1526.1,0.253994,533692,297370
1529.21,0.251579,527902,295784
1532.32,0.248284,521886,294640
1535.42,0.245285,515888,293272
1538.51,0.242618,509987,291703
1541.6,0.239735,503936,290162
1545.72,0.236172,494694,287187
1548.8,0.232914,488378,285655
1551.88,0.230721,481832,283253
1554.95,0.228723,474989,280518
1558.02,0.227536,467818,277039
1561.08,0.226186,460730,273691
1564.15,0.223828,454170,271263
1568.22,0.223422,444181,265545
1571.27,0.223156,436947,261380
1574.32,0.221951,429598,257698
1577.36,0.221164,422039,253623
1580.4,0.218799,414375,250377
1583.43,0.217185,406354,246445
1586.46,0.216473,398475,242063
1590.49,0.213747,388982,237784
1593.51,0.212536,380708,233376
1596.53,0.210281,372727,229673
1599.54,0.207634,365060,226324
1602.55,0.206205,357543,222394
1605.55,0.204377,349495,218305
1608.55,0.202277,341154,214128
1612.54,0.199676,330877,208925
1615.53,0.197523,322904,204904
1618.51,0.197087,315116,200163
1621.49,0.196030,307217,195621
1624.47,0.195074,299481,191115
1627.44,0.194514,292112,186653
1630.41,0.193216,284245,182170
1634.36,0.191429,274079,176379
1637.32,0.190417,266916,172170
1640.27,0.191055,259612,167213
1643.22,0.189102,251804,162915
1646.16,0.188580,244348,158281
1649.1,0.187657,236703,153655
1652.04,0.185958,228171,148697
1655.95,0.182558,215408,141483
1658.88,0.178455,204937,135883
1661.8,0.174259,193395,129475
1664.72,0.166746,179728,122425
1667.63,0.153737,163642,114857
1670.54,0.140774,146312,105805
1673.44,0.124107,128451,96523
1677.31,0.104614,105080,82586
1680.21,0.094625,88906,71500
1683.1,0.089922,75033,61000
1685.99,0.089160,63520,51731
1688.87,0.091109,53714,43549
1691.75,0.099359,45653,36317
1694.62,0.097946,39137,31235
1697.49,0.111535,33776,26126
1701.31,0.121872,28175,21281