File: samples/wool/wool-000811/Column 1_050537_20150331_115335.csv
Method:,Column 1,,
Host Date-Time:,31/3/15 @ 11:53:35,,
Header Version:,1,,
System Temp (C):,31.67,,
Detector Temp (C):,30.09,,
Humidity (%):,3.51,,
Lamp PD:,3826,,
Shift Vector Coefficients:,-10.5391,0.0761263,-0.000134223,,
Pixel to Wavelength Coefficients:,1775.68,-0.916766,-0.000235065,,
Serial Number:,5510004,,
Scan Config Name:,Column 1,,
Scan Config Type:,Slew,,
Section 1,,
Start wavelength (nm):,900,,
End wavelength (nm):,1700,,
Pattern Pixel Width (nm):,   7.03,,,,
Exposure (ms):,  0.635,,,,
Digital Resolution:,228,,
Num Repeats:,6,,
PGA Gain:,64,,
Total Measurement Time in sec:,  2.682,,
Wavelength (nm),Absorbance (AU),Reference Signal (unitless),Sample Signal (unitless)
901.51,0.041942,108485,98498
905.376,0.047377,121306,108769
909.237,0.049310,131909,117751
913.095,0.050552,143299,127553
916.948,0.049018,156982,140227
922.079,0.049356,179937,160607
925.923,0.050366,200504,178549
929.762,0.050403,222660,198262
933.597,0.050273,244426,217708
937.427,0.051160,263972,234638
941.254,0.051678,281845,250226
945.076,0.052006,297271,263722
950.165,0.051877,315605,280070
953.978,0.052301,328029,290811
957.786,0.052416,340470,301761
961.59,0.052778,352317,312001
965.389,0.052776,363056,321512
969.185,0.054006,373162,329527
972.976,0.054020,382632,337879
976.763,0.054746,391202,344870
981.806,0.055964,400190,351805
985.583,0.056497,406088,356552
989.355,0.057246,410162,359509
993.124,0.057925,412868,361315
996.888,0.058358,414263,362175
1000.65,0.058986,415476,362710
1004.4,0.060394,415479,361539
1009.41,0.061567,414358,359591
1013.15,0.061942,412923,358036
1016.89,0.062033,411526,356750
1020.63,0.061951,409066,354685
1024.36,0.062174,406777,352519
1028.09,0.061939,404427,350672
1031.82,0.061546,401911,348806
1036.78,0.060525,398410,346581
1040.49,0.060476,396204,344701
1044.2,0.060343,394236,343094
1047.91,0.059764,392042,341640
1051.61,0.058466,389823,340723
1055.31,0.057928,388234,339755
1059,0.056911,387599,339994
1063.92,0.055625,386688,340201
1067.61,0.054768,386598,340794
1071.29,0.054029,387377,342062
1074.96,0.054056,388536,343064
1078.63,0.052795,389855,345230
1082.3,0.052438,391215,346719
1085.96,0.051563,393215,349194
1090.84,0.050621,396270,352671
1094.49,0.050530,398760,354962
1098.14,0.049913,400987,357452
1101.79,0.049869,403477,359708
1105.43,0.049942,406116,362000
1109.06,0.049069,407701,364144
1112.7,0.049420,409859,365775
1117.53,0.048789,412494,368662
1121.15,0.050374,414909,369470
1124.77,0.051268,416559,370176
1128.38,0.052373,418532,370984
1131.99,0.054109,419956,370762
1135.6,0.056361,421946,370592
1139.2,0.058074,423881,370826
1143.99,0.060725,426786,371095
1147.58,0.062176,428617,371444
1151.17,0.064021,431169,372072
1154.75,0.065091,433579,373231
1158.33,0.067448,436264,373509
1161.91,0.069360,439132,374313
1165.48,0.072961,442389,373976
1169.04,0.075517,446101,374901
1173.79,0.079718,451929,376142
1177.34,0.082648,456026,377000
1180.9,0.084845,461306,379441
1184.44,0.087487,467657,382332
1187.99,0.087353,473969,387612
1191.52,0.087243,479856,392526
1195.06,0.086752,487372,399125
1199.76,0.085075,497347,408869
1203.29,0.083385,504311,416211
1206.81,0.082720,511507,422797
1210.33,0.081443,519078,430318
1213.84,0.079960,527163,438515
1217.35,0.079515,534208,444831
1220.85,0.078021,540472,451598
1225.51,0.076757,549929,460839
1229.01,0.075968,556888,467520
1232.5,0.075440,562180,472536
1235.98,0.075009,567975,477882
1239.46,0.073373,574815,485462
1242.94,0.071837,582782,493934
1246.41,0.070991,591476,502280
1251.03,0.071006,604016,512911
1254.5,0.070971,612289,519979
1257.96,0.071487,619125,525160
1261.41,0.072086,624551,529032
1264.86,0.072676,629900,532839
1268.31,0.073188,634345,535966
1271.75,0.073672,638574,538939
1276.33,0.074147,642499,541658
1279.76,0.074018,645905,544692
1283.19,0.073589,648307,547258
1286.61,0.073106,650446,549674
1290.03,0.072881,652132,551384
1293.44,0.072223,653907,553723
1296.85,0.072044,655963,555694
1301.39,0.071953,657349,556984
1304.8,0.071875,657558,557262
1308.19,0.071883,658515,558062
1311.58,0.072338,658804,557722
1314.97,0.073222,659011,556764
1318.36,0.073964,658272,555190
1321.73,0.074248,658022,554616
1326.23,0.075409,657870,553007
1329.6,0.076434,656482,550540
1332.97,0.077427,654926,547981
1336.33,0.079044,653727,544945
1339.69,0.080812,652497,541709
1343.04,0.082900,649913,536977
1346.39,0.085661,647671,531733
1349.73,0.087710,645338,527324
1354.18,0.091485,641175,519388
1357.52,0.093772,638376,514404
1360.85,0.096223,635805,509449
1364.17,0.098627,633413,504731
1367.49,0.101380,631026,499651
1370.81,0.104323,628050,493937
1374.12,0.106992,625034,488553
1378.54,0.110867,620272,480524
1381.84,0.114858,616892,473534
1385.14,0.120046,613613,465424
1388.43,0.125301,611526,458262
1391.72,0.130619,610663,452046
1395.01,0.136884,610634,445551
1398.29,0.143201,611700,439883
1402.66,0.152326,614051,432393
1405.93,0.159117,616268,427221
1409.2,0.165947,617795,421597
1412.46,0.172019,618872,416468
1415.72,0.177220,619795,412124
1418.98,0.182393,620495,407704
1422.23,0.186421,621087,404326
1426.56,0.191523,621375,399789
1429.8,0.194732,621616,397000
1433.04,0.197700,622129,394621
1436.27,0.200314,621526,391873
1439.5,0.202695,621113,389471
1442.72,0.205964,620921,386431
1445.94,0.207876,620270,384330
1450.23,0.211496,618860,380274
1453.44,0.214527,617697,376919
1456.64,0.217219,616264,373721
1459.85,0.220083,614413,370150
1463.04,0.222603,612307,366747
1466.24,0.225576,610032,362891
1469.43,0.228486,607345,358880
1473.67,0.233268,603789,352872
1476.85,0.238140,601175,347425
1480.02,0.244007,597737,340803
1483.19,0.249921,594479,334361
1486.36,0.255097,591232,328595
1489.52,0.260786,587853,322465
1492.68,0.263551,583875,318250
1496.89,0.266587,578062,312887
1500.03,0.267542,574159,310092
1503.18,0.268319,570285,307449
1506.32,0.267223,565444,305609
1509.45,0.266053,560571,303793
1512.58,0.264668,555821,302181
1515.71,0.262933,550344,300401
1519.87,0.259126,543983,299543
1522.99,0.257181,538764,298001
1526.1,0.254143,533692,297268
1529.21,0.250556,527902,296481
1532.32,0.247679,521886,295051
1535.42,0.244547,515888,293771
1538.51,0.241457,509987,292484
1541.6,0.237832,503936,291436
1545.72,0.232975,494694,289309
1548.8,0.229807,488378,287706
1551.88,0.226838,481832,285797
1554.95,0.224883,474989,283009
1558.02,0.222880,467818,280025
1561.08,0.220636,460730,277211
1564.15,0.220190,454170,273545
1568.22,0.219351,444181,268046
1571.27,0.219019,436947,263882
1574.32,0.217641,429598,260268
1577.36,0.215847,422039,256747
1580.4,0.214019,414375,253148
1583.43,0.211709,406354,249572
1586.46,0.209572,398475,245940
1590.49,0.206982,388982,241517
1593.51,0.204952,380708,237487
1596.53,0.202021,372727,234083
1599.54,0.200757,365060,229936
1602.55,0.198086,357543,226591
1605.55,0.195524,349495,222801
1608.55,0.193893,341154,218302
1612.54,0.191734,330877,212781
1615.53,0.188402,322904,209253
1618.51,0.187289,315116,204730
1621.49,0.189967,307217,198371
1624.47,0.183022,299481,196493
1627.44,0.182074,292112,192077
1630.41,0.181721,284245,187056
1634.36,0.179811,274079,181161
1637.32,0.178524,266916,176950
1640.27,0.177546,259612,172496
1643.22,0.175650,251804,168040
1646.16,0.175488,244348,163125
1649.1,0.173983,236703,158570
1652.04,0.174416,228171,152702
1655.95,0.171588,215408,145102
1658.88,0.170905,204937,138266
1661.8,0.170359,193395,130643
1664.72,0.167889,179728,122103
1667.63,0.165325,163642,111833
1670.54,0.161066,146312,100975
1673.44,0.157317,128451,89417
1677.31,0.154200,105080,73675
1680.21,0.155252,88906,62184
1683.1,0.155449,75033,52457
1685.99,0.163404,63520,43602
1688.87,0.166654,53714,36596
1691.75,0.167408,45653,31050
1694.62,0.178802,39137,25929
1697.49,0.172601,33776,22699
1701.31,0.178348,28175,18686