File: samples/wool/wool-000811/Column 1_050612_20150331_122923.csv
Method:,Column 1,,
Host Date-Time:,31/3/15 @ 12:29:23,,
Header Version:,1,,
System Temp (C):,34.09,,
Detector Temp (C):,34.87,,
Humidity (%):,1.66,,
Lamp PD:,3818,,
Shift Vector Coefficients:,-10.5391,0.0761263,-0.000134223,,
Pixel to Wavelength Coefficients:,1775.68,-0.916766,-0.000235065,,
Serial Number:,5510004,,
Scan Config Name:,Column 1,,
Scan Config Type:,Slew,,
Section 1,,
Start wavelength (nm):,900,,
End wavelength (nm):,1700,,
Pattern Pixel Width (nm):,   7.03,,,,
Exposure (ms):,  0.635,,,,
Digital Resolution:,228,,
Num Repeats:,6,,
PGA Gain:,64,,
Total Measurement Time in sec:,  2.679,,
Wavelength (nm),Absorbance (AU),Reference Signal (unitless),Sample Signal (unitless)
901.51,0.069181,108485,92510
905.376,0.074997,121306,102067
909.237,0.076959,131909,110488
913.095,0.076718,143299,120095
916.948,0.076789,156982,131541
922.079,0.080750,179937,149407
925.923,0.080597,200504,166543
929.762,0.082522,222660,184128
933.597,0.081759,244426,202483
937.427,0.080614,263972,219252
941.254,0.079901,281845,234482
945.076,0.079379,297271,247613
950.165,0.078325,315605,263523
953.978,0.077383,328029,274492
957.786,0.077175,340470,285039
961.59,0.077580,352317,294682
965.389,0.077254,363056,303892
969.185,0.077619,373162,312089
972.976,0.077068,382632,320415
976.763,0.078212,391202,326730
981.806,0.078573,400190,333959
985.583,0.079307,406088,338309
989.355,0.079399,410162,341630
993.124,0.080425,412868,343073
996.888,0.080655,414263,344050
1000.65,0.081690,415476,344236
1004.4,0.082070,415479,343937
1009.41,0.084073,414358,341431
1013.15,0.084719,412923,339743
1016.89,0.084706,411526,338603
1020.63,0.084396,409066,336820
1024.36,0.084485,406777,334866
1028.09,0.084236,404427,333123
1031.82,0.084184,401911,331090
1036.78,0.083791,398410,328503
1040.49,0.083978,396204,326543
1044.2,0.083957,394236,324937
1047.91,0.083362,392042,323572
1051.61,0.082888,389823,322092
1055.31,0.082488,388234,321074
1059,0.082292,387599,320694
1063.92,0.081015,386688,320882
1067.61,0.081029,386598,320797
1071.29,0.080031,387377,322183
1074.96,0.080007,388536,323165
1078.63,0.078930,389855,325067
1082.3,0.078908,391215,326218
1085.96,0.077741,393215,328768
1090.84,0.076469,396270,332294
1094.49,0.075690,398760,334982
1098.14,0.075799,400987,336768
1101.79,0.074694,403477,339723
1105.43,0.074261,406116,342286
1109.06,0.073604,407701,344142
1112.7,0.073749,409859,345848
1117.53,0.073236,412494,348483
1121.15,0.073813,414909,350058
1124.77,0.073312,416559,351856
1128.38,0.074667,418532,352421
1131.99,0.075299,419956,353106
1135.6,0.077455,421946,353022
1139.2,0.078599,423881,353708
1143.99,0.080862,426786,354281
1147.58,0.081199,428617,355525
1151.17,0.082408,431169,356648
1154.75,0.083525,433579,357720
1158.33,0.084360,436264,359244
1161.91,0.086214,439132,360065
1165.48,0.088423,442389,360895
1169.04,0.090632,446101,362077
1173.79,0.093742,451929,364190
1177.34,0.095930,456026,365645
1180.9,0.098150,461306,367993
1184.44,0.100438,467657,371099
1187.99,0.100993,473969,375627
1191.52,0.100705,479856,380545
1195.06,0.100881,487372,386349
1199.76,0.100084,497347,394980
1203.29,0.099287,504311,401247
1206.81,0.099115,511507,407133
1210.33,0.098181,519078,414049
1213.84,0.098047,527163,420628
1217.35,0.097331,534208,426952
1220.85,0.096373,540472,432913
1225.51,0.097547,549929,439298
1229.01,0.095284,556888,447182
1232.5,0.095096,562180,451626
1235.98,0.094112,567975,457317
1239.46,0.093081,574815,463924
1242.94,0.091942,582782,471589
1246.41,0.091647,591476,478950
1251.03,0.091613,604016,489142
1254.5,0.091831,612289,495593
1257.96,0.091647,619125,501339
1261.41,0.092234,624551,505049
1264.86,0.092986,629900,508494
1268.31,0.093486,634345,511493
1271.75,0.094190,638574,514069
1276.33,0.094753,642499,516559
1279.76,0.094448,645905,519662
1283.19,0.093877,648307,522280
1286.61,0.093613,650446,524322
1290.03,0.093351,652132,525999
1293.44,0.092689,653907,528235
1296.85,0.092215,655963,530474
1301.39,0.092334,657349,531450
1304.8,0.091942,657558,532098
1308.19,0.092067,658515,532719
1311.58,0.092306,658804,532660
1314.97,0.092914,659011,532082
1318.36,0.092862,658272,531549
1321.73,0.093402,658022,530687
1326.23,0.093987,657870,529850
1329.6,0.094680,656482,527889
1332.97,0.095810,654926,525270
1336.33,0.096901,653727,522992
1339.69,0.098372,652497,520243
1343.04,0.099835,649913,516440
1346.39,0.101324,647671,512897
1349.73,0.103277,645338,508757
1354.18,0.106420,641175,501830
1357.52,0.108139,638376,497665
1360.85,0.110390,635805,493099
1364.17,0.112301,633413,489087
1367.49,0.114825,631026,484420
1370.81,0.116702,628050,480056
1374.12,0.118914,625034,475324
1378.54,0.121412,620272,468997
1381.84,0.123896,616892,463781
1385.14,0.127515,613613,457488
1388.43,0.131206,611526,452073
1391.72,0.135048,610663,447459
1395.01,0.139120,610634,443263
1398.29,0.143518,611700,439562
1402.66,0.149422,614051,435294
1405.93,0.154197,616268,432088
1409.2,0.159051,617795,428345
1412.46,0.163177,618872,425034
1415.72,0.167335,619795,421612
1418.98,0.170974,620495,418566
1422.23,0.173835,621087,416215
1426.56,0.178175,621375,412267
1429.8,0.180263,621616,410449
1433.04,0.182542,622129,408638
1436.27,0.184901,621526,406030
1439.5,0.186680,621113,404102
1442.72,0.189526,620921,401338
1445.94,0.192198,620270,398458
1450.23,0.195387,618860,394644
1453.44,0.197902,617697,391628
1456.64,0.200717,616264,388195
1459.85,0.203457,614413,384595
1463.04,0.206402,612307,380686
1466.24,0.209828,610032,376292
1469.43,0.214100,607345,370967
1473.67,0.220243,603789,363615
1476.85,0.225801,601175,357437
1480.02,0.232262,597737,350145
1483.19,0.238645,594479,343156
1486.36,0.244849,591232,336441
1489.52,0.249118,587853,331246
1492.68,0.252341,583875,326572
1496.89,0.255072,578062,321294
1500.03,0.255201,574159,319030
1503.18,0.255430,570285,316710
1506.32,0.254202,565444,314911
1509.45,0.252981,560571,313076
1512.58,0.251183,555821,311711
1515.71,0.249436,550344,309883
1519.87,0.246337,543983,308495
1522.99,0.243431,538764,307587
1526.1,0.241403,533692,306117
1529.21,0.238016,527902,305167
1532.32,0.235198,521886,303653
1535.42,0.232628,515888,301945
1538.51,0.229694,509987,300514
1541.6,0.226147,503936,299384
1545.72,0.223165,494694,295918
1548.8,0.220078,488378,294224
1551.88,0.217319,481832,292130
1554.95,0.214812,474989,289649
1558.02,0.213769,467818,285962
1561.08,0.212791,460730,282264
1564.15,0.212701,454170,278303
1568.22,0.210488,444181,273572
1571.27,0.211358,436947,268578
1574.32,0.209874,429598,264965
1577.36,0.208349,422039,261218
1580.4,0.207988,414375,256688
1583.43,0.205770,406354,253008
1586.46,0.203952,398475,249143
1590.49,0.202805,388982,243851
1593.51,0.200131,380708,240138
1596.53,0.198996,372727,235719
1599.54,0.196375,365060,232268
1602.55,0.194954,357543,228231
1605.55,0.192478,349495,224369
1608.55,0.190834,341154,219845
1612.54,0.189704,330877,213778
1615.53,0.187576,322904,209651
1618.51,0.186321,315116,205187
1621.49,0.185558,307217,200395
1624.47,0.184102,299481,196005
1627.44,0.183528,292112,191435
1630.41,0.182765,284245,186607
1634.36,0.180865,274079,180722
1637.32,0.180487,266916,176152
1640.27,0.180013,259612,171519
1643.22,0.178572,251804,166913
1646.16,0.177894,244348,162224
1649.1,0.177942,236703,157131
1652.04,0.176220,228171,152069
1655.95,0.171708,215408,145062
1658.88,0.169550,204937,138698
1661.8,0.163623,193395,132685
1664.72,0.155436,179728,125655
1667.63,0.141983,163642,118008
1670.54,0.128025,146312,108957
1673.44,0.112537,128451,99129
1677.31,0.092531,105080,84916
1680.21,0.081340,88906,73721
1683.1,0.074439,75033,63214
1685.99,0.077268,63520,53167
1688.87,0.078955,53714,44785
1691.75,0.078932,45653,38066
1694.62,0.084948,39137,32184
1697.49,0.092748,33776,27281
1701.31,0.106022,28175,22072