File: samples/wool/wool-000811/Column 1_050623_20150331_123428.csv
Method:,Column 1,,
Host Date-Time:,31/3/15 @ 12:34:28,,
Header Version:,1,,
System Temp (C):,34.13,,
Detector Temp (C):,35.03,,
Humidity (%):,1.56,,
Lamp PD:,3818,,
Shift Vector Coefficients:,-10.5391,0.0761263,-0.000134223,,
Pixel to Wavelength Coefficients:,1775.68,-0.916766,-0.000235065,,
Serial Number:,5510004,,
Scan Config Name:,Column 1,,
Scan Config Type:,Slew,,
Section 1,,
Start wavelength (nm):,900,,
End wavelength (nm):,1700,,
Pattern Pixel Width (nm):,   7.03,,,,
Exposure (ms):,  0.635,,,,
Digital Resolution:,228,,
Num Repeats:,6,,
PGA Gain:,64,,
Total Measurement Time in sec:,  2.666,,
Wavelength (nm),Absorbance (AU),Reference Signal (unitless),Sample Signal (unitless)
901.51,0.069294,108485,92486
905.376,0.077142,121306,101564
909.237,0.076574,131909,110586
913.095,0.078251,143299,119672
916.948,0.080246,156982,130498
922.079,0.082229,179937,148899
925.923,0.082635,200504,165763
929.762,0.083032,222660,183912
933.597,0.083239,244426,201794
937.427,0.081130,263972,218992
941.254,0.080166,281845,234339
945.076,0.079064,297271,247793
950.165,0.078340,315605,263514
953.978,0.077793,328029,274233
957.786,0.077809,340470,284623
961.59,0.077792,352317,294538
965.389,0.077497,363056,303722
969.185,0.077896,373162,311890
972.976,0.077973,382632,319748
976.763,0.078639,391202,326409
981.806,0.079466,400190,333273
985.583,0.079853,406088,337884
989.355,0.079958,410162,341191
993.124,0.079838,412868,343537
996.888,0.080594,414263,344098
1000.65,0.081232,415476,344599
1004.4,0.082573,415479,343539
1009.41,0.083916,414358,341554
1013.15,0.084540,412923,339883
1016.89,0.084603,411526,338684
1020.63,0.084875,409066,336448
1024.36,0.085168,406777,334340
1028.09,0.084620,404427,332828
1031.82,0.084139,401911,331124
1036.78,0.084221,398410,328178
1040.49,0.083943,396204,326570
1044.2,0.083933,394236,324955
1047.91,0.083328,392042,323597
1051.61,0.082920,389823,322068
1055.31,0.082913,388234,320760
1059,0.082530,387599,320518
1063.92,0.081602,386688,320449
1067.61,0.080779,386598,320982
1071.29,0.080324,387377,321966
1074.96,0.079681,388536,323408
1078.63,0.079267,389855,324815
1082.3,0.077933,391215,326951
1085.96,0.077845,393215,328689
1090.84,0.076833,396270,332015
1094.49,0.076262,398760,334541
1098.14,0.075316,400987,337143
1101.79,0.075223,403477,339309
1105.43,0.074271,406116,342278
1109.06,0.073790,407701,343995
1112.7,0.073803,409859,345805
1117.53,0.073487,412494,348282
1121.15,0.073931,414909,349963
1124.77,0.074116,416559,351205
1128.38,0.075232,418532,351963
1131.99,0.075997,419956,352539
1135.6,0.077026,421946,353371
1139.2,0.078723,423881,353607
1143.99,0.081029,426786,354145
1147.58,0.081279,428617,355460
1151.17,0.082433,431169,356627
1154.75,0.083708,433579,357569
1158.33,0.084420,436264,359194
1161.91,0.086372,439132,359934
1165.48,0.088300,442389,360998
1169.04,0.090183,446101,362452
1173.79,0.094054,451929,363929
1177.34,0.096420,456026,365233
1180.9,0.098079,461306,368053
1184.44,0.099528,467657,371877
1187.99,0.101370,473969,375301
1191.52,0.101400,479856,379936
1195.06,0.101208,487372,386058
1199.76,0.100070,497347,394993
1203.29,0.099453,504311,401093
1206.81,0.098561,511507,407653
1210.33,0.097884,519078,414332
1213.84,0.097663,527163,421000
1217.35,0.096977,534208,427300
1220.85,0.096245,540472,433040
1225.51,0.095307,549929,441570
1229.01,0.095102,556888,447369
1232.5,0.094180,562180,452580
1235.98,0.094076,567975,457355
1239.46,0.092939,574815,464076
1242.94,0.092234,582782,471272
1246.41,0.091309,591476,479323
1251.03,0.091542,604016,489223
1254.5,0.091635,612289,495817
1257.96,0.092068,619125,500853
1261.41,0.092264,624551,505015
1264.86,0.093429,629900,507975
1268.31,0.093401,634345,511593
1271.75,0.094194,638574,514064
1276.33,0.094444,642499,516926
1279.76,0.094553,645905,519536
1283.19,0.093488,648307,522748
1286.61,0.093216,650446,524802
1290.03,0.093079,652132,526328
1293.44,0.092686,653907,528239
1296.85,0.092085,655963,530633
1301.39,0.091852,657349,532040
1304.8,0.091564,657558,532562
1308.19,0.092276,658515,532463
1311.58,0.092154,658804,532847
1314.97,0.092598,659011,532469
1318.36,0.092734,658272,531706
1321.73,0.093165,658022,530977
1326.23,0.094254,657870,529524
1329.6,0.095055,656482,527434
1332.97,0.095123,654926,526101
1336.33,0.096437,653727,523551
1339.69,0.097761,652497,520976
1343.04,0.099266,649913,517117
1346.39,0.101239,647671,512998
1349.73,0.103030,645338,509046
1354.18,0.105989,641175,502328
1357.52,0.108094,638376,497717
1360.85,0.110056,635805,493478
1364.17,0.111691,633413,489774
1367.49,0.114344,631026,484957
1370.81,0.116467,628050,480316
1374.12,0.118171,625034,476138
1378.54,0.121093,620272,469342
1381.84,0.124037,616892,463631
1385.14,0.126875,613613,458162
1388.43,0.130679,611526,452622
1391.72,0.133650,610663,448902
1395.01,0.137759,610634,444654
1398.29,0.141829,611700,441275
1402.66,0.147818,614051,436904
1405.93,0.152866,616268,433415
1409.2,0.157732,617795,429648
1412.46,0.161415,618872,426762
1415.72,0.164976,619795,423908
1418.98,0.168301,620495,421150
1422.23,0.172039,621087,417940
1426.56,0.175708,621375,414616
1429.8,0.178206,621616,412398
1433.04,0.180655,622129,410417
1436.27,0.182806,621526,407994
1439.5,0.184884,621113,405776
1442.72,0.187077,620921,403608
1445.94,0.189871,620270,400599
1450.23,0.193275,618860,396568
1453.44,0.196076,617697,393278
1456.64,0.199355,616264,389414
1459.85,0.201318,614413,386494
1463.04,0.204938,612307,381972
1466.24,0.208002,610032,377877
1469.43,0.212055,607345,372718
1473.67,0.218755,603789,364863
1476.85,0.223812,601175,359078
1480.02,0.230629,597737,351464
1483.19,0.237670,594479,343927
1486.36,0.243926,591232,337157
1489.52,0.248284,587853,331883
1492.68,0.251880,583875,326919
1496.89,0.254584,578062,321655
1500.03,0.254376,574159,319636
1503.18,0.254258,570285,317566
1506.32,0.253604,565444,315345
1509.45,0.252665,560571,313304
1512.58,0.250698,555821,312059
1515.71,0.248032,550344,310887
1519.87,0.244739,543983,309632
1522.99,0.242995,538764,307896
1526.1,0.240523,533692,306738
1529.21,0.237704,527902,305386
1532.32,0.234077,521886,304438
1535.42,0.231481,515888,302743
1538.51,0.229043,509987,300965
1541.6,0.226010,503936,299478
1545.72,0.222063,494694,296670
1548.8,0.219031,488378,294934
1551.88,0.216130,481832,292931
1554.95,0.214638,474989,289765
1558.02,0.212574,467818,286750
1561.08,0.211675,460730,282990
1564.15,0.211642,454170,278982
1568.22,0.210882,444181,273324
1571.27,0.210338,436947,269210
1574.32,0.209363,429598,265277
1577.36,0.207459,422039,261754
1580.4,0.207381,414375,257047
1583.43,0.204858,406354,253540
1586.46,0.204137,398475,249037
1590.49,0.202365,388982,244098
1593.51,0.200634,380708,239860
1596.53,0.198676,372727,235893
1599.54,0.196669,365060,232111
1602.55,0.193739,357543,228870
1605.55,0.192428,349495,224395
1608.55,0.190899,341154,219812
1612.54,0.188624,330877,214310
1615.53,0.187057,322904,209902
1618.51,0.186062,315116,205309
1621.49,0.184911,307217,200694
1624.47,0.183730,299481,196173
1627.44,0.182318,292112,191969
1630.41,0.181942,284245,186961
1634.36,0.181189,274079,180587
1637.32,0.180204,266916,176267
1640.27,0.179894,259612,171566
1643.22,0.179565,251804,166532
1646.16,0.177361,244348,162423
1649.1,0.177806,236703,157180
1652.04,0.175843,228171,152201
1655.95,0.171858,215408,145012
1658.88,0.168318,204937,139092
1661.8,0.163643,193395,132679
1664.72,0.155526,179728,125629
1667.63,0.142267,163642,117931
1670.54,0.127814,146312,109010
1673.44,0.111696,128451,99321
1677.31,0.094663,105080,84500
1680.21,0.080575,88906,73851
1683.1,0.073088,75033,63411
1685.99,0.074678,63520,53485
1688.87,0.078277,53714,44855
1691.75,0.082092,45653,37790
1694.62,0.082740,39137,32348
1697.49,0.091381,33776,27367
1701.31,0.109499,28175,21896