File: samples/wool/wool-000811/Column 1_050575_20150331_121134.csv
Method:,Column 1,,
Host Date-Time:,31/3/15 @ 12:11:34,,
Header Version:,1,,
System Temp (C):,34.21,,
Detector Temp (C):,34.4,,
Humidity (%):,1.66,,
Lamp PD:,3818,,
Shift Vector Coefficients:,-10.5391,0.0761263,-0.000134223,,
Pixel to Wavelength Coefficients:,1775.68,-0.916766,-0.000235065,,
Serial Number:,5510004,,
Scan Config Name:,Column 1,,
Scan Config Type:,Slew,,
Section 1,,
Start wavelength (nm):,900,,
End wavelength (nm):,1700,,
Pattern Pixel Width (nm):,   7.03,,,,
Exposure (ms):,  0.635,,,,
Digital Resolution:,228,,
Num Repeats:,6,,
PGA Gain:,64,,
Total Measurement Time in sec:,  2.677,,
Wavelength (nm),Absorbance (AU),Reference Signal (unitless),Sample Signal (unitless)
901.51,0.034727,108485,100148
905.376,0.040603,121306,110479
909.237,0.043452,131909,119350
913.095,0.044131,143299,129453
916.948,0.045772,156982,141279
922.079,0.047034,179937,161468
925.923,0.049389,200504,178951
929.762,0.049200,222660,198812
933.597,0.049800,244426,217945
937.427,0.048788,263972,235923
941.254,0.048301,281845,252179
945.076,0.047488,297271,266480
950.165,0.046900,315605,283298
953.978,0.046187,328029,294934
957.786,0.047041,340470,305519
961.59,0.046335,352317,316664
965.389,0.046729,363056,326020
969.185,0.047333,373162,334630
972.976,0.047105,382632,343302
976.763,0.048308,391202,350020
981.806,0.048458,400190,357938
985.583,0.049327,406088,362488
989.355,0.049490,410162,365987
993.124,0.050037,412868,367938
996.888,0.050592,414263,368709
1000.65,0.052145,415476,368469
1004.4,0.052439,415479,368222
1009.41,0.053679,414358,366182
1013.15,0.054528,412923,364201
1016.89,0.054949,411526,362617
1020.63,0.054931,409066,360464
1024.36,0.055351,406777,358101
1028.09,0.054589,404427,356657
1031.82,0.054244,401911,354720
1036.78,0.054410,398410,351496
1040.49,0.053768,396204,350067
1044.2,0.053207,394236,348778
1047.91,0.052883,392042,347096
1051.61,0.052380,389823,345531
1055.31,0.051336,388234,344951
1059,0.051332,387599,344390
1063.92,0.050329,386688,344375
1067.61,0.049963,386598,344585
1071.29,0.049434,387377,345700
1074.96,0.049214,388536,346910
1078.63,0.047794,389855,349228
1082.3,0.047448,391215,350726
1085.96,0.046809,393215,353038
1090.84,0.045673,396270,356712
1094.49,0.045219,398760,359329
1098.14,0.045783,400987,360867
1101.79,0.044698,403477,364016
1105.43,0.044466,406116,366593
1109.06,0.044318,407701,368149
1112.7,0.044488,409859,369953
1117.53,0.044420,412494,372390
1121.15,0.045160,414909,373932
1124.77,0.045175,416559,375406
1128.38,0.046564,418532,375980
1131.99,0.048349,419956,375712
1135.6,0.049878,421946,376165
1139.2,0.051584,423881,376409
1143.99,0.053704,426786,377143
1147.58,0.055081,428617,377562
1151.17,0.056052,431169,378962
1154.75,0.057591,433579,379732
1158.33,0.058807,436264,381015
1161.91,0.060533,439132,381999
1165.48,0.063624,442389,382103
1169.04,0.065849,446101,383340
1173.79,0.069954,451929,384695
1177.34,0.072318,456026,386075
1180.9,0.074768,461306,388348
1184.44,0.076151,467657,392443
1187.99,0.077037,473969,396929
1191.52,0.077118,479856,401784
1195.06,0.076842,487372,408337
1199.76,0.075845,497347,417652
1203.29,0.074848,504311,424473
1206.81,0.074125,511507,431247
1210.33,0.073474,519078,438287
1213.84,0.072793,527163,445812
1217.35,0.071906,534208,452694
1220.85,0.073705,540472,456109
1225.51,0.070271,549929,467774
1229.01,0.069440,556888,474600
1232.5,0.069109,562180,479475
1235.98,0.068329,567975,485289
1239.46,0.067117,574815,492506
1242.94,0.066290,582782,500284
1246.41,0.065657,591476,508487
1251.03,0.065610,604016,519324
1254.5,0.065528,612289,526537
1257.96,0.065908,619125,531949
1261.41,0.066663,624551,535679
1264.86,0.067353,629900,539410
1268.31,0.067597,634345,542911
1271.75,0.068038,638574,545975
1276.33,0.068999,642499,548117
1279.76,0.068703,645905,551399
1283.19,0.068106,648307,554211
1286.61,0.067830,650446,556392
1290.03,0.067648,652132,558068
1293.44,0.067275,653907,560068
1296.85,0.066948,655963,562252
1301.39,0.066894,657349,563511
1304.8,0.066824,657558,563781
1308.19,0.066731,658515,564722
1311.58,0.067340,658804,564178
1314.97,0.067627,659011,563983
1318.36,0.068107,658272,562728
1321.73,0.068112,658022,562507
1326.23,0.069423,657870,560683
1329.6,0.070081,656482,558652
1332.97,0.071123,654926,555993
1336.33,0.071837,653727,554063
1339.69,0.073499,652497,550908
1343.04,0.075570,649913,546116
1346.39,0.077171,647671,542230
1349.73,0.079547,645338,537329
1354.18,0.082697,641175,530005
1357.52,0.084985,638376,524918
1360.85,0.087038,635805,520338
1364.17,0.089458,633413,515500
1367.49,0.091843,631026,510745
1370.81,0.094621,628050,505095
1374.12,0.096422,625034,500589
1378.54,0.099932,620272,492777
1381.84,0.103406,616892,486187
1385.14,0.107154,613613,479447
1388.43,0.111248,611526,473333
1391.72,0.115963,610663,467561
1395.01,0.120313,610634,462880
1398.29,0.125613,611700,458063
1402.66,0.132476,614051,452615
1405.93,0.137980,616268,448528
1409.2,0.143265,617795,444201
1412.46,0.148025,618872,440125
1415.72,0.152440,619795,436323
1418.98,0.156124,620495,433126
1422.23,0.159497,621087,430185
1426.56,0.164267,621375,425683
1429.8,0.166640,621616,423528
1433.04,0.169751,622129,420852
1436.27,0.171844,621526,418423
1439.5,0.173564,621113,416492
1442.72,0.176513,620921,413546
1445.94,0.179076,620270,410681
1450.23,0.183115,618860,405955
1453.44,0.185597,617697,402883
1456.64,0.188925,616264,398880
1459.85,0.191681,614413,395166
1463.04,0.194858,612307,390941
1466.24,0.198353,610032,386367
1469.43,0.201961,607345,381482
1473.67,0.208463,603789,373613
1476.85,0.214246,601175,367075
1480.02,0.220635,597737,359646
1483.19,0.227747,594479,351876
1486.36,0.234486,591232,344566
1489.52,0.239471,587853,338686
1492.68,0.242957,583875,333705
1496.89,0.245391,578062,328536
1500.03,0.246467,574159,325511
1503.18,0.246684,570285,323153
1506.32,0.245924,565444,320971
1509.45,0.244709,560571,319096
1512.58,0.242985,555821,317651
1515.71,0.240756,550344,316139
1519.87,0.237402,543983,314908
1522.99,0.234087,538764,314276
1526.1,0.231977,533692,312834
1529.21,0.228737,527902,311757
1532.32,0.226266,521886,309963
1535.42,0.222833,515888,308832
1538.51,0.219653,509987,307543
1541.6,0.215514,503936,306804
1545.72,0.211380,494694,304058
1548.8,0.208440,488378,302215
1551.88,0.205407,481832,300254
1554.95,0.203677,474989,297171
1558.02,0.201347,467818,294259
1561.08,0.200090,460730,290641
1564.15,0.200126,454170,286479
1568.22,0.199359,444181,280673
1571.27,0.197949,436947,277000
1574.32,0.196709,429598,273120
1577.36,0.195392,422039,269129
1580.4,0.194485,414375,264794
1583.43,0.192163,406354,261061
1586.46,0.190979,398475,256698
1590.49,0.189115,388982,251660
1593.51,0.186175,380708,247980
1596.53,0.184525,372727,243706
1599.54,0.182421,365060,239852
1602.55,0.179969,357543,236243
1605.55,0.177850,349495,232055
1608.55,0.174844,341154,228090
1612.54,0.172932,330877,222195
1615.53,0.171141,322904,217737
1618.51,0.170452,315116,212823
1621.49,0.169090,307217,208140
1624.47,0.167592,299481,203600
1627.44,0.166496,292112,199092
1630.41,0.165399,284245,194220
1634.36,0.164430,274079,187692
1637.32,0.162161,266916,183744
1640.27,0.161765,259612,178879
1643.22,0.160726,251804,173915
1646.16,0.161141,244348,168604
1649.1,0.159985,236703,163764
1652.04,0.158950,228171,158238
1655.95,0.154437,215408,150947
1658.88,0.150390,204937,144954
1661.8,0.147656,193395,137654
1664.72,0.139895,179728,130233
1667.63,0.128772,163642,121653
1670.54,0.115783,146312,112072
1673.44,0.104296,128451,101028
1677.31,0.085701,105080,86262
1680.21,0.073187,88906,75118
1683.1,0.072260,75033,63532
1685.99,0.074906,63520,53457
1688.87,0.077425,53714,44943
1691.75,0.086191,45653,37435
1694.62,0.088089,39137,31952
1697.49,0.096489,33776,27047
1701.31,0.095717,28175,22602