File: samples/wool/wool-000811/Column 1_050572_20150331_121012.csv
Method:,Column 1,,
Host Date-Time:,31/3/15 @ 12:10:12,,
Header Version:,1,,
System Temp (C):,34.11,,
Detector Temp (C):,34.22,,
Humidity (%):,1.76,,
Lamp PD:,3818,,
Shift Vector Coefficients:,-10.5391,0.0761263,-0.000134223,,
Pixel to Wavelength Coefficients:,1775.68,-0.916766,-0.000235065,,
Serial Number:,5510004,,
Scan Config Name:,Column 1,,
Scan Config Type:,Slew,,
Section 1,,
Start wavelength (nm):,900,,
End wavelength (nm):,1700,,
Pattern Pixel Width (nm):,   7.03,,,,
Exposure (ms):,  0.635,,,,
Digital Resolution:,228,,
Num Repeats:,6,,
PGA Gain:,64,,
Total Measurement Time in sec:,  2.735,,
Wavelength (nm),Absorbance (AU),Reference Signal (unitless),Sample Signal (unitless)
901.51,0.034394,108485,100225
905.376,0.040206,121306,110580
909.237,0.043150,131909,119433
913.095,0.044165,143299,129443
916.948,0.045542,156982,141354
922.079,0.047306,179937,161367
925.923,0.048661,200504,179251
929.762,0.050455,222660,198238
933.597,0.050303,244426,217693
937.427,0.049123,263972,235741
941.254,0.048033,281845,252335
945.076,0.047548,297271,266443
950.165,0.047114,315605,283159
953.978,0.046397,328029,294792
957.786,0.047112,340470,305469
961.59,0.047050,352317,316143
965.389,0.046663,363056,326070
969.185,0.047471,373162,334523
972.976,0.047501,382632,342989
976.763,0.047920,391202,350333
981.806,0.049294,400190,357250
985.583,0.049362,406088,362458
989.355,0.049752,410162,365766
993.124,0.050658,412868,367412
996.888,0.050902,414263,368446
1000.65,0.051569,415476,368958
1004.4,0.052895,415479,367836
1009.41,0.053812,414358,366070
1013.15,0.054941,412923,363855
1016.89,0.054682,411526,362840
1020.63,0.055326,409066,360137
1024.36,0.055112,406777,358298
1028.09,0.054751,404427,356524
1031.82,0.054743,401911,354313
1036.78,0.054117,398410,351733
1040.49,0.053881,396204,349976
1044.2,0.053572,394236,348485
1047.91,0.053411,392042,346674
1051.61,0.052279,389823,345612
1055.31,0.051930,388234,344480
1059,0.051509,387599,344250
1063.92,0.050189,386688,344486
1067.61,0.049646,386598,344837
1071.29,0.049271,387377,345830
1074.96,0.048746,388536,347284
1078.63,0.048165,389855,348930
1082.3,0.046813,391215,351239
1085.96,0.046308,393215,353445
1090.84,0.045829,396270,356584
1094.49,0.045739,398760,358899
1098.14,0.045083,400987,361449
1101.79,0.044225,403477,364413
1105.43,0.045034,406116,366114
1109.06,0.044006,407701,368414
1112.7,0.044313,409859,370102
1117.53,0.044134,412494,372635
1121.15,0.045444,414909,373688
1124.77,0.045770,416559,374892
1128.38,0.047019,418532,375586
1131.99,0.047656,419956,376312
1135.6,0.050793,421946,375374
1139.2,0.051635,423881,376365
1143.99,0.054039,426786,376852
1147.58,0.055081,428617,377562
1151.17,0.056168,431169,378861
1154.75,0.057779,433579,379568
1158.33,0.059202,436264,380669
1161.91,0.061164,439132,381444
1165.48,0.064152,442389,381639
1169.04,0.066148,446101,383076
1173.79,0.070074,451929,384588
1177.34,0.072679,456026,385754
1180.9,0.074949,461306,388186
1184.44,0.076718,467657,391931
1187.99,0.077775,473969,396255
1191.52,0.077013,479856,401881
1195.06,0.077204,487372,407997
1199.76,0.076509,497347,417014
1203.29,0.074977,504311,424347
1206.81,0.074383,511507,430991
1210.33,0.073440,519078,438321
1213.84,0.073080,527163,445518
1217.35,0.072562,534208,452010
1220.85,0.071401,540472,458535
1225.51,0.070261,549929,467784
1229.01,0.069285,556888,474770
1232.5,0.068942,562180,479660
1235.98,0.068531,567975,485063
1239.46,0.067673,574815,491875
1242.94,0.066311,582782,500259
1246.41,0.065762,591476,508364
1251.03,0.065773,604016,519129
1254.5,0.066001,612289,525963
1257.96,0.066399,619125,531348
1261.41,0.066984,624551,535283
1264.86,0.067788,629900,538869
1268.31,0.068032,634345,542367
1271.75,0.068560,638574,545320
1276.33,0.068729,642499,548458
1279.76,0.068703,645905,551398
1283.19,0.068326,648307,553930
1286.61,0.068189,650446,555933
1290.03,0.067821,652132,557846
1293.44,0.067265,653907,560081
1296.85,0.066853,655963,562375
1301.39,0.066785,657349,563652
1304.8,0.066823,657558,563782
1308.19,0.067273,658515,564017
1311.58,0.067460,658804,564022
1314.97,0.067734,659011,563844
1318.36,0.067980,658272,562893
1321.73,0.068510,658022,561993
1326.23,0.069790,657870,560209
1329.6,0.070218,656482,558477
1332.97,0.071382,654926,555661
1336.33,0.072456,653727,553274
1339.69,0.074060,652497,550197
1343.04,0.075694,649913,545961
1346.39,0.077969,647671,541235
1349.73,0.079908,645338,536882
1354.18,0.083159,641175,529441
1357.52,0.085037,638376,524855
1360.85,0.087657,635805,519597
1364.17,0.089725,633413,515184
1367.49,0.092653,631026,509794
1370.81,0.094837,628050,504844
1374.12,0.097397,625034,499467
1378.54,0.100634,620272,491981
1381.84,0.103890,616892,485645
1385.14,0.107825,613613,478707
1388.43,0.111669,611526,472874
1391.72,0.116424,610663,467065
1395.01,0.121221,610634,461913
1398.29,0.126586,611700,457038
1402.66,0.133099,614051,451966
1405.93,0.138972,616268,447505
1409.2,0.144293,617795,443151
1412.46,0.148954,618872,439184
1415.72,0.153382,619795,435378
1418.98,0.157848,620495,431410
1422.23,0.160981,621087,428718
1426.56,0.165358,621375,424615
1429.8,0.168005,621616,422199
1433.04,0.171264,622129,419388
1436.27,0.173385,621526,416941
1439.5,0.175536,621113,414605
1442.72,0.177919,620921,412209
1445.94,0.180496,620270,409341
1450.23,0.183914,618860,405208
1453.44,0.187092,617697,401498
1456.64,0.190636,616264,397311
1459.85,0.193170,614413,393813
1463.04,0.196056,612307,389864
1466.24,0.199352,610032,385479
1469.43,0.203032,607345,380543
1473.67,0.208975,603789,373173
1476.85,0.215124,601175,366334
1480.02,0.221379,597737,359030
1483.19,0.228764,594479,351053
1486.36,0.235184,591232,344012
1489.52,0.240125,587853,338177
1492.68,0.243882,583875,332995
1496.89,0.246604,578062,327620
1500.03,0.247122,574159,325020
1503.18,0.247004,570285,322915
1506.32,0.246432,565444,320596
1509.45,0.244818,560571,319016
1512.58,0.243339,555821,317392
1515.71,0.240707,550344,316175
1519.87,0.237712,543983,314683
1522.99,0.234697,538764,313835
1526.1,0.232791,533692,312248
1529.21,0.229186,527902,311435
1532.32,0.226713,521886,309644
1535.42,0.222371,515888,309161
1538.51,0.219971,509987,307318
1541.6,0.216046,503936,306429
1545.72,0.211933,494694,303671
1548.8,0.208779,488378,301979
1551.88,0.205744,481832,300021
1554.95,0.203788,474989,297095
1558.02,0.202248,467818,293649
1561.08,0.200956,460730,290062
1564.15,0.200282,454170,286376
1568.22,0.198549,444181,281197
1571.27,0.198968,436947,276351
1574.32,0.198003,429598,272307
1577.36,0.196342,422039,268541
1580.4,0.194605,414375,264721
1583.43,0.192928,406354,260601
1586.46,0.191403,398475,256447
1590.49,0.189371,388982,251512
1593.51,0.186820,380708,247612
1596.53,0.184455,372727,243745
1599.54,0.183291,365060,239372
1602.55,0.180481,357543,235965
1605.55,0.178639,349495,231634
1608.55,0.176332,341154,227310
1612.54,0.173310,330877,222002
1615.53,0.171496,322904,217559
1618.51,0.171398,315116,212360
1621.49,0.169745,307217,207826
1624.47,0.168636,299481,203111
1627.44,0.167255,292112,198744
1630.41,0.166200,284245,193862
1634.36,0.163725,274079,187997
1637.32,0.163124,266916,183337
1640.27,0.163164,259612,178304
1643.22,0.160299,251804,174086
1646.16,0.160739,244348,168760
1649.1,0.160420,236703,163600
1652.04,0.157599,228171,158731
1655.95,0.156418,215408,150260
1658.88,0.152854,204937,144134
1661.8,0.148743,193395,137310
1664.72,0.141221,179728,129836
1667.63,0.130145,163642,121269
1670.54,0.117433,146312,111647
1673.44,0.101681,128451,101638
1677.31,0.086461,105080,86111
1680.21,0.075610,88906,74700
1683.1,0.073410,75033,63364
1685.99,0.076795,63520,53225
1688.87,0.078800,53714,44801
1691.75,0.087644,45653,37310
1694.62,0.086719,39137,32053
1697.49,0.096585,33776,27041
1701.31,0.100800,28175,22339