File: samples/wool/wool-000811/Column 1_050545_20150331_115720.csv
Method:,Column 1,,
Host Date-Time:,31/3/15 @ 11:57:20,,
Header Version:,1,,
System Temp (C):,32.81,,
Detector Temp (C):,31.29,,
Humidity (%):,2.54,,
Lamp PD:,3823,,
Shift Vector Coefficients:,-10.5391,0.0761263,-0.000134223,,
Pixel to Wavelength Coefficients:,1775.68,-0.916766,-0.000235065,,
Serial Number:,5510004,,
Scan Config Name:,Column 1,,
Scan Config Type:,Slew,,
Section 1,,
Start wavelength (nm):,900,,
End wavelength (nm):,1700,,
Pattern Pixel Width (nm):,   7.03,,,,
Exposure (ms):,  0.635,,,,
Digital Resolution:,228,,
Num Repeats:,6,,
PGA Gain:,64,,
Total Measurement Time in sec:,  2.666,,
Wavelength (nm),Absorbance (AU),Reference Signal (unitless),Sample Signal (unitless)
901.51,0.046771,108485,97409
905.376,0.052781,121306,107424
909.237,0.053949,131909,116500
913.095,0.054795,143299,126313
916.948,0.054196,156982,138565
922.079,0.054292,179937,158792
925.923,0.055590,200504,176414
929.762,0.055056,222660,196149
933.597,0.056305,244426,214705
937.427,0.056323,263972,231865
941.254,0.056591,281845,247411
945.076,0.055599,297271,261549
950.165,0.055355,315605,277836
953.978,0.055288,328029,288818
957.786,0.055917,340470,299338
961.59,0.055861,352317,309794
965.389,0.056228,363056,318967
969.185,0.056299,373162,327792
972.976,0.057050,382632,335530
976.763,0.057283,391202,342861
981.806,0.058264,400190,349947
985.583,0.058722,406088,354730
989.355,0.059955,410162,357273
993.124,0.059870,412868,359701
996.888,0.060467,414263,360420
1000.65,0.061549,415476,360576
1004.4,0.062471,415479,359814
1009.41,0.063743,414358,357794
1013.15,0.064773,412923,355710
1016.89,0.064734,411526,354538
1020.63,0.064335,409066,352743
1024.36,0.064568,406777,350581
1028.09,0.064384,404427,348703
1031.82,0.063732,401911,347055
1036.78,0.063217,398410,344440
1040.49,0.062230,396204,343312
1044.2,0.062687,394236,341247
1047.91,0.061628,392042,340177
1051.61,0.060893,389823,338824
1055.31,0.060371,388234,337849
1059,0.059714,387599,337807
1063.92,0.058269,386688,338136
1067.61,0.057146,386598,338933
1071.29,0.056672,387377,339987
1074.96,0.055800,388536,341689
1078.63,0.055294,389855,343249
1082.3,0.055191,391215,344528
1085.96,0.053733,393215,347454
1090.84,0.053173,396270,350605
1094.49,0.052840,398760,353079
1098.14,0.052346,400987,355455
1101.79,0.051908,403477,358023
1105.43,0.051549,406116,360663
1109.06,0.051254,407701,362316
1112.7,0.051339,409859,364163
1117.53,0.051129,412494,366681
1121.15,0.052086,414909,368016
1124.77,0.052449,416559,369171
1128.38,0.053944,418532,369645
1131.99,0.055412,419956,369651
1135.6,0.058134,421946,369082
1139.2,0.060033,423881,369157
1143.99,0.062938,426786,369209
1147.58,0.063813,428617,370047
1151.17,0.065518,431169,370791
1154.75,0.066452,433579,372063
1158.33,0.068360,436264,372726
1161.91,0.070837,439132,373042
1165.48,0.073644,442389,373388
1169.04,0.077195,446101,373455
1173.79,0.081412,451929,374678
1177.34,0.083791,456026,376009
1180.9,0.086424,461306,378064
1184.44,0.087861,467657,382003
1187.99,0.089439,473969,385754
1191.52,0.088724,479856,391189
1195.06,0.087863,487372,398105
1199.76,0.086404,497347,407620
1203.29,0.085351,504311,414331
1206.81,0.084317,511507,421245
1210.33,0.082331,519078,429439
1213.84,0.081648,527163,436814
1217.35,0.080584,534208,443738
1220.85,0.079412,540472,450154
1225.51,0.078354,549929,459148
1229.01,0.078084,556888,465247
1232.5,0.076590,562180,471287
1235.98,0.075543,567975,477294
1239.46,0.074336,574815,484387
1242.94,0.073247,582782,492333
1246.41,0.072721,591476,500284
1251.03,0.072328,604016,511353
1254.5,0.072318,612289,518368
1257.96,0.072445,619125,524002
1261.41,0.073470,624551,527349
1264.86,0.073759,629900,531512
1268.31,0.074598,634345,534229
1271.75,0.075144,638574,537115
1276.33,0.075408,642499,540088
1279.76,0.075701,645905,542585
1283.19,0.074747,648307,545800
1286.61,0.074509,650446,547901
1290.03,0.073934,652132,550049
1293.44,0.073572,653907,552006
1296.85,0.073234,655963,554173
1301.39,0.073226,657349,555354
1304.8,0.072851,657558,556011
1308.19,0.073410,658515,556103
1311.58,0.073598,658804,556107
1314.97,0.074157,659011,555566
1318.36,0.074878,658272,554022
1321.73,0.075053,658022,553589
1326.23,0.076210,657870,551988
1329.6,0.077057,656482,549751
1332.97,0.078240,654926,546956
1336.33,0.079584,653727,544268
1339.69,0.081376,652497,541006
1343.04,0.083406,649913,536351
1346.39,0.085696,647671,531690
1349.73,0.088311,645338,526594
1354.18,0.091717,641175,519110
1357.52,0.094244,638376,513846
1360.85,0.096733,635805,508851
1364.17,0.099023,633413,504271
1367.49,0.101794,631026,499176
1370.81,0.104612,628050,493608
1374.12,0.107335,625034,488167
1378.54,0.111336,620272,480005
1381.84,0.114948,616892,473436
1385.14,0.119694,613613,465801
1388.43,0.124545,611526,459061
1391.72,0.130394,610663,452280
1395.01,0.135914,610634,446547
1398.29,0.141635,611700,441472
1402.66,0.150576,614051,434139
1405.93,0.157239,616268,429072
1409.2,0.163370,617795,424106
1412.46,0.168971,618872,419401
1415.72,0.174644,619795,414576
1418.98,0.179094,620495,410813
1422.23,0.183092,621087,407437
1426.56,0.187134,621375,403850
1429.8,0.190166,621616,401196
1433.04,0.193850,622129,398135
1436.27,0.196389,621526,395431
1439.5,0.198373,621113,393367
1442.72,0.201084,620921,390798
1445.94,0.203324,620270,388380
1450.23,0.207099,618860,384143
1453.44,0.210471,617697,380456
1456.64,0.213178,616264,377215
1459.85,0.215567,614413,374019
1463.04,0.218687,612307,370069
1466.24,0.221599,610032,366230
1469.43,0.225744,607345,361153
1473.67,0.230678,603789,354983
1476.85,0.235528,601175,349521
1480.02,0.240655,597737,343443
1483.19,0.247721,594479,336059
1486.36,0.254157,591232,329307
1489.52,0.259317,587853,323558
1492.68,0.263161,583875,318536
1496.89,0.265788,578062,313463
1500.03,0.266771,574159,310643
1503.18,0.267457,570285,308060
1506.32,0.266115,565444,306390
1509.45,0.265381,560571,304263
1512.58,0.263574,555821,302943
1515.71,0.261500,550344,301394
1519.87,0.258299,543983,300114
1522.99,0.256088,538764,298752
1526.1,0.253120,533692,297969
1529.21,0.249531,527902,297182
1532.32,0.246434,521886,295898
1535.42,0.243028,515888,294800
1538.51,0.239794,509987,293606
1541.6,0.236220,503936,292520
1545.72,0.232286,494694,289768
1548.8,0.228204,488378,288770
1551.88,0.226068,481832,286304
1554.95,0.222995,474989,284242
1558.02,0.220960,467818,281266
1561.08,0.220182,460730,277501
1564.15,0.219073,454170,274249
1568.22,0.217775,444181,269020
1571.27,0.217731,436947,264666
1574.32,0.216836,429598,260751
1577.36,0.214833,422039,257347
1580.4,0.214088,414375,253108
1583.43,0.211625,406354,249620
1586.46,0.209678,398475,245880
1590.49,0.207878,388982,241019
1593.51,0.204282,380708,237854
1596.53,0.202361,372727,233900
1599.54,0.199467,365060,230620
1602.55,0.196958,357543,227180
1605.55,0.195614,349495,222755
1608.55,0.192542,341154,218982
1612.54,0.189767,330877,213747
1615.53,0.188064,322904,209416
1618.51,0.185832,315116,205418
1621.49,0.185706,307217,200327
1624.47,0.183898,299481,196097
1627.44,0.182108,292112,192062
1630.41,0.181392,284245,187198
1634.36,0.180154,274079,181018
1637.32,0.177392,266916,177412
1640.27,0.176530,259612,172900
1643.22,0.175983,251804,167911
1646.16,0.174961,244348,163323
1649.1,0.174073,236703,158537
1652.04,0.173595,228171,152991
1655.95,0.171696,215408,145066
1658.88,0.168734,204937,138959
1661.8,0.168872,193395,131091
1664.72,0.164037,179728,123191
1667.63,0.156788,163642,114053
1670.54,0.150012,146312,103578
1673.44,0.143875,128451,92228
1677.31,0.135193,105080,76971
1680.21,0.132537,88906,65523
1683.1,0.134495,75033,55050
1685.99,0.142576,63520,45744
1688.87,0.146526,53714,38332
1691.75,0.153790,45653,32039
1694.62,0.155662,39137,27348
1697.49,0.163214,33776,23195
1701.31,0.167219,28175,19171