File: samples/wool/wool-000811/Column 1_050575_20150331_121152.csv
Method:,Column 1,,
Host Date-Time:,31/3/15 @ 12:11:52,,
Header Version:,1,,
System Temp (C):,34.12,,
Detector Temp (C):,34.45,,
Humidity (%):,1.71,,
Lamp PD:,3817,,
Shift Vector Coefficients:,-10.5391,0.0761263,-0.000134223,,
Pixel to Wavelength Coefficients:,1775.68,-0.916766,-0.000235065,,
Serial Number:,5510004,,
Scan Config Name:,Column 1,,
Scan Config Type:,Slew,,
Section 1,,
Start wavelength (nm):,900,,
End wavelength (nm):,1700,,
Pattern Pixel Width (nm):,   7.03,,,,
Exposure (ms):,  0.635,,,,
Digital Resolution:,228,,
Num Repeats:,6,,
PGA Gain:,64,,
Total Measurement Time in sec:,  2.688,,
Wavelength (nm),Absorbance (AU),Reference Signal (unitless),Sample Signal (unitless)
901.51,0.073522,108485,91590
905.376,0.078706,121306,101199
909.237,0.080797,131909,109516
913.095,0.085231,143299,117764
916.948,0.084947,156982,129093
922.079,0.087201,179937,147204
925.923,0.087589,200504,163883
929.762,0.088419,222660,181645
933.597,0.088329,244426,199443
937.427,0.085775,263972,216662
941.254,0.085628,281845,231410
945.076,0.085051,297271,244400
950.165,0.084627,315605,259727
953.978,0.084156,328029,270244
957.786,0.084309,340470,280395
961.59,0.083814,352317,290482
965.389,0.084520,363056,298850
969.185,0.084538,373162,307156
972.976,0.084582,382632,314919
976.763,0.085401,391202,321366
981.806,0.085804,400190,328445
985.583,0.086086,406088,333069
989.355,0.086714,410162,335924
993.124,0.087750,412868,337335
996.888,0.087812,414263,338426
1000.65,0.088380,415476,338974
1004.4,0.088566,415479,338831
1009.41,0.090161,414358,336678
1013.15,0.090601,412923,335172
1016.89,0.091434,411526,333398
1020.63,0.090562,409066,332071
1024.36,0.090520,406777,330245
1028.09,0.089657,404427,328990
1031.82,0.089868,401911,326785
1036.78,0.089256,398410,324395
1040.49,0.089637,396204,322316
1044.2,0.089169,394236,321061
1047.91,0.089237,392042,319224
1051.61,0.088604,389823,317880
1055.31,0.088144,388234,316920
1059,0.087247,387599,317056
1063.92,0.086319,386688,316987
1067.61,0.085936,386598,317193
1071.29,0.085853,387377,317893
1074.96,0.084778,388536,319634
1078.63,0.084195,389855,321150
1082.3,0.083813,391215,322554
1085.96,0.083465,393215,324463
1090.84,0.082797,396270,327487
1094.49,0.082738,398760,329590
1098.14,0.082363,400987,331717
1101.79,0.083146,403477,333175
1105.43,0.083323,406116,335218
1109.06,0.082934,407701,336828
1112.7,0.082149,409859,339223
1117.53,0.083298,412494,340502
1121.15,0.084167,414909,341811
1124.77,0.084077,416559,343241
1128.38,0.085619,418532,343645
1131.99,0.086321,419956,344257
1135.6,0.087817,421946,344699
1139.2,0.090008,423881,344537
1143.99,0.092507,426786,344908
1147.58,0.093246,428617,345799
1151.17,0.094376,431169,346954
1154.75,0.095486,433579,348002
1158.33,0.097434,436264,348590
1161.91,0.099689,439132,349065
1165.48,0.102016,442389,349775
1169.04,0.104627,446101,350595
1173.79,0.108081,451929,352362
1177.34,0.110745,456026,353382
1180.9,0.113762,461306,354999
1184.44,0.115787,467657,358212
1187.99,0.117490,473969,361626
1191.52,0.116846,479856,366661
1195.06,0.116913,487372,372347
1199.76,0.116719,497347,380137
1203.29,0.115954,504311,386140
1206.81,0.115109,511507,392412
1210.33,0.114799,519078,398505
1213.84,0.113440,527163,405980
1217.35,0.113298,534208,411540
1220.85,0.112862,540472,416784
1225.51,0.111431,549929,425477
1229.01,0.111684,556888,430610
1232.5,0.110820,562180,435567
1235.98,0.110020,567975,440869
1239.46,0.109016,574815,447211
1242.94,0.108269,582782,454190
1246.41,0.107325,591476,461968
1251.03,0.107018,604016,472096
1254.5,0.107069,612289,478506
1257.96,0.107461,619125,483412
1261.41,0.107925,624551,487128
1264.86,0.108422,629900,490738
1268.31,0.108663,634345,493927
1271.75,0.109434,638574,496338
1276.33,0.109587,642499,499213
1279.76,0.109760,645905,501659
1283.19,0.108642,648307,504822
1286.61,0.109224,650446,505810
1290.03,0.108747,652132,507678
1293.44,0.108073,653907,509851
1296.85,0.108251,655963,511244
1301.39,0.108210,657349,512373
1304.8,0.107897,657558,512905
1308.19,0.108656,658515,512755
1311.58,0.108517,658804,513144
1314.97,0.109180,659011,512522
1318.36,0.109642,658272,511403
1321.73,0.109611,658022,511245
1326.23,0.111169,657870,509297
1329.6,0.111913,656482,507352
1332.97,0.112688,654926,505247
1336.33,0.114031,653727,502766
1339.69,0.115539,652497,500080
1343.04,0.117801,649913,495512
1346.39,0.119537,647671,491833
1349.73,0.121589,645338,487751
1354.18,0.124942,641175,480878
1357.52,0.126979,638376,476538
1360.85,0.129152,635805,472250
1364.17,0.131014,633413,468460
1367.49,0.133384,631026,464155
1370.81,0.134928,628050,460327
1374.12,0.136963,625034,455975
1378.54,0.139735,620272,449622
1381.84,0.143128,616892,443692
1385.14,0.147127,613613,437288
1388.43,0.151127,611526,431805
1391.72,0.156112,610663,426275
1395.01,0.161164,610634,421325
1398.29,0.166958,611700,416467
1402.66,0.174496,614051,410874
1405.93,0.180530,616268,406668
1409.2,0.186087,617795,402492
1412.46,0.192091,618872,397658
1415.72,0.197026,619795,393751
1418.98,0.201059,620495,390552
1422.23,0.205426,621087,387014
1426.56,0.211003,621375,382253
1429.8,0.214203,621616,379594
1433.04,0.217277,622129,377228
1436.27,0.220597,621526,373992
1439.5,0.223650,621113,371125
1442.72,0.226575,620921,368520
1445.94,0.229139,620270,365967
1450.23,0.233028,618860,361880
1453.44,0.235121,617697,359463
1456.64,0.239075,616264,355379
1459.85,0.241745,614413,352140
1463.04,0.244541,612307,348681
1466.24,0.247547,610032,344989
1469.43,0.250845,607345,340871
1473.67,0.256528,603789,334470
1476.85,0.260612,601175,329905
1480.02,0.265881,597737,324063
1483.19,0.271079,594479,318462
1486.36,0.276259,591232,312967
1489.52,0.280368,587853,308248
1492.68,0.283279,583875,304117
1496.89,0.284561,578062,300202
1500.03,0.285810,574159,297319
1503.18,0.285640,570285,295428
1506.32,0.284502,565444,293689
1509.45,0.282843,560571,292272
1512.58,0.281255,555821,290857
1515.71,0.279795,550344,288961
1519.87,0.276202,543983,287994
1522.99,0.273632,538764,286924
1526.1,0.271251,533692,285785
1529.21,0.267990,527902,284815
1532.32,0.265837,521886,282969
1535.42,0.262744,515888,281716
1538.51,0.260775,509987,279759
1541.6,0.256309,503936,279297
1545.72,0.253464,494694,275977
1548.8,0.250215,488378,274499
1551.88,0.246970,481832,272851
1554.95,0.245255,474989,270040
1558.02,0.243371,467818,267120
1561.08,0.242679,460730,263492
1564.15,0.240874,454170,260822
1568.22,0.239524,444181,255880
1571.27,0.238990,436947,252022
1574.32,0.237402,429598,248691
1577.36,0.236103,422039,245047
1580.4,0.234536,414375,241467
1583.43,0.233298,406354,237469
1586.46,0.231174,398475,234006
1590.49,0.229448,388982,229341
1593.51,0.227738,380708,225348
1596.53,0.225882,372727,221569
1599.54,0.224177,365060,217865
1602.55,0.222328,357543,214289
1605.55,0.219890,349495,210645
1608.55,0.217398,341154,206801
1612.54,0.216229,330877,201112
1615.53,0.213627,322904,197445
1618.51,0.212185,315116,193324
1621.49,0.211039,307217,188976
1624.47,0.210406,299481,184486
1627.44,0.208913,292112,180566
1630.41,0.207465,284245,176290
1634.36,0.206559,274079,170340
1637.32,0.204653,266916,166618
1640.27,0.203068,259612,162651
1643.22,0.201977,251804,158156
1646.16,0.201417,244348,153671
1649.1,0.200336,236703,149234
1652.04,0.199355,228171,144180
1655.95,0.195316,215408,137387
1658.88,0.190547,204937,132152
1661.8,0.185427,193395,126188
1664.72,0.178668,179728,119110
1667.63,0.164743,163642,111983
1670.54,0.150873,146312,103373
1673.44,0.135966,128451,93923
1677.31,0.116869,105080,80288
1680.21,0.104976,88906,69816
1683.1,0.100188,75033,59575
1685.99,0.101101,63520,50328
1688.87,0.104384,53714,42238
1691.75,0.106570,45653,35719
1694.62,0.107903,39137,30527
1697.49,0.111851,33776,26107
1701.31,0.117264,28175,21508