File: samples/wool/wool-000811/Column 1_050556_20150331_120245.csv
Method:,Column 1,,
Host Date-Time:,31/3/15 @ 12:2:45,,
Header Version:,1,,
System Temp (C):,33.5,,
Detector Temp (C):,32.65,,
Humidity (%):,2.44,,
Lamp PD:,3820,,
Shift Vector Coefficients:,-10.5391,0.0761263,-0.000134223,,
Pixel to Wavelength Coefficients:,1775.68,-0.916766,-0.000235065,,
Serial Number:,5510004,,
Scan Config Name:,Column 1,,
Scan Config Type:,Slew,,
Section 1,,
Start wavelength (nm):,900,,
End wavelength (nm):,1700,,
Pattern Pixel Width (nm):,   7.03,,,,
Exposure (ms):,  0.635,,,,
Digital Resolution:,228,,
Num Repeats:,6,,
PGA Gain:,64,,
Total Measurement Time in sec:,  2.719,,
Wavelength (nm),Absorbance (AU),Reference Signal (unitless),Sample Signal (unitless)
901.51,0.034281,108485,100251
905.376,0.040422,121306,110525
909.237,0.042736,131909,119547
913.095,0.042534,143299,129930
916.948,0.043981,156982,141863
922.079,0.043535,179937,162774
925.923,0.046192,200504,180273
929.762,0.046195,222660,200192
933.597,0.046822,244426,219445
937.427,0.046786,263972,237013
941.254,0.047101,281845,252877
945.076,0.046027,297271,267378
950.165,0.045865,315605,283974
953.978,0.045844,328029,295167
957.786,0.045473,340470,306624
961.59,0.046416,352317,316605
965.389,0.046361,363056,326297
969.185,0.047126,373162,334789
972.976,0.047488,382632,342999
976.763,0.048075,391202,350208
981.806,0.048301,400190,358068
985.583,0.049107,406088,362671
989.355,0.049446,410162,366024
993.124,0.051098,412868,367040
996.888,0.050817,414263,368518
1000.65,0.052009,415476,368584
1004.4,0.052345,415479,368302
1009.41,0.053883,414358,366010
1013.15,0.054356,412923,364345
1016.89,0.055482,411526,362172
1020.63,0.055164,409066,360271
1024.36,0.055352,406777,358100
1028.09,0.054392,404427,356819
1031.82,0.054570,401911,354454
1036.78,0.054080,398410,351763
1040.49,0.053961,396204,349911
1044.2,0.053380,394236,348639
1047.91,0.053160,392042,346875
1051.61,0.052306,389823,345590
1055.31,0.051851,388234,344542
1059,0.051476,387599,344276
1063.92,0.050011,386688,344627
1067.61,0.049594,386598,344878
1071.29,0.048989,387377,346055
1074.96,0.048716,388536,347308
1078.63,0.047920,389855,349127
1082.3,0.047457,391215,350718
1085.96,0.046775,393215,353065
1090.84,0.046241,396270,356246
1094.49,0.045231,398760,359319
1098.14,0.045131,400987,361409
1101.79,0.044583,403477,364113
1105.43,0.044704,406116,366392
1109.06,0.044506,407701,367990
1112.7,0.044744,409859,369735
1117.53,0.044308,412494,372486
1121.15,0.045132,414909,373956
1124.77,0.045948,416559,374739
1128.38,0.047091,418532,375524
1131.99,0.048222,419956,375822
1135.6,0.050386,421946,375726
1139.2,0.052405,423881,375698
1143.99,0.054890,426786,376115
1147.58,0.055851,428617,376893
1151.17,0.056982,431169,378151
1154.75,0.058381,433579,379042
1158.33,0.060113,436264,379871
1161.91,0.062487,439132,380284
1165.48,0.064314,442389,381496
1169.04,0.066896,446101,382417
1173.79,0.071193,451929,383599
1177.34,0.073486,456026,385038
1180.9,0.075436,461306,387751
1184.44,0.077361,467657,391351
1187.99,0.077865,473969,396173
1191.52,0.078346,479856,400650
1195.06,0.077863,487372,407378
1199.76,0.076752,497347,416781
1203.29,0.075737,504311,423605
1206.81,0.074687,511507,430690
1210.33,0.074107,519078,437649
1213.84,0.072917,527163,445685
1217.35,0.072578,534208,451994
1220.85,0.071543,540472,458385
1225.51,0.070904,549929,467092
1229.01,0.070375,556888,473580
1232.5,0.069761,562180,478756
1235.98,0.069236,567975,484276
1239.46,0.067891,574815,491629
1242.94,0.067052,582782,499406
1246.41,0.066263,591476,507778
1251.03,0.066275,604016,518530
1254.5,0.066268,612289,525640
1257.96,0.066876,619125,530765
1261.41,0.067069,624551,535179
1264.86,0.067911,629900,538717
1268.31,0.068550,634345,541721
1271.75,0.069410,638574,544253
1276.33,0.070172,642499,546639
1279.76,0.069576,645905,550291
1283.19,0.069073,648307,552978
1286.61,0.068856,650446,555079
1290.03,0.068375,652132,557135
1293.44,0.067874,653907,559296
1296.85,0.067588,655963,561424
1301.39,0.067748,657349,562404
1304.8,0.067476,657558,562935
1308.19,0.067881,658515,563228
1311.58,0.067887,658804,563468
1314.97,0.068719,659011,562566
1318.36,0.069103,658272,561439
1321.73,0.069445,658022,560784
1326.23,0.070383,657870,559444
1329.6,0.071536,656482,556784
1332.97,0.072445,654926,554303
1336.33,0.073499,653727,551947
1339.69,0.075813,652497,547981
1343.04,0.077257,649913,543999
1346.39,0.079627,647671,539172
1349.73,0.082048,645338,534243
1354.18,0.084880,641175,527347
1357.52,0.087368,638376,522046
1360.85,0.089804,635805,517035
1364.17,0.091910,633413,512598
1367.49,0.094338,631026,507819
1370.81,0.096818,628050,502546
1374.12,0.099409,625034,497158
1378.54,0.102955,620272,489359
1381.84,0.107018,616892,482160
1385.14,0.110714,613613,475533
1388.43,0.115342,611526,468892
1391.72,0.120137,610663,463089
1395.01,0.125300,610634,457595
1398.29,0.131080,611700,452333
1402.66,0.138908,614051,445961
1405.93,0.144867,616268,441471
1409.2,0.151068,617795,436291
1412.46,0.155754,618872,432361
1415.72,0.160745,619795,428058
1418.98,0.165472,620495,423903
1422.23,0.169324,621087,420560
1426.56,0.174038,621375,416213
1429.8,0.176816,621616,413720
1433.04,0.179846,622129,411182
1436.27,0.182217,621526,408547
1439.5,0.184595,621113,406046
1442.72,0.187169,620921,403522
1445.94,0.189551,620270,400894
1450.23,0.193155,618860,396677
1453.44,0.196036,617697,393314
1456.64,0.198545,616264,390141
1459.85,0.201613,614413,386231
1463.04,0.204233,612307,382592
1466.24,0.208019,610032,377862
1469.43,0.211248,607345,373411
1473.67,0.216205,603789,367012
1476.85,0.221981,601175,360595
1480.02,0.227693,597737,353848
1483.19,0.233731,594479,347061
1486.36,0.239453,591232,340647
1489.52,0.244587,587853,334720
1492.68,0.247556,583875,330190
1496.89,0.250741,578062,324514
1500.03,0.250447,574159,322541
1503.18,0.251010,570285,319950
1506.32,0.250073,565444,317919
1509.45,0.248889,560571,316040
1512.58,0.247353,555821,314472
1515.71,0.245050,550344,313029
1519.87,0.242137,543983,311493
1522.99,0.239187,538764,310607
1526.1,0.236908,533692,309302
1529.21,0.232980,527902,308726
1532.32,0.230497,521886,306958
1535.42,0.226702,515888,306093
1538.51,0.224231,509987,304318
1541.6,0.221448,503936,302641
1545.72,0.216323,494694,300617
1548.8,0.213454,488378,298746
1551.88,0.211221,481832,296261
1554.95,0.208616,474989,293811
1558.02,0.206569,467818,290742
1561.08,0.205480,460730,287056
1564.15,0.204145,454170,283840
1568.22,0.204363,444181,277458
1571.27,0.202718,436947,273975
1574.32,0.201247,429598,270281
1577.36,0.199906,422039,266346
1580.4,0.198695,414375,262240
1583.43,0.197558,406354,257838
1586.46,0.195496,398475,254042
1590.49,0.192598,388982,249650
1593.51,0.190935,380708,245277
1596.53,0.188810,372727,241313
1599.54,0.186361,365060,237686
1602.55,0.184051,357543,234033
1605.55,0.182598,349495,229532
1608.55,0.180496,341154,225141
1612.54,0.177518,330877,219861
1615.53,0.176257,322904,215187
1618.51,0.174820,315116,210693
1621.49,0.172304,307217,206605
1624.47,0.170945,299481,202034
1627.44,0.169861,292112,197555
1630.41,0.168915,284245,192654
1634.36,0.168248,274079,186049
1637.32,0.166678,266916,181843
1640.27,0.167096,259612,176697
1643.22,0.165552,251804,171993
1646.16,0.163947,244348,167518
1649.1,0.163776,236703,162341
1652.04,0.163250,228171,156679
1655.95,0.159505,215408,149196
1658.88,0.158016,204937,142431
1661.8,0.154326,193395,135556
1664.72,0.148520,179728,127672
1667.63,0.140121,163642,118515
1670.54,0.131535,146312,108080
1673.44,0.119221,128451,97615
1677.31,0.106009,105080,82321
1680.21,0.102402,88906,70231
1683.1,0.099664,75033,59647
1685.99,0.101317,63520,50303
1688.87,0.111715,53714,41531
1691.75,0.108215,45653,35584
1694.62,0.125320,39137,29327
1697.49,0.124973,33776,25330
1701.31,0.129385,28175,20916