File: samples/wool/wool-000811/Column 1_050548_20150331_115854.csv
Method:,Column 1,,
Host Date-Time:,31/3/15 @ 11:58:54,,
Header Version:,1,,
System Temp (C):,33.14,,
Detector Temp (C):,31.86,,
Humidity (%):,2.34,,
Lamp PD:,3823,,
Shift Vector Coefficients:,-10.5391,0.0761263,-0.000134223,,
Pixel to Wavelength Coefficients:,1775.68,-0.916766,-0.000235065,,
Serial Number:,5510004,,
Scan Config Name:,Column 1,,
Scan Config Type:,Slew,,
Section 1,,
Start wavelength (nm):,900,,
End wavelength (nm):,1700,,
Pattern Pixel Width (nm):,   7.03,,,,
Exposure (ms):,  0.635,,,,
Digital Resolution:,228,,
Num Repeats:,6,,
PGA Gain:,64,,
Total Measurement Time in sec:,  2.672,,
Wavelength (nm),Absorbance (AU),Reference Signal (unitless),Sample Signal (unitless)
901.51,0.047409,108485,97266
905.376,0.053602,121306,107221
909.237,0.054616,131909,116321
913.095,0.054135,143299,126505
916.948,0.055662,156982,138098
922.079,0.055310,179937,158420
925.923,0.056023,200504,176238
929.762,0.057592,222660,195007
933.597,0.058063,244426,213838
937.427,0.058326,263972,230798
941.254,0.057262,281845,247029
945.076,0.056952,297271,260736
950.165,0.057358,315605,276558
953.978,0.056215,328029,288202
957.786,0.057075,340470,298541
961.59,0.057456,352317,308658
965.389,0.057496,363056,318037
969.185,0.057932,373162,326562
972.976,0.058206,382632,334638
976.763,0.058904,391202,341584
981.806,0.059631,400190,348847
985.583,0.060443,406088,353327
989.355,0.060353,410162,356946
993.124,0.060996,412868,358769
996.888,0.061059,414263,359929
1000.65,0.062578,415476,359723
1004.4,0.063665,415479,358826
1009.41,0.064621,414358,357071
1013.15,0.065531,412923,355090
1016.89,0.065860,411526,353620
1020.63,0.066110,409066,351304
1024.36,0.065179,406777,350088
1028.09,0.065159,404427,348082
1031.82,0.065550,401911,345605
1036.78,0.063975,398410,343839
1040.49,0.063888,396204,342004
1044.2,0.063299,394236,340767
1047.91,0.062938,392042,339152
1051.61,0.061992,389823,337968
1055.31,0.060947,388234,337401
1059,0.060900,387599,336886
1063.92,0.059608,386688,337095
1067.61,0.058752,386598,337682
1071.29,0.058040,387377,338917
1074.96,0.057152,388536,340627
1078.63,0.056593,389855,342224
1082.3,0.055081,391215,344615
1085.96,0.054699,393215,346682
1090.84,0.053839,396270,350068
1094.49,0.053396,398760,352627
1098.14,0.052944,400987,354966
1101.79,0.052789,403477,357297
1105.43,0.052852,406116,359582
1109.06,0.052437,407701,361331
1112.7,0.052167,409859,363469
1117.53,0.051954,412494,365985
1121.15,0.052896,414909,367330
1124.77,0.053297,416559,368451
1128.38,0.054913,418532,368821
1131.99,0.056878,419956,368405
1135.6,0.058540,421946,368737
1139.2,0.060691,423881,368598
1143.99,0.063536,426786,368701
1147.58,0.064201,428617,369716
1151.17,0.065878,431169,370484
1154.75,0.067369,433579,371278
1158.33,0.068737,436264,372402
1161.91,0.071455,439132,372512
1165.48,0.074438,442389,372706
1169.04,0.077380,446101,373296
1173.79,0.082014,451929,374159
1177.34,0.083979,456026,375847
1180.9,0.086811,461306,377727
1184.44,0.088853,467657,381131
1187.99,0.089750,473969,385478
1191.52,0.089341,479856,390634
1195.06,0.088415,487372,397599
1199.76,0.087083,497347,406983
1203.29,0.085399,504311,414285
1206.81,0.084502,511507,421065
1210.33,0.083636,519078,428151
1213.84,0.082405,527163,436054
1217.35,0.081117,534208,443193
1220.85,0.080162,540472,449377
1225.51,0.079035,549929,458429
1229.01,0.078469,556888,464835
1232.5,0.076768,562180,471094
1235.98,0.076646,567975,476084
1239.46,0.075237,574815,483383
1242.94,0.073909,582782,491583
1246.41,0.073156,591476,499783
1251.03,0.072877,604016,510707
1254.5,0.072898,612289,517676
1257.96,0.073317,619125,522951
1261.41,0.073889,624551,526840
1264.86,0.074427,629900,530694
1268.31,0.075128,634345,533577
1271.75,0.075700,638574,536428
1276.33,0.076269,642499,539018
1279.76,0.075917,645905,542315
1283.19,0.075336,648307,545060
1286.61,0.075136,650446,547111
1290.03,0.074509,652132,549321
1293.44,0.074055,653907,551393
1296.85,0.073694,655963,553586
1301.39,0.073710,657349,554735
1304.8,0.073183,657558,555586
1308.19,0.073722,658515,555704
1311.58,0.073790,658804,555861
1314.97,0.074220,659011,555486
1318.36,0.075234,658272,553568
1321.73,0.075594,658022,552900
1326.23,0.076202,657870,551999
1329.6,0.077352,656482,549377
1332.97,0.078643,654926,546448
1336.33,0.079666,653727,544165
1339.69,0.081327,652497,541067
1343.04,0.083814,649913,535847
1346.39,0.085922,647671,531413
1349.73,0.088270,645338,526644
1354.18,0.092100,641175,518653
1357.52,0.094263,638376,513823
1360.85,0.096853,635805,508711
1364.17,0.099182,633413,504086
1367.49,0.101740,631026,499238
1370.81,0.105001,628050,493166
1374.12,0.107543,625034,487933
1378.54,0.111026,620272,480348
1381.84,0.115025,616892,473352
1385.14,0.119363,613613,466156
1388.43,0.125076,611526,458500
1391.72,0.129623,610663,453084
1395.01,0.134791,610634,447703
1398.29,0.141148,611700,441968
1402.66,0.149262,614051,435454
1405.93,0.156158,616268,430142
1409.2,0.162472,617795,424984
1412.46,0.167821,618872,420513
1415.72,0.173081,619795,416071
1418.98,0.177303,620495,412511
1422.23,0.181460,621087,408971
1426.56,0.185726,621375,405161
1429.8,0.189086,621616,402195
1433.04,0.191807,622129,400012
1436.27,0.194374,621526,397270
1439.5,0.196798,621113,394796
1442.72,0.199364,620921,392349
1445.94,0.201877,620270,389676
1450.23,0.205071,618860,385941
1453.44,0.208361,617697,382309
1456.64,0.211497,616264,378678
1459.85,0.213517,614413,375788
1463.04,0.216680,612307,371783
1466.24,0.219985,610032,367593
1469.43,0.223421,607345,363090
1473.67,0.228487,603789,356778
1476.85,0.234262,601175,350541
1480.02,0.239955,597737,343997
1483.19,0.247340,594479,336354
1486.36,0.252994,591232,330190
1489.52,0.258294,587853,324321
1492.68,0.262424,583875,319077
1496.89,0.265273,578062,313835
1500.03,0.266416,574159,310897
1503.18,0.266426,570285,308792
1506.32,0.265978,565444,306487
1509.45,0.264737,560571,304715
1512.58,0.262998,555821,303345
1515.71,0.260567,550344,302042
1519.87,0.258134,543983,300228
1522.99,0.254599,538764,299778
1526.1,0.252473,533692,298413
1529.21,0.249096,527902,297480
1532.32,0.245992,521886,296199
1535.42,0.242368,515888,295248
1538.51,0.239258,509987,293969
1541.6,0.235837,503936,292778
1545.72,0.230910,494694,290688
1548.8,0.227576,488378,289188
1551.88,0.225135,481832,286920
1554.95,0.222678,474989,284450
1558.02,0.220835,467818,281347
1561.08,0.218829,460730,278367
1564.15,0.218018,454170,274916
1568.22,0.216668,444181,269707
1571.27,0.216924,436947,265158
1574.32,0.215508,429598,261550
1577.36,0.213396,422039,258200
1580.4,0.211776,414375,254459
1583.43,0.211091,406354,249927
1586.46,0.208718,398475,246424
1590.49,0.206455,388982,241810
1593.51,0.203683,380708,238182
1596.53,0.201544,372727,234340
1599.54,0.199219,365060,230752
1602.55,0.197559,357543,226866
1605.55,0.194939,349495,223101
1608.55,0.192308,341154,219100
1612.54,0.188790,330877,214228
1615.53,0.187121,322904,209871
1618.51,0.185925,315116,205374
1621.49,0.184604,307217,200836
1624.47,0.183011,299481,196498
1627.44,0.181254,292112,192440
1630.41,0.180185,284245,187719
1634.36,0.178961,274079,181516
1637.32,0.176961,266916,177588
1640.27,0.176434,259612,172938
1643.22,0.174102,251804,168640
1646.16,0.174382,244348,163541
1649.1,0.174032,236703,158552
1652.04,0.171790,228171,153628
1655.95,0.170035,215408,145622
1658.88,0.168215,204937,139125
1661.8,0.165677,193395,132059
1664.72,0.159862,179728,124381
1667.63,0.153023,163642,115046
1670.54,0.145167,146312,104740
1673.44,0.137865,128451,93513
1677.31,0.127187,105080,78403
1680.21,0.124441,88906,66756
1683.1,0.123481,75033,56464
1685.99,0.128362,63520,47266
1688.87,0.137922,53714,39099
1691.75,0.140890,45653,33005
1694.62,0.143125,39137,28149
1697.49,0.145943,33776,24136
1701.31,0.154583,28175,19737