File: samples/wool/wool-000811/Column 1_050613_20150331_122937.csv
Method:,Column 1,,
Host Date-Time:,31/3/15 @ 12:29:37,,
Header Version:,1,,
System Temp (C):,34.08,,
Detector Temp (C):,34.92,,
Humidity (%):,1.66,,
Lamp PD:,3818,,
Shift Vector Coefficients:,-10.5391,0.0761263,-0.000134223,,
Pixel to Wavelength Coefficients:,1775.68,-0.916766,-0.000235065,,
Serial Number:,5510004,,
Scan Config Name:,Column 1,,
Scan Config Type:,Slew,,
Section 1,,
Start wavelength (nm):,900,,
End wavelength (nm):,1700,,
Pattern Pixel Width (nm):,   7.03,,,,
Exposure (ms):,  0.635,,,,
Digital Resolution:,228,,
Num Repeats:,6,,
PGA Gain:,64,,
Total Measurement Time in sec:,  2.669,,
Wavelength (nm),Absorbance (AU),Reference Signal (unitless),Sample Signal (unitless)
901.51,0.069082,108485,92531
905.376,0.072964,121306,102546
909.237,0.075304,131909,110910
913.095,0.078563,143299,119586
916.948,0.078904,156982,130902
922.079,0.080566,179937,149470
925.923,0.081780,200504,166090
929.762,0.082213,222660,184259
933.597,0.081956,244426,202391
937.427,0.080789,263972,219164
941.254,0.080503,281845,234157
945.076,0.078904,297271,247884
950.165,0.077701,315605,263902
953.978,0.077783,328029,274239
957.786,0.077359,340470,284918
961.59,0.078217,352317,294250
965.389,0.078027,363056,303352
969.185,0.076874,373162,312625
972.976,0.078247,382632,319547
976.763,0.078281,391202,326678
981.806,0.078226,400190,334226
985.583,0.079291,406088,338321
989.355,0.079722,410162,341376
993.124,0.080369,412868,343117
996.888,0.080713,414263,344004
1000.65,0.081258,415476,344578
1004.4,0.082415,415479,343664
1009.41,0.084172,414358,341353
1013.15,0.084102,412923,340226
1016.89,0.084586,411526,338697
1020.63,0.084585,409066,336673
1024.36,0.085008,406777,334463
1028.09,0.083802,404427,333456
1031.82,0.083840,401911,331352
1036.78,0.083453,398410,328759
1040.49,0.083919,396204,326588
1044.2,0.083806,394236,325050
1047.91,0.083434,392042,323518
1051.61,0.082964,389823,322035
1055.31,0.083034,388234,320671
1059,0.081971,387599,320931
1063.92,0.081783,386688,320315
1067.61,0.080740,386598,321011
1071.29,0.080217,387377,322045
1074.96,0.079988,388536,323179
1078.63,0.078591,389855,325321
1082.3,0.078092,391215,326831
1085.96,0.077323,393215,329084
1090.84,0.076375,396270,332366
1094.49,0.076068,398760,334691
1098.14,0.075651,400987,336883
1101.79,0.074609,403477,339789
1105.43,0.075175,406116,341566
1109.06,0.073738,407701,344036
1112.7,0.073496,409859,346050
1117.53,0.073135,412494,348564
1121.15,0.073452,414909,350349
1124.77,0.073741,416559,351508
1128.38,0.075161,418532,352020
1131.99,0.076094,419956,352460
1135.6,0.077707,421946,352817
1139.2,0.079057,423881,353335
1143.99,0.080843,426786,354297
1147.58,0.081122,428617,355588
1151.17,0.082419,431169,356639
1154.75,0.083718,433579,357561
1158.33,0.084582,436264,359060
1161.91,0.086114,439132,360148
1165.48,0.088439,442389,360882
1169.04,0.090791,446101,361945
1173.79,0.094104,451929,363887
1177.34,0.095611,456026,365914
1180.9,0.098006,461306,368115
1184.44,0.099820,467657,371627
1187.99,0.100731,473969,375854
1191.52,0.101052,479856,380241
1195.06,0.100804,487372,386417
1199.76,0.100264,497347,394817
1203.29,0.099558,504311,400996
1206.81,0.099068,511507,407177
1210.33,0.098392,519078,413848
1213.84,0.098170,527163,420509
1217.35,0.097665,534208,426624
1220.85,0.096969,540472,432319
1225.51,0.096173,549929,440690
1229.01,0.094887,556888,447591
1232.5,0.094942,562180,451787
1235.98,0.093816,567975,457629
1239.46,0.093104,574815,463900
1242.94,0.092395,582782,471098
1246.41,0.091686,591476,478907
1251.03,0.091402,604016,489380
1254.5,0.091952,612289,495455
1257.96,0.091764,619125,501204
1261.41,0.092611,624551,504611
1264.86,0.093506,629900,507885
1268.31,0.093386,634345,511610
1271.75,0.094743,638574,513415
1276.33,0.094435,642499,516937
1279.76,0.093933,645905,520278
1283.19,0.093836,648307,522330
1286.61,0.093543,650446,524407
1290.03,0.092940,652132,526496
1293.44,0.092529,653907,528429
1296.85,0.092569,655963,530042
1301.39,0.091971,657349,531894
1304.8,0.091584,657558,532537
1308.19,0.092304,658515,532429
1311.58,0.092291,658804,532678
1314.97,0.092695,659011,532350
1318.36,0.093369,658272,530929
1321.73,0.093584,658022,530464
1326.23,0.093931,657870,529918
1329.6,0.094558,656482,528038
1332.97,0.095976,654926,525069
1336.33,0.096638,653727,523309
1339.69,0.098060,652497,520617
1343.04,0.099910,649913,516351
1346.39,0.101662,647671,512498
1349.73,0.103437,645338,508570
1354.18,0.106369,641175,501889
1357.52,0.108271,638376,497514
1360.85,0.110122,635805,493403
1364.17,0.111894,633413,489545
1367.49,0.114391,631026,484904
1370.81,0.116934,628050,479800
1374.12,0.118675,625034,475585
1378.54,0.122114,620272,468240
1381.84,0.123921,616892,463754
1385.14,0.127613,613613,457385
1388.43,0.131230,611526,452048
1391.72,0.135108,610663,447398
1395.01,0.139325,610634,443053
1398.29,0.143304,611700,439779
1402.66,0.149095,614051,435622
1405.93,0.154488,616268,431799
1409.2,0.159336,617795,428064
1412.46,0.163247,618872,424966
1415.72,0.167209,619795,421734
1418.98,0.170583,620495,418943
1422.23,0.173974,621087,416082
1426.56,0.177185,621375,413208
1429.8,0.179773,621616,410912
1433.04,0.182731,622129,408460
1436.27,0.184868,621526,406061
1439.5,0.186766,621113,404022
1442.72,0.189035,620921,401792
1445.94,0.191907,620270,398725
1450.23,0.195318,618860,394707
1453.44,0.198022,617697,391520
1456.64,0.201037,616264,387909
1459.85,0.203784,614413,384305
1463.04,0.206383,612307,380703
1466.24,0.209980,610032,376160
1469.43,0.213840,607345,371189
1473.67,0.220329,603789,363543
1476.85,0.226272,601175,357050
1480.02,0.231782,597737,350532
1483.19,0.238468,594479,343296
1486.36,0.244573,591232,336655
1489.52,0.249802,587853,330725
1492.68,0.252518,583875,326439
1496.89,0.254446,578062,321757
1500.03,0.255355,574159,318917
1503.18,0.255500,570285,316659
1506.32,0.254457,565444,314726
1509.45,0.253303,560571,312844
1512.58,0.251105,555821,311767
1515.71,0.249163,550344,310078
1519.87,0.246066,543983,308688
1522.99,0.243672,538764,307416
1526.1,0.240649,533692,306649
1529.21,0.238177,527902,305054
1532.32,0.234779,521886,303946
1535.42,0.232478,515888,302049
1538.51,0.229580,509987,300593
1541.6,0.227360,503936,298549
1545.72,0.222716,494694,296224
1548.8,0.220212,488378,294133
1551.88,0.217514,481832,291999
1554.95,0.215274,474989,289341
1558.02,0.214272,467818,285631
1561.08,0.213180,460730,282011
1564.15,0.211909,454170,278811
1568.22,0.211141,444181,273161
1571.27,0.210310,436947,269227
1574.32,0.209440,429598,265230
1577.36,0.208923,422039,260873
1580.4,0.206809,414375,257386
1583.43,0.206733,406354,252448
1586.46,0.204448,398475,248859
1590.49,0.202426,388982,244064
1593.51,0.200792,380708,239773
1596.53,0.198562,372727,235955
1599.54,0.197275,365060,231787
1602.55,0.194919,357543,228249
1605.55,0.193005,349495,224097
1608.55,0.190676,341154,219925
1612.54,0.189188,330877,214032
1615.53,0.187160,322904,209852
1618.51,0.186829,315116,204947
1621.49,0.185918,307217,200229
1624.47,0.183648,299481,196210
1627.44,0.184552,292112,190984
1630.41,0.183219,284245,186412
1634.36,0.181776,274079,180343
1637.32,0.180455,266916,176165
1640.27,0.179327,259612,171790
1643.22,0.178796,251804,166827
1646.16,0.177926,244348,162212
1649.1,0.179260,236703,156655
1652.04,0.175829,228171,152206
1655.95,0.171909,215408,144995
1658.88,0.168815,204937,138933
1661.8,0.164275,193395,132486
1664.72,0.154852,179728,125824
1667.63,0.143129,163642,117697
1670.54,0.129470,146312,108595
1673.44,0.111045,128451,99470
1677.31,0.093073,105080,84810
1680.21,0.081817,88906,73640
1683.1,0.074192,75033,63250
1685.99,0.077211,63520,53174
1688.87,0.083067,53714,44363
1691.75,0.084663,45653,37567
1694.62,0.087831,39137,31971
1697.49,0.092477,33776,27298
1701.31,0.100606,28175,22349