File: samples/wool/wool-000811/Column 1_050605_20150331_122555.csv
Method:,Column 1,,
Host Date-Time:,31/3/15 @ 12:25:55,,
Header Version:,1,,
System Temp (C):,34.01,,
Detector Temp (C):,34.82,,
Humidity (%):,1.71,,
Lamp PD:,3818,,
Shift Vector Coefficients:,-10.5391,0.0761263,-0.000134223,,
Pixel to Wavelength Coefficients:,1775.68,-0.916766,-0.000235065,,
Serial Number:,5510004,,
Scan Config Name:,Column 1,,
Scan Config Type:,Slew,,
Section 1,,
Start wavelength (nm):,900,,
End wavelength (nm):,1700,,
Pattern Pixel Width (nm):,   7.03,,,,
Exposure (ms):,  0.635,,,,
Digital Resolution:,228,,
Num Repeats:,6,,
PGA Gain:,64,,
Total Measurement Time in sec:,  2.732,,
Wavelength (nm),Absorbance (AU),Reference Signal (unitless),Sample Signal (unitless)
901.51,0.067536,108485,92861
905.376,0.074393,121306,102209
909.237,0.075692,131909,110811
913.095,0.077808,143299,119794
916.948,0.079704,156982,130661
922.079,0.081387,179937,149188
925.923,0.081845,200504,166065
929.762,0.081811,222660,184430
933.597,0.082585,244426,202098
937.427,0.080040,263972,219542
941.254,0.079512,281845,234692
945.076,0.079100,297271,247772
950.165,0.077336,315605,264124
953.978,0.077199,328029,274608
957.786,0.077301,340470,284956
961.59,0.077503,352317,294734
965.389,0.077399,363056,303791
969.185,0.077328,373162,312298
972.976,0.077597,382632,320025
976.763,0.078570,391202,326461
981.806,0.078822,400190,333768
985.583,0.079700,406088,338003
989.355,0.079561,410162,341503
993.124,0.080534,412868,342987
996.888,0.080359,414263,344284
1000.65,0.082023,415476,343972
1004.4,0.082777,415479,343378
1009.41,0.083921,414358,341550
1013.15,0.084423,412923,339974
1016.89,0.084447,411526,338805
1020.63,0.084499,409066,336740
1024.36,0.085008,406777,334463
1028.09,0.084906,404427,332609
1031.82,0.085019,401911,330454
1036.78,0.084440,398410,328012
1040.49,0.084097,396204,326454
1044.2,0.084277,394236,324698
1047.91,0.083519,392042,323455
1051.61,0.083024,389823,321991
1055.31,0.082808,388234,320838
1059,0.082089,387599,320844
1063.92,0.082142,386688,320051
1067.61,0.080315,386598,321325
1071.29,0.080050,387377,322169
1074.96,0.078998,388536,323917
1078.63,0.079087,389855,324950
1082.3,0.078458,391215,326556
1085.96,0.077801,393215,328722
1090.84,0.076837,396270,332012
1094.49,0.077005,398760,333969
1098.14,0.076024,400987,336594
1101.79,0.075136,403477,339377
1105.43,0.075144,406116,341591
1109.06,0.074673,407701,343296
1112.7,0.074174,409859,345510
1117.53,0.073762,412494,348061
1121.15,0.074140,414909,349794
1124.77,0.073992,416559,351305
1128.38,0.075337,418532,351878
1131.99,0.075798,419956,352700
1135.6,0.077646,421946,352867
1139.2,0.078701,423881,353625
1143.99,0.080780,426786,354348
1147.58,0.081110,428617,355598
1151.17,0.082427,431169,356632
1154.75,0.083277,433579,357924
1158.33,0.085169,436264,358575
1161.91,0.086687,439132,359673
1165.48,0.088676,442389,360685
1169.04,0.090767,446101,361965
1173.79,0.094093,451929,363896
1177.34,0.096784,456026,364927
1180.9,0.098853,461306,367397
1184.44,0.100376,467657,371152
1187.99,0.101412,473969,375265
1191.52,0.101299,479856,380025
1195.06,0.100779,487372,386440
1199.76,0.100245,497347,394834
1203.29,0.099851,504311,400726
1206.81,0.099356,511507,406907
1210.33,0.099163,519078,413114
1213.84,0.098145,527163,420533
1217.35,0.097734,534208,426556
1220.85,0.096694,540472,432593
1225.51,0.095918,549929,440949
1229.01,0.095318,556888,447147
1232.5,0.094702,562180,452036
1235.98,0.094576,567975,456829
1239.46,0.093501,574815,463476
1242.94,0.092932,582782,470516
1246.41,0.092062,591476,478493
1251.03,0.091789,604016,488944
1254.5,0.091791,612289,495639
1257.96,0.092456,619125,500406
1261.41,0.092867,624551,504314
1264.86,0.093692,629900,507668
1268.31,0.093996,634345,510893
1271.75,0.094709,638574,513455
1276.33,0.094885,642499,516401
1279.76,0.095054,645905,518937
1283.19,0.094160,648307,521940
1286.61,0.093716,650446,524198
1290.03,0.093666,652132,525617
1293.44,0.093061,653907,527782
1296.85,0.092990,655963,529528
1301.39,0.092587,657349,531140
1304.8,0.092362,657558,531584
1308.19,0.092427,658515,532278
1311.58,0.092818,658804,532032
1314.97,0.093400,659011,531487
1318.36,0.093438,658272,530844
1321.73,0.093681,658022,530346
1326.23,0.094694,657870,528988
1329.6,0.095372,656482,527049
1332.97,0.096342,654926,524626
1336.33,0.097268,653727,522551
1339.69,0.098996,652497,519496
1343.04,0.100025,649913,516215
1346.39,0.101974,647671,512130
1349.73,0.104279,645338,507584
1354.18,0.107404,641175,500694
1357.52,0.109220,638376,496428
1360.85,0.111223,635805,492154
1364.17,0.113222,633413,488051
1367.49,0.115259,631026,483936
1370.81,0.117033,628050,479691
1374.12,0.119536,625034,474644
1378.54,0.122418,620272,467912
1381.84,0.125221,616892,462368
1385.14,0.128386,613613,456571
1388.43,0.132132,611526,451110
1391.72,0.136200,610663,446274
1395.01,0.140652,610634,441702
1398.29,0.145037,611700,438028
1402.66,0.150791,614051,433924
1405.93,0.156470,616268,429833
1409.2,0.160733,617795,426689
1412.46,0.165461,618872,422805
1415.72,0.169381,619795,419631
1418.98,0.172929,620495,416686
1422.23,0.176501,621087,413668
1426.56,0.179707,621375,410815
1429.8,0.182460,621616,408378
1433.04,0.185177,622129,406166
1436.27,0.187233,621526,403856
1439.5,0.188948,621113,401997
1442.72,0.191624,620921,399404
1445.94,0.194111,620270,396707
1450.23,0.197920,618860,392349
1453.44,0.200162,617697,389595
1456.64,0.202920,616264,386231
1459.85,0.205955,614413,382389
1463.04,0.208853,612307,378544
1466.24,0.211958,610032,374451
1469.43,0.215941,607345,369398
1473.67,0.221685,603789,362410
1476.85,0.227327,601175,356184
1480.02,0.233359,597737,349262
1483.19,0.239982,594479,342101
1486.36,0.245463,591232,335966
1489.52,0.250731,587853,330018
1492.68,0.253800,583875,325477
1496.89,0.255436,578062,321025
1500.03,0.256346,574159,318190
1503.18,0.256496,570285,315934
1506.32,0.254937,565444,314378
1509.45,0.253985,560571,312353
1512.58,0.252795,555821,310556
1515.71,0.249679,550344,309710
1519.87,0.247356,543983,307772
1522.99,0.244461,538764,306858
1526.1,0.242456,533692,305376
1529.21,0.238910,527902,304539
1532.32,0.236737,521886,302579
1535.42,0.234216,515888,300843
1538.51,0.230787,509987,299759
1541.6,0.227604,503936,298381
1545.72,0.223951,494694,295383
1548.8,0.220806,488378,293731
1551.88,0.218510,481832,291330
1554.95,0.216681,474989,288405
1558.02,0.215468,467818,284845
1561.08,0.214518,460730,281144
1564.15,0.213385,454170,277865
1568.22,0.211897,444181,272686
1571.27,0.212704,436947,267747
1574.32,0.211121,429598,264205
1577.36,0.209733,422039,260387
1580.4,0.209646,414375,255710
1583.43,0.207099,406354,252235
1586.46,0.205927,398475,248013
1590.49,0.203181,388982,243640
1593.51,0.201364,380708,239457
1596.53,0.199985,372727,235183
1599.54,0.198125,365060,231334
1602.55,0.195336,357543,228030
1605.55,0.194829,349495,223158
1608.55,0.191514,341154,219501
1612.54,0.190291,330877,213489
1615.53,0.189046,322904,208943
1618.51,0.187760,315116,204508
1621.49,0.186196,307217,200101
1624.47,0.185485,299481,195382
1627.44,0.184880,292112,190840
1630.41,0.184072,284245,186046
1634.36,0.181899,274079,180292
1637.32,0.181526,266916,175731
1640.27,0.181062,259612,171105
1643.22,0.180006,251804,166363
1646.16,0.179640,244348,161573
1649.1,0.179057,236703,156728
1652.04,0.177189,228171,151730
1655.95,0.174065,215408,144277
1658.88,0.169754,204937,138633
1661.8,0.163879,193395,132607
1664.72,0.156585,179728,125323
1667.63,0.144364,163642,117363
1670.54,0.129606,146312,108561
1673.44,0.113493,128451,98911
1677.31,0.093099,105080,84805
1680.21,0.083300,88906,73389
1683.1,0.075609,75033,63044
1685.99,0.075597,63520,53372
1688.87,0.081669,53714,44506
1691.75,0.085450,45653,37499
1694.62,0.090092,39137,31805
1697.49,0.093912,33776,27208
1701.31,0.115008,28175,21620