File: samples/wool/wool-000811/Column 1_050623_20150331_123431.csv
Method:,Column 1,,
Host Date-Time:,31/3/15 @ 12:34:31,,
Header Version:,1,,
System Temp (C):,34.11,,
Detector Temp (C):,35,,
Humidity (%):,1.56,,
Lamp PD:,3818,,
Shift Vector Coefficients:,-10.5391,0.0761263,-0.000134223,,
Pixel to Wavelength Coefficients:,1775.68,-0.916766,-0.000235065,,
Serial Number:,5510004,,
Scan Config Name:,Column 1,,
Scan Config Type:,Slew,,
Section 1,,
Start wavelength (nm):,900,,
End wavelength (nm):,1700,,
Pattern Pixel Width (nm):,   7.03,,,,
Exposure (ms):,  0.635,,,,
Digital Resolution:,228,,
Num Repeats:,6,,
PGA Gain:,64,,
Total Measurement Time in sec:,  2.720,,
Wavelength (nm),Absorbance (AU),Reference Signal (unitless),Sample Signal (unitless)
901.51,0.066406,108485,93103
905.376,0.074359,121306,102217
909.237,0.074854,131909,111025
913.095,0.076783,143299,120077
916.948,0.077314,156982,131382
922.079,0.080090,179937,149634
925.923,0.080177,200504,166704
929.762,0.081563,222660,184535
933.597,0.082246,244426,202256
937.427,0.080767,263972,219175
941.254,0.079471,281845,234714
945.076,0.077837,297271,248494
950.165,0.078044,315605,263694
953.978,0.077522,328029,274404
957.786,0.076815,340470,285275
961.59,0.076975,352317,295093
965.389,0.076685,363056,304291
969.185,0.077089,373162,312470
972.976,0.077736,382632,319923
976.763,0.077782,391202,327054
981.806,0.077723,400190,334613
985.583,0.078599,406088,338861
989.355,0.079410,410162,341622
993.124,0.079427,412868,343862
996.888,0.080323,414263,344313
1000.65,0.080792,415476,344948
1004.4,0.082020,415479,343977
1009.41,0.083623,414358,341785
1013.15,0.083683,412923,340554
1016.89,0.084936,411526,338424
1020.63,0.084018,409066,337113
1024.36,0.084191,406777,335093
1028.09,0.084339,404427,333044
1031.82,0.084130,401911,331131
1036.78,0.083192,398410,328956
1040.49,0.083436,396204,326951
1044.2,0.083248,394236,325468
1047.91,0.083139,392042,323738
1051.61,0.082648,389823,322270
1055.31,0.082831,388234,320821
1059,0.082104,387599,320833
1063.92,0.080864,386688,320994
1067.61,0.079950,386598,321595
1071.29,0.079813,387377,322345
1074.96,0.078743,388536,324107
1078.63,0.078256,389855,325572
1082.3,0.077683,391215,327139
1085.96,0.077416,393215,329014
1090.84,0.075980,396270,332668
1094.49,0.075630,398760,335028
1098.14,0.075478,400987,337017
1101.79,0.074340,403477,340000
1105.43,0.074590,406116,342027
1109.06,0.073690,407701,344074
1112.7,0.073169,409859,346310
1117.53,0.072643,412494,348959
1121.15,0.073606,414909,350225
1124.77,0.073551,416559,351662
1128.38,0.074831,418532,352288
1131.99,0.075369,419956,353049
1135.6,0.076960,421946,353425
1139.2,0.078124,423881,354095
1143.99,0.080547,426786,354538
1147.58,0.081040,428617,355655
1151.17,0.081704,431169,357226
1154.75,0.082808,433579,358311
1158.33,0.083551,436264,359914
1161.91,0.085746,439132,360453
1165.48,0.087994,442389,361252
1169.04,0.089755,446101,362809
1173.79,0.093624,451929,364289
1177.34,0.095776,456026,365775
1180.9,0.097522,461306,368525
1184.44,0.099103,467657,372241
1187.99,0.100449,473969,376098
1191.52,0.100297,479856,380903
1195.06,0.100060,487372,387080
1199.76,0.099972,497347,395082
1203.29,0.098330,504311,402132
1206.81,0.098411,511507,407794
1210.33,0.097866,519078,414349
1213.84,0.097121,527163,421526
1217.35,0.096523,534208,427747
1220.85,0.096295,540472,432990
1225.51,0.095538,549929,441335
1229.01,0.095279,556888,447187
1232.5,0.094061,562180,452704
1235.98,0.093304,567975,458168
1239.46,0.092329,574815,464728
1242.94,0.091773,582782,471773
1246.41,0.091024,591476,479638
1251.03,0.091001,604016,489832
1254.5,0.090824,612289,496744
1257.96,0.091700,619125,501278
1261.41,0.092457,624551,504790
1264.86,0.093019,629900,508455
1268.31,0.092667,634345,512458
1271.75,0.093534,638574,514846
1276.33,0.093982,642499,517476
1279.76,0.094078,645905,520105
1283.19,0.093267,648307,523015
1286.61,0.092821,650446,525279
1290.03,0.092619,652132,526886
1293.44,0.092115,653907,528933
1296.85,0.091791,655963,530992
1301.39,0.091566,657349,532390
1304.8,0.091636,657558,532473
1308.19,0.091908,658515,532915
1311.58,0.091432,658804,533733
1314.97,0.092066,659011,533122
1318.36,0.092584,658272,531889
1321.73,0.092784,658022,531443
1326.23,0.093600,657870,530323
1329.6,0.094034,656482,528675
1332.97,0.094739,654926,526567
1336.33,0.095967,653727,524118
1339.69,0.097653,652497,521105
1343.04,0.098992,649913,517444
1346.39,0.100498,647671,513874
1349.73,0.102752,645338,509372
1354.18,0.105524,641175,502866
1357.52,0.107353,638376,498567
1360.85,0.109394,635805,494231
1364.17,0.111096,633413,490446
1367.49,0.113352,631026,486066
1370.81,0.115456,628050,481436
1374.12,0.117658,625034,476701
1378.54,0.120107,620272,470408
1381.84,0.123367,616892,464346
1385.14,0.126379,613613,458686
1388.43,0.130232,611526,453088
1391.72,0.133556,610663,448999
1395.01,0.137099,610634,445330
1398.29,0.141546,611700,441563
1402.66,0.147589,614051,437135
1405.93,0.152367,616268,433913
1409.2,0.156886,617795,430485
1412.46,0.160800,618872,427367
1415.72,0.164882,619795,424000
1418.98,0.167899,620495,421540
1422.23,0.171455,621087,418502
1426.56,0.175036,621375,415258
1429.8,0.177511,621616,413058
1433.04,0.179783,622129,411242
1436.27,0.182105,621526,408653
1439.5,0.184062,621113,406545
1442.72,0.186686,620921,403971
1445.94,0.189567,620270,400879
1450.23,0.192883,618860,396926
1453.44,0.195380,617697,393909
1456.64,0.198544,616264,390142
1459.85,0.201375,614413,386443
1463.04,0.204139,612307,382675
1466.24,0.207915,610032,377953
1469.43,0.211305,607345,373362
1473.67,0.218131,603789,365388
1476.85,0.224047,601175,358884
1480.02,0.230162,597737,351842
1483.19,0.237357,594479,344175
1486.36,0.242609,591232,338181
1489.52,0.247524,587853,332464
1492.68,0.251067,583875,327531
1496.89,0.253783,578062,322249
1500.03,0.253616,574159,320196
1503.18,0.254010,570285,317747
1506.32,0.252845,565444,315896
1509.45,0.251795,560571,313932
1512.58,0.250268,555821,312368
1515.71,0.247793,550344,311058
1519.87,0.244630,543983,309710
1522.99,0.241596,538764,308889
1526.1,0.239766,533692,307273
1529.21,0.236755,527902,306054
1532.32,0.233544,521886,304812
1535.42,0.230822,515888,303203
1538.51,0.228018,509987,301676
1541.6,0.224699,503936,300384
1545.72,0.220694,494694,297607
1548.8,0.218501,488378,295294
1551.88,0.216007,481832,293014
1554.95,0.214244,474989,290028
1558.02,0.213108,467818,286397
1561.08,0.210892,460730,283501
1564.15,0.210450,454170,279749
1568.22,0.209565,444181,274154
1571.27,0.209675,436947,269621
1574.32,0.208331,429598,265908
1577.36,0.207652,422039,261638
1580.4,0.205893,414375,257929
1583.43,0.204283,406354,253876
1586.46,0.202736,398475,249842
1590.49,0.200971,388982,244883
1593.51,0.198955,380708,240789
1596.53,0.196989,372727,236811
1599.54,0.195829,365060,232560
1602.55,0.192966,357543,229278
1605.55,0.190967,349495,225151
1608.55,0.190257,341154,220137
1612.54,0.187679,330877,214777
1615.53,0.186021,322904,210403
1618.51,0.185300,315116,205670
1621.49,0.184014,307217,201109
1624.47,0.182234,299481,196850
1627.44,0.181726,292112,192231
1630.41,0.180560,284245,187557
1634.36,0.179780,274079,181174
1637.32,0.178524,266916,176950
1640.27,0.177876,259612,172365
1643.22,0.176877,251804,167566
1646.16,0.177396,244348,162410
1649.1,0.175396,236703,158055
1652.04,0.174333,228171,152731
1655.95,0.171894,215408,145000
1658.88,0.166654,204937,139626
1661.8,0.161110,193395,133455
1664.72,0.151747,179728,126727
1667.63,0.141630,163642,118104
1670.54,0.126680,146312,109295
1673.44,0.110744,128451,99539
1677.31,0.086976,105080,86009
1680.21,0.077399,88906,74393
1683.1,0.070813,75033,63744
1685.99,0.069826,63520,54086
1688.87,0.072582,53714,45447
1691.75,0.076770,45653,38256
1694.62,0.079450,39137,32594
1697.49,0.085925,33776,27713
1701.31,0.098918,28175,22436