File: samples/wool/wool-000811/Column 1_050609_20150331_122806.csv
Method:,Column 1,,
Host Date-Time:,31/3/15 @ 12:28:6,,
Header Version:,1,,
System Temp (C):,34.04,,
Detector Temp (C):,34.87,,
Humidity (%):,1.66,,
Lamp PD:,3818,,
Shift Vector Coefficients:,-10.5391,0.0761263,-0.000134223,,
Pixel to Wavelength Coefficients:,1775.68,-0.916766,-0.000235065,,
Serial Number:,5510004,,
Scan Config Name:,Column 1,,
Scan Config Type:,Slew,,
Section 1,,
Start wavelength (nm):,900,,
End wavelength (nm):,1700,,
Pattern Pixel Width (nm):,   7.03,,,,
Exposure (ms):,  0.635,,,,
Digital Resolution:,228,,
Num Repeats:,6,,
PGA Gain:,64,,
Total Measurement Time in sec:,  2.670,,
Wavelength (nm),Absorbance (AU),Reference Signal (unitless),Sample Signal (unitless)
901.51,0.070615,108485,92205
905.376,0.075772,121306,101885
909.237,0.075429,131909,110878
913.095,0.077761,143299,119807
916.948,0.079395,156982,130754
922.079,0.080712,179937,149420
925.923,0.082245,200504,165912
929.762,0.083382,222660,183764
933.597,0.082484,244426,202145
937.427,0.079953,263972,219586
941.254,0.080362,281845,234233
945.076,0.079134,297271,247753
950.165,0.077923,315605,263767
953.978,0.077560,328029,274380
957.786,0.077301,340470,284956
961.59,0.077095,352317,295011
965.389,0.077031,363056,304048
969.185,0.077497,373162,312177
972.976,0.077965,382632,319754
976.763,0.078459,391202,326544
981.806,0.078417,400190,334079
985.583,0.079511,406088,338150
989.355,0.079962,410162,341188
993.124,0.080612,412868,342925
996.888,0.080931,414263,343831
1000.65,0.081779,415476,344165
1004.4,0.082439,415479,343645
1009.41,0.084228,414358,341309
1013.15,0.084473,412923,339935
1016.89,0.085204,411526,338215
1020.63,0.084728,409066,336562
1024.36,0.084618,406777,334764
1028.09,0.084110,404427,333219
1031.82,0.084265,401911,331028
1036.78,0.084622,398410,327875
1040.49,0.083418,396204,326965
1044.2,0.083570,394236,325227
1047.91,0.083002,392042,323840
1051.61,0.082889,389823,322091
1055.31,0.082204,388234,321284
1059,0.082116,387599,320824
1063.92,0.081290,386688,320679
1067.61,0.080595,386598,321118
1071.29,0.080649,387377,321725
1074.96,0.079486,388536,323553
1078.63,0.079449,389855,324679
1082.3,0.079011,391215,326140
1085.96,0.077393,393215,329031
1090.84,0.076654,396270,332152
1094.49,0.076567,398760,334306
1098.14,0.075948,400987,336653
1101.79,0.074910,403477,339554
1105.43,0.075154,406116,341583
1109.06,0.073603,407701,344143
1112.7,0.073759,409859,345840
1117.53,0.072875,412494,348773
1121.15,0.073890,414909,349996
1124.77,0.073982,416559,351313
1128.38,0.074826,418532,352292
1131.99,0.075371,419956,353047
1135.6,0.077781,421946,352757
1139.2,0.078665,423881,353654
1143.99,0.080986,426786,354180
1147.58,0.081700,428617,355115
1151.17,0.082343,431169,356701
1154.75,0.083302,433579,357904
1158.33,0.085300,436264,358467
1161.91,0.087103,439132,359329
1165.48,0.088850,442389,360541
1169.04,0.090110,446101,362513
1173.79,0.094345,451929,363685
1177.34,0.096353,456026,365289
1180.9,0.098521,461306,367678
1184.44,0.100472,467657,371070
1187.99,0.101156,473969,375486
1191.52,0.101099,479856,380200
1195.06,0.101165,487372,386096
1199.76,0.100627,497347,394487
1203.29,0.099757,504311,400813
1206.81,0.099108,511507,407140
1210.33,0.098449,519078,413793
1213.84,0.097965,527163,420707
1217.35,0.097461,534208,426825
1220.85,0.096861,540472,432426
1225.51,0.096032,549929,440834
1229.01,0.095417,556888,447045
1232.5,0.095008,562180,451718
1235.98,0.094572,567975,456833
1239.46,0.092900,574815,464118
1242.94,0.092382,582782,471112
1246.41,0.091833,591476,478745
1251.03,0.091567,604016,489194
1254.5,0.091732,612289,495706
1257.96,0.092173,619125,500732
1261.41,0.092683,624551,504528
1264.86,0.093017,629900,508458
1268.31,0.093730,634345,511206
1271.75,0.094373,638574,513852
1276.33,0.094539,642499,516813
1279.76,0.094587,645905,519495
1283.19,0.093873,648307,522285
1286.61,0.093619,650446,524315
1290.03,0.093025,652132,526394
1293.44,0.092515,653907,528447
1296.85,0.092780,655963,529785
1301.39,0.092454,657349,531303
1304.8,0.091895,657558,532156
1308.19,0.092432,658515,532272
1311.58,0.092508,658804,532412
1314.97,0.092980,659011,532001
1318.36,0.093223,658272,531108
1321.73,0.093260,658022,530860
1326.23,0.094116,657870,529693
1329.6,0.095111,656482,527366
1332.97,0.096072,654926,524953
1336.33,0.097013,653727,522858
1339.69,0.098537,652497,520046
1343.04,0.099808,649913,516472
1346.39,0.102166,647671,511904
1349.73,0.104084,645338,507812
1354.18,0.106620,641175,501599
1357.52,0.108410,638376,497355
1360.85,0.110303,635805,493198
1364.17,0.112597,633413,488754
1367.49,0.114902,631026,484334
1370.81,0.116984,628050,479745
1374.12,0.119003,625034,475226
1378.54,0.122325,620272,468012
1381.84,0.124579,616892,463052
1385.14,0.127899,613613,457084
1388.43,0.131904,611526,451347
1391.72,0.135494,610663,447000
1395.01,0.139528,610634,442846
1398.29,0.143924,611700,439152
1402.66,0.149794,614051,434921
1405.93,0.155050,616268,431241
1409.2,0.159534,617795,427869
1412.46,0.164090,618872,424142
1415.72,0.167517,619795,421435
1418.98,0.171086,620495,418458
1422.23,0.174837,621087,415256
1426.56,0.178644,621375,411822
1429.8,0.181063,621616,409694
1433.04,0.183404,622129,407827
1436.27,0.186054,621526,404954
1439.5,0.187872,621113,402994
1442.72,0.190175,620921,400739
1445.94,0.192465,620270,398213
1450.23,0.196158,618860,393944
1453.44,0.199252,617697,390412
1456.64,0.201677,616264,387338
1459.85,0.204386,614413,383773
1463.04,0.207250,612307,379944
1466.24,0.210907,610032,375358
1469.43,0.214617,607345,370526
1473.67,0.220829,603789,363125
1476.85,0.226317,601175,357013
1480.02,0.232749,597737,349753
1483.19,0.239188,594479,342727
1486.36,0.244806,591232,336474
1489.52,0.250053,587853,330534
1492.68,0.253077,583875,326019
1496.89,0.254983,578062,321360
1500.03,0.255487,574159,318820
1503.18,0.256055,570285,316255
1506.32,0.254745,565444,314517
1509.45,0.253857,560571,312445
1512.58,0.251573,555821,311431
1515.71,0.249755,550344,309656
1519.87,0.246719,543983,308224
1522.99,0.243818,538764,307313
1526.1,0.241436,533692,306094
1529.21,0.238791,527902,304623
1532.32,0.236120,521886,303009
1535.42,0.233071,515888,301637
1538.51,0.229655,509987,300541
1541.6,0.226395,503936,299213
1545.72,0.223262,494694,295852
1548.8,0.220001,488378,294276
1551.88,0.218077,481832,291621
1554.95,0.215784,474989,289001
1558.02,0.214314,467818,285603
1561.08,0.213621,460730,281725
1564.15,0.212596,454170,278370
1568.22,0.211437,444181,272975
1571.27,0.211849,436947,268275
1574.32,0.210893,429598,264344
1577.36,0.209200,422039,260707
1580.4,0.208225,414375,256548
1583.43,0.206912,406354,252344
1586.46,0.204573,398475,248787
1590.49,0.202639,388982,243944
1593.51,0.200987,380708,239665
1596.53,0.198801,372727,235825
1599.54,0.197751,365060,231533
1602.55,0.195150,357543,228128
1605.55,0.193255,349495,223968
1608.55,0.191651,341154,219432
1612.54,0.188993,330877,214128
1615.53,0.187552,322904,209663
1618.51,0.187206,315116,204769
1621.49,0.186194,307217,200102
1624.47,0.184257,299481,195935
1627.44,0.184121,292112,191174
1630.41,0.182274,284245,186818
1634.36,0.181952,274079,180270
1637.32,0.180610,266916,176102
1640.27,0.180697,259612,171249
1643.22,0.179351,251804,166614
1646.16,0.177918,244348,162215
1649.1,0.179506,236703,156566
1652.04,0.176806,228171,151864
1655.95,0.173487,215408,144469
1658.88,0.169031,204937,138864
1661.8,0.164997,193395,132266
1664.72,0.157404,179728,125087
1667.63,0.144971,163642,117199
1670.54,0.129338,146312,108628
1673.44,0.113273,128451,98961
1677.31,0.092295,105080,84962
1680.21,0.081493,88906,73695
1683.1,0.074103,75033,63263
1685.99,0.079833,63520,52854
1688.87,0.079926,53714,44685
1691.75,0.085751,45653,37473
1694.62,0.090283,39137,31791
1697.49,0.099308,33776,26872
1701.31,0.097894,28175,22489