File: samples/wool/wool-000811/Column 1_050627_20150331_123625.csv
Method:,Column 1,,
Host Date-Time:,31/3/15 @ 12:36:25,,
Header Version:,1,,
System Temp (C):,34.14,,
Detector Temp (C):,35.06,,
Humidity (%):,1.56,,
Lamp PD:,3818,,
Shift Vector Coefficients:,-10.5391,0.0761263,-0.000134223,,
Pixel to Wavelength Coefficients:,1775.68,-0.916766,-0.000235065,,
Serial Number:,5510004,,
Scan Config Name:,Column 1,,
Scan Config Type:,Slew,,
Section 1,,
Start wavelength (nm):,900,,
End wavelength (nm):,1700,,
Pattern Pixel Width (nm):,   7.03,,,,
Exposure (ms):,  0.635,,,,
Digital Resolution:,228,,
Num Repeats:,6,,
PGA Gain:,64,,
Total Measurement Time in sec:,  2.720,,
Wavelength (nm),Absorbance (AU),Reference Signal (unitless),Sample Signal (unitless)
901.51,0.068089,108485,92743
905.376,0.074406,121306,102206
909.237,0.077459,131909,110361
913.095,0.078240,143299,119675
916.948,0.079312,156982,130779
922.079,0.081096,179937,149288
925.923,0.081976,200504,166015
929.762,0.083280,222660,183807
933.597,0.082156,244426,202298
937.427,0.081136,263972,218989
941.254,0.079995,281845,234431
945.076,0.079446,297271,247575
950.165,0.078536,315605,263395
953.978,0.076807,328029,274856
957.786,0.077595,340470,284763
961.59,0.077500,352317,294736
965.389,0.077316,363056,303849
969.185,0.077722,373162,312015
972.976,0.077741,382632,319919
976.763,0.077829,391202,327018
981.806,0.078439,400190,334062
985.583,0.078914,406088,338615
989.355,0.079990,410162,341166
993.124,0.080051,412868,343368
996.888,0.080096,414263,344493
1000.65,0.081079,415476,344720
1004.4,0.082118,415479,343899
1009.41,0.083616,414358,341790
1013.15,0.084558,412923,339869
1016.89,0.083883,411526,339246
1020.63,0.084283,409066,336907
1024.36,0.084816,406777,334611
1028.09,0.084186,404427,333161
1031.82,0.084168,401911,331102
1036.78,0.084316,398410,328106
1040.49,0.083191,396204,327136
1044.2,0.083596,394236,325207
1047.91,0.083609,392042,323388
1051.61,0.082248,389823,322567
1055.31,0.082760,388234,320873
1059,0.082139,387599,320807
1063.92,0.081208,386688,320740
1067.61,0.080887,386598,320902
1071.29,0.079998,387377,322208
1074.96,0.079831,388536,323296
1078.63,0.078771,389855,325186
1082.3,0.077704,391215,327123
1085.96,0.077166,393215,329203
1090.84,0.076339,396270,332393
1094.49,0.075957,398760,334776
1098.14,0.075885,400987,336702
1101.79,0.074878,403477,339579
1105.43,0.074973,406116,341725
1109.06,0.073644,407701,344110
1112.7,0.073103,409859,346363
1117.53,0.072917,412494,348739
1121.15,0.073824,414909,350049
1124.77,0.073939,416559,351348
1128.38,0.074402,418532,352636
1131.99,0.075697,419956,352782
1135.6,0.076682,421946,353651
1139.2,0.078220,423881,354017
1143.99,0.080400,426786,354658
1147.58,0.080849,428617,355812
1151.17,0.082228,431169,356796
1154.75,0.083002,433579,358151
1158.33,0.084279,436264,359311
1161.91,0.085886,439132,360337
1165.48,0.088082,442389,361179
1169.04,0.090071,446101,362545
1173.79,0.093214,451929,364633
1177.34,0.095717,456026,365824
1180.9,0.097612,461306,368449
1184.44,0.099519,467657,371885
1187.99,0.100392,473969,376147
1191.52,0.100077,479856,381096
1195.06,0.100868,487372,386360
1199.76,0.099721,497347,395311
1203.29,0.099029,504311,401485
1206.81,0.098873,511507,407360
1210.33,0.098097,519078,414129
1213.84,0.097665,527163,420998
1217.35,0.096762,534208,427512
1220.85,0.095967,540472,433317
1225.51,0.095162,549929,441718
1229.01,0.094835,556888,447644
1232.5,0.094291,562180,452464
1235.98,0.093439,567975,458026
1239.46,0.092423,574815,464628
1242.94,0.091717,582782,471834
1246.41,0.091617,591476,478983
1251.03,0.090652,604016,490226
1254.5,0.091019,612289,496521
1257.96,0.091818,619125,501141
1261.41,0.092289,624551,504986
1264.86,0.092437,629900,509137
1268.31,0.092989,634345,512078
1271.75,0.093477,638574,514913
1276.33,0.094132,642499,517298
1279.76,0.093766,645905,520478
1283.19,0.093261,648307,523022
1286.61,0.093058,650446,524993
1290.03,0.092696,652132,526792
1293.44,0.092033,653907,529033
1296.85,0.092393,655963,530257
1301.39,0.092119,657349,531713
1304.8,0.091288,657558,532900
1308.19,0.091781,658515,533071
1311.58,0.091697,658804,533408
1314.97,0.092072,659011,533115
1318.36,0.092627,658272,531837
1321.73,0.092270,658022,532072
1326.23,0.093421,657870,530541
1329.6,0.094026,656482,528685
1332.97,0.095239,654926,525961
1336.33,0.095608,653727,524552
1339.69,0.097329,652497,521494
1343.04,0.098701,649913,517791
1346.39,0.100636,647671,513711
1349.73,0.102843,645338,509265
1354.18,0.105182,641175,503262
1357.52,0.107512,638376,498385
1360.85,0.109768,635805,493805
1364.17,0.111503,633413,489986
1367.49,0.113823,631026,485539
1370.81,0.115657,628050,481213
1374.12,0.117565,625034,476803
1378.54,0.120438,620272,470050
1381.84,0.123151,616892,464577
1385.14,0.126074,613613,459008
1388.43,0.129708,611526,453635
1391.72,0.133085,610663,449486
1395.01,0.137617,610634,444799
1398.29,0.141690,611700,441416
1402.66,0.147481,614051,437244
1405.93,0.151706,616268,434574
1409.2,0.156392,617795,430975
1412.46,0.160158,618872,427999
1415.72,0.163940,619795,424921
1418.98,0.167664,620495,421769
1422.23,0.170357,621087,419561
1426.56,0.174648,621375,415629
1429.8,0.177105,621616,413444
1433.04,0.179289,622129,411710
1436.27,0.181246,621526,409462
1439.5,0.183964,621113,406637
1442.72,0.186284,620921,404345
1445.94,0.188788,620270,401599
1450.23,0.192053,618860,397685
1453.44,0.195064,617697,394195
1456.64,0.198181,616264,390468
1459.85,0.200719,614413,387027
1463.04,0.203271,612307,383441
1466.24,0.207232,610032,378548
1469.43,0.211711,607345,373013
1473.67,0.217627,603789,365812
1476.85,0.223913,601175,358995
1480.02,0.230162,597737,351842
1483.19,0.237150,594479,344339
1486.36,0.242582,591232,338202
1489.52,0.248118,587853,332010
1492.68,0.251924,583875,326886
1496.89,0.253002,578062,322829
1500.03,0.253535,574159,320256
1503.18,0.253586,570285,318058
1506.32,0.253342,565444,315535
1509.45,0.251979,560571,313799
1512.58,0.250122,555821,312473
1515.71,0.247158,550344,311513
1519.87,0.244711,543983,309652
1522.99,0.241914,538764,308663
1526.1,0.239446,533692,307500
1529.21,0.237161,527902,305768
1532.32,0.233447,521886,304880
1535.42,0.230904,515888,303146
1538.51,0.228814,509987,301124
1541.6,0.225008,503936,300170
1545.72,0.221329,494694,297172
1548.8,0.218163,488378,295524
1551.88,0.215770,481832,293174
1554.95,0.213913,474989,290249
1558.02,0.212006,467818,287125
1561.08,0.211014,460730,283421
1564.15,0.211037,454170,279371
1568.22,0.210226,444181,273737
1571.27,0.209271,436947,269872
1574.32,0.208672,429598,265699
1577.36,0.207287,422039,261858
1580.4,0.206583,414375,257520
1583.43,0.204552,406354,253719
1586.46,0.203412,398475,249453
1590.49,0.200983,388982,244876
1593.51,0.199345,380708,240573
1596.53,0.197178,372727,236708
1599.54,0.195439,365060,232769
1602.55,0.193717,357543,228882
1605.55,0.191533,349495,224858
1608.55,0.189223,341154,220662
1612.54,0.188711,330877,214267
1615.53,0.186106,322904,210362
1618.51,0.185526,315116,205563
1621.49,0.184439,307217,200912
1624.47,0.183551,299481,196254
1627.44,0.182370,292112,191946
1630.41,0.181000,284245,187367
1634.36,0.179629,274079,181237
1637.32,0.179753,266916,176450
1640.27,0.178123,259612,172267
1643.22,0.178354,251804,166997
1646.16,0.177444,244348,162392
1649.1,0.176471,236703,157664
1652.04,0.174433,228171,152696
1655.95,0.171693,215408,145067
1658.88,0.166769,204937,139589
1661.8,0.162300,193395,133090
1664.72,0.154852,179728,125824
1667.63,0.142274,163642,117929
1670.54,0.127061,146312,109199
1673.44,0.108490,128451,100057
1677.31,0.089966,105080,85419
1680.21,0.076443,88906,74557
1683.1,0.072602,75033,63482
1685.99,0.076379,63520,53276
1688.87,0.073759,53714,45324
1691.75,0.079126,45653,38049
1694.62,0.085123,39137,32171
1697.49,0.092414,33776,27302
1701.31,0.090883,28175,22855