File: samples/wool/wool-000811/Column 1_050615_20150331_123040.csv
Method:,Column 1,,
Host Date-Time:,31/3/15 @ 12:30:40,,
Header Version:,1,,
System Temp (C):,34.09,,
Detector Temp (C):,34.95,,
Humidity (%):,1.66,,
Lamp PD:,3818,,
Shift Vector Coefficients:,-10.5391,0.0761263,-0.000134223,,
Pixel to Wavelength Coefficients:,1775.68,-0.916766,-0.000235065,,
Serial Number:,5510004,,
Scan Config Name:,Column 1,,
Scan Config Type:,Slew,,
Section 1,,
Start wavelength (nm):,900,,
End wavelength (nm):,1700,,
Pattern Pixel Width (nm):,   7.03,,,,
Exposure (ms):,  0.635,,,,
Digital Resolution:,228,,
Num Repeats:,6,,
PGA Gain:,64,,
Total Measurement Time in sec:,  2.672,,
Wavelength (nm),Absorbance (AU),Reference Signal (unitless),Sample Signal (unitless)
901.51,0.068201,108485,92719
905.376,0.076096,121306,101809
909.237,0.075797,131909,110784
913.095,0.076657,143299,120112
916.948,0.078648,156982,130979
922.079,0.080892,179937,149358
925.923,0.081947,200504,166026
929.762,0.082282,222660,184230
933.597,0.081463,244426,202621
937.427,0.081245,263972,218934
941.254,0.079516,281845,234690
945.076,0.079213,297271,247708
950.165,0.078124,315605,263645
953.978,0.077463,328029,274441
957.786,0.077855,340470,284593
961.59,0.077996,352317,294400
965.389,0.077141,363056,303971
969.185,0.077562,373162,312130
972.976,0.077849,382632,319840
976.763,0.078513,391202,326504
981.806,0.078963,400190,333659
985.583,0.079266,406088,338341
989.355,0.079996,410162,341161
993.124,0.079954,412868,343445
996.888,0.080679,414263,344031
1000.65,0.081701,415476,344227
1004.4,0.082603,415479,343515
1009.41,0.083914,414358,341556
1013.15,0.084344,412923,340036
1016.89,0.084780,411526,338546
1020.63,0.084932,409066,336404
1024.36,0.085364,406777,334189
1028.09,0.085041,404427,332506
1031.82,0.084391,401911,330932
1036.78,0.083934,398410,328395
1040.49,0.083560,396204,326858
1044.2,0.083778,394236,325071
1047.91,0.083009,392042,323835
1051.61,0.083122,389823,321918
1055.31,0.083435,388234,320375
1059,0.081960,387599,320939
1063.92,0.081606,386688,320446
1067.61,0.080665,386598,321066
1071.29,0.080363,387377,321937
1074.96,0.080046,388536,323136
1078.63,0.079001,389855,325014
1082.3,0.078421,391215,326584
1085.96,0.077780,393215,328738
1090.84,0.076785,396270,332052
1094.49,0.076266,398760,334538
1098.14,0.075417,400987,337065
1101.79,0.074777,403477,339658
1105.43,0.074388,406116,342186
1109.06,0.074107,407701,343744
1112.7,0.072983,409859,346459
1117.53,0.073028,412494,348650
1121.15,0.074627,414909,349402
1124.77,0.074466,416559,350922
1128.38,0.074938,418532,352201
1131.99,0.075419,419956,353008
1135.6,0.077139,421946,353279
1139.2,0.079216,423881,353206
1143.99,0.081043,426786,354134
1147.58,0.081356,428617,355397
1151.17,0.082567,431169,356517
1154.75,0.082775,433579,358338
1158.33,0.084363,436264,359241
1161.91,0.085763,439132,360439
1165.48,0.088135,442389,361135
1169.04,0.090450,446101,362229
1173.79,0.094298,451929,363724
1177.34,0.096226,456026,365396
1180.9,0.098479,461306,367714
1184.44,0.100284,467657,371230
1187.99,0.100377,473969,376160
1191.52,0.100907,479856,380368
1195.06,0.100819,487372,386404
1199.76,0.100301,497347,394783
1203.29,0.099541,504311,401012
1206.81,0.099030,511507,407213
1210.33,0.098260,519078,413974
1213.84,0.097853,527163,420816
1217.35,0.097313,534208,426970
1220.85,0.096846,540472,432441
1225.51,0.095889,549929,440979
1229.01,0.095167,556888,447302
1232.5,0.094802,562180,451932
1235.98,0.094134,567975,457294
1239.46,0.093471,574815,463508
1242.94,0.092361,582782,471135
1246.41,0.091758,591476,478827
1251.03,0.091599,604016,489158
1254.5,0.091313,612289,496185
1257.96,0.092195,619125,500707
1261.41,0.092756,624551,504443
1264.86,0.093413,629900,507994
1268.31,0.093637,634345,511315
1271.75,0.094244,638574,514005
1276.33,0.094498,642499,516862
1279.76,0.094528,645905,519566
1283.19,0.093545,648307,522680
1286.61,0.093312,650446,524686
1290.03,0.092854,652132,526601
1293.44,0.092591,653907,528354
1296.85,0.092349,655963,530311
1301.39,0.091834,657349,532062
1304.8,0.092070,657558,531942
1308.19,0.092168,658515,532596
1311.58,0.092264,658804,532712
1314.97,0.092703,659011,532341
1318.36,0.093336,658272,530969
1321.73,0.093499,658022,530568
1326.23,0.093987,657870,529850
1329.6,0.095202,656482,527255
1332.97,0.095894,654926,525168
1336.33,0.096346,653727,523661
1339.69,0.098207,652497,520441
1343.04,0.099219,649913,517174
1346.39,0.101417,647671,512788
1349.73,0.103560,645338,508425
1354.18,0.106327,641175,501937
1357.52,0.108306,638376,497474
1360.85,0.110281,635805,493222
1364.17,0.112481,633413,488884
1367.49,0.114353,631026,484947
1370.81,0.116637,628050,480128
1374.12,0.118356,625034,475935
1378.54,0.121427,620272,468981
1381.84,0.124617,616892,463012
1385.14,0.127103,613613,457922
1388.43,0.130645,611526,452658
1391.72,0.134976,610663,447534
1395.01,0.138851,610634,443537
1398.29,0.143238,611700,439846
1402.66,0.148908,614051,435809
1405.93,0.153976,616268,432308
1409.2,0.158072,617795,429311
1412.46,0.162787,618872,425416
1415.72,0.166841,619795,422092
1418.98,0.170145,620495,419366
1422.23,0.173750,621087,416296
1426.56,0.177414,621375,412990
1429.8,0.179599,621616,411077
1433.04,0.181924,622129,409220
1436.27,0.184173,621526,406711
1439.5,0.185856,621113,404869
1442.72,0.188494,620921,402293
1445.94,0.191341,620270,399245
1450.23,0.194524,618860,395429
1453.44,0.197259,617697,392208
1456.64,0.200304,616264,388564
1459.85,0.203387,614413,384657
1463.04,0.205967,612307,381068
1466.24,0.209396,610032,376666
1469.43,0.213357,607345,371602
1473.67,0.219937,603789,363872
1476.85,0.225708,601175,357514
1480.02,0.232125,597737,350256
1483.19,0.238383,594479,343363
1486.36,0.244417,591232,336776
1489.52,0.248918,587853,331399
1492.68,0.252305,583875,326599
1496.89,0.254902,578062,321420
1500.03,0.255751,574159,318626
1503.18,0.255400,570285,316732
1506.32,0.254378,565444,314783
1509.45,0.252419,560571,313481
1512.58,0.250890,555821,311921
1515.71,0.248713,550344,310400
1519.87,0.246502,543983,308378
1522.99,0.243871,538764,307275
1526.1,0.241118,533692,306318
1529.21,0.237545,527902,305498
1532.32,0.234484,521886,304153
1535.42,0.231994,515888,302386
1538.51,0.229382,509987,300730
1541.6,0.226985,503936,298807
1545.72,0.222129,494694,296625
1548.8,0.219712,488378,294472
1551.88,0.216568,481832,292636
1554.95,0.215217,474989,289379
1558.02,0.213378,467818,286219
1561.08,0.212457,460730,282481
1564.15,0.212138,454170,278664
1568.22,0.210071,444181,273835
1571.27,0.210491,436947,269115
1574.32,0.209962,429598,264911
1577.36,0.208614,422039,261059
1580.4,0.207080,414375,257225
1583.43,0.206404,406354,252639
1586.46,0.204291,398475,248949
1590.49,0.201796,388982,244418
1593.51,0.200323,380708,240032
1596.53,0.199372,372727,235515
1599.54,0.197753,365060,231532
1602.55,0.194786,357543,228319
1605.55,0.193208,349495,223992
1608.55,0.190698,341154,219914
1612.54,0.189553,330877,213852
1615.53,0.187179,322904,209843
1618.51,0.187034,315116,204850
1621.49,0.185340,307217,200496
1624.47,0.184375,299481,195882
1627.44,0.183909,292112,191267
1630.41,0.182195,284245,186852
1634.36,0.180560,274079,180849
1637.32,0.179492,266916,176556
1640.27,0.180291,259612,171409
1643.22,0.178346,251804,167000
1646.16,0.178842,244348,161870
1649.1,0.176435,236703,157677
1652.04,0.175361,228171,152370
1655.95,0.172187,215408,144902
1658.88,0.168378,204937,139073
1661.8,0.164059,193395,132552
1664.72,0.155056,179728,125765
1667.63,0.142772,163642,117794
1670.54,0.129586,146312,108566
1673.44,0.112958,128451,99033
1677.31,0.091933,105080,85033
1680.21,0.080834,88906,73807
1683.1,0.072889,75033,63440
1685.99,0.076004,63520,53322
1688.87,0.076672,53714,45021
1691.75,0.077065,45653,38230
1694.62,0.083829,39137,32267
1697.49,0.102439,33776,26679
1701.31,0.099073,28175,22428