File: samples/wool/wool-000811/Column 1_050566_20150331_120732.csv
Method:,Column 1,,
Host Date-Time:,31/3/15 @ 12:7:32,,
Header Version:,1,,
System Temp (C):,33.93,,
Detector Temp (C):,33.86,,
Humidity (%):,1.86,,
Lamp PD:,3819,,
Shift Vector Coefficients:,-10.5391,0.0761263,-0.000134223,,
Pixel to Wavelength Coefficients:,1775.68,-0.916766,-0.000235065,,
Serial Number:,5510004,,
Scan Config Name:,Column 1,,
Scan Config Type:,Slew,,
Section 1,,
Start wavelength (nm):,900,,
End wavelength (nm):,1700,,
Pattern Pixel Width (nm):,   7.03,,,,
Exposure (ms):,  0.635,,,,
Digital Resolution:,228,,
Num Repeats:,6,,
PGA Gain:,64,,
Total Measurement Time in sec:,  2.692,,
Wavelength (nm),Absorbance (AU),Reference Signal (unitless),Sample Signal (unitless)
901.51,0.033753,108485,100373
905.376,0.039413,121306,110782
909.237,0.042195,131909,119696
913.095,0.043340,143299,129689
916.948,0.045063,156982,141510
922.079,0.047117,179937,161437
925.923,0.047225,200504,179845
929.762,0.047071,222660,199789
933.597,0.048694,244426,218501
937.427,0.047022,263972,236884
941.254,0.047866,281845,252432
945.076,0.047491,297271,266478
950.165,0.046580,315605,283507
953.978,0.046053,328029,295025
957.786,0.046132,340470,306159
961.59,0.047003,352317,316177
965.389,0.046893,363056,325897
969.185,0.046630,373162,335172
972.976,0.047235,382632,343199
976.763,0.047794,391202,350435
981.806,0.049008,400190,357485
985.583,0.049397,406088,362429
989.355,0.049252,410162,366187
993.124,0.049959,412868,368004
996.888,0.050825,414263,368512
1000.65,0.051609,415476,368924
1004.4,0.052114,415479,368498
1009.41,0.054033,414358,365883
1013.15,0.054467,412923,364252
1016.89,0.054809,411526,362734
1020.63,0.055054,409066,360362
1024.36,0.054818,406777,358541
1028.09,0.054790,404427,356492
1031.82,0.054919,401911,354169
1036.78,0.053548,398410,352194
1040.49,0.053597,396204,350205
1044.2,0.052958,394236,348978
1047.91,0.052828,392042,347140
1051.61,0.052441,389823,345483
1055.31,0.051475,388234,344841
1059,0.050896,387599,344736
1063.92,0.050340,386688,344366
1067.61,0.049298,386598,345113
1071.29,0.048728,387377,346263
1074.96,0.048714,388536,347310
1078.63,0.047996,389855,349066
1082.3,0.046949,391215,351129
1085.96,0.046606,393215,353203
1090.84,0.046105,396270,356358
1094.49,0.045376,398760,359199
1098.14,0.045479,400987,361120
1101.79,0.045144,403477,363643
1105.43,0.044742,406116,366360
1109.06,0.043943,407701,368467
1112.7,0.044369,409859,370054
1117.53,0.044255,412494,372531
1121.15,0.044839,414909,374209
1124.77,0.045435,416559,375182
1128.38,0.046347,418532,376168
1131.99,0.048149,419956,375885
1135.6,0.049718,421946,376304
1139.2,0.051679,423881,376327
1143.99,0.054196,426786,376716
1147.58,0.055649,428617,377069
1151.17,0.056200,431169,378833
1154.75,0.057794,433579,379555
1158.33,0.059456,436264,380446
1161.91,0.060893,439132,381682
1165.48,0.064161,442389,381631
1169.04,0.066298,446101,382944
1173.79,0.070335,451929,384357
1177.34,0.072209,456026,386172
1180.9,0.074823,461306,388299
1184.44,0.076925,467657,391744
1187.99,0.077606,473969,396409
1191.52,0.077731,479856,401218
1195.06,0.077068,487372,408124
1199.76,0.076265,497347,417248
1203.29,0.075421,504311,423914
1206.81,0.074646,511507,430730
1210.33,0.073729,519078,438030
1213.84,0.072496,527163,446117
1217.35,0.072030,534208,452564
1220.85,0.071351,540472,458588
1225.51,0.070444,549929,467587
1229.01,0.069733,556888,474280
1232.5,0.069278,562180,479289
1235.98,0.068546,567975,485046
1239.46,0.067193,574815,492419
1242.94,0.066634,582782,499887
1246.41,0.065648,591476,508498
1251.03,0.065324,604016,519666
1254.5,0.066129,612289,525808
1257.96,0.066270,619125,531506
1261.41,0.066765,624551,535554
1264.86,0.068103,629900,538479
1268.31,0.068016,634345,542387
1271.75,0.068872,638574,544928
1276.33,0.068915,642499,548223
1279.76,0.069243,645905,550713
1283.19,0.068461,648307,553757
1286.61,0.068069,650446,556086
1290.03,0.067901,652132,557744
1293.44,0.067544,653907,559722
1296.85,0.067345,655963,561739
1301.39,0.067175,657349,563146
1304.8,0.066833,657558,563769
1308.19,0.067072,658515,564279
1311.58,0.067272,658804,564267
1314.97,0.067902,659011,563626
1318.36,0.068482,658272,562242
1321.73,0.068876,658022,561519
1326.23,0.069661,657870,560376
1329.6,0.070891,656482,557612
1332.97,0.071600,654926,555382
1336.33,0.072590,653727,553103
1339.69,0.074345,652497,549837
1343.04,0.076530,649913,544910
1346.39,0.078478,647671,540600
1349.73,0.080797,645338,535784
1354.18,0.083609,641175,528893
1357.52,0.086049,638376,523634
1360.85,0.088384,635805,518728
1364.17,0.090448,633413,514326
1367.49,0.092886,631026,509520
1370.81,0.095415,628050,504172
1374.12,0.097873,625034,498920
1378.54,0.100783,620272,491812
1381.84,0.104214,616892,485283
1385.14,0.108518,613613,477943
1388.43,0.113131,611526,471285
1391.72,0.117442,610663,465972
1395.01,0.122201,610634,460872
1398.29,0.127824,611700,455737
1402.66,0.134757,614051,450243
1405.93,0.140658,616268,445771
1409.2,0.146085,617795,441326
1412.46,0.150715,618872,437407
1415.72,0.155385,619795,433374
1418.98,0.159588,620495,429685
1422.23,0.163691,621087,426051
1426.56,0.167701,621375,422331
1429.8,0.170746,621616,419543
1433.04,0.173348,622129,417381
1436.27,0.175690,621526,414734
1439.5,0.177171,621113,413047
1442.72,0.180777,620921,409505
1445.94,0.182831,620270,407146
1450.23,0.186231,618860,403052
1453.44,0.189211,617697,399544
1456.64,0.192382,616264,395717
1459.85,0.195499,614413,391707
1463.04,0.198252,612307,387898
1466.24,0.201374,610032,383688
1469.43,0.205031,607345,378795
1473.67,0.210899,603789,371523
1476.85,0.217083,601175,364685
1480.02,0.223059,597737,357644
1483.19,0.230024,594479,350036
1486.36,0.235821,591232,343508
1489.52,0.241223,587853,337323
1492.68,0.245075,583875,332082
1496.89,0.247613,578062,326860
1500.03,0.247826,574159,324494
1503.18,0.248279,570285,321968
1506.32,0.247191,565444,320036
1509.45,0.245629,560571,318421
1512.58,0.244135,555821,316811
1515.71,0.241708,550344,315447
1519.87,0.238824,543983,313878
1522.99,0.235194,538764,313476
1526.1,0.232785,533692,312252
1529.21,0.229962,527902,310879
1532.32,0.227192,521886,309303
1535.42,0.224514,515888,307639
1538.51,0.221473,509987,306257
1541.6,0.217562,503936,305361
1545.72,0.213271,494694,302737
1548.8,0.209905,488378,301197
1551.88,0.207499,481832,298811
1554.95,0.204969,474989,296288
1558.02,0.203098,467818,293075
1561.08,0.202374,460730,289116
1564.15,0.201386,454170,285649
1568.22,0.200470,444181,279956
1571.27,0.199465,436947,276035
1574.32,0.198687,429598,271879
1577.36,0.197675,422039,267718
1580.4,0.196022,414375,263859
1583.43,0.194197,406354,259841
1586.46,0.192825,398475,255609
1590.49,0.190728,388982,250727
1593.51,0.187609,380708,247163
1596.53,0.186416,372727,242647
1599.54,0.183066,365060,239496
1602.55,0.180989,357543,235689
1605.55,0.179419,349495,231218
1608.55,0.176781,341154,227075
1612.54,0.174946,330877,221167
1615.53,0.172328,322904,217143
1618.51,0.170548,315116,212776
1621.49,0.170710,307217,207365
1624.47,0.168937,299481,202970
1627.44,0.168433,292112,198206
1630.41,0.166350,284245,193795
1634.36,0.165331,274079,187303
1637.32,0.166077,266916,182095
1640.27,0.162901,259612,178412
1643.22,0.161450,251804,173625
1646.16,0.162594,244348,168041
1649.1,0.160891,236703,163423
1652.04,0.160261,228171,157761
1655.95,0.157110,215408,150021
1658.88,0.154230,204937,143678
1661.8,0.149547,193395,137056
1664.72,0.142789,179728,129368
1667.63,0.132227,163642,120689
1670.54,0.121042,146312,110723
1673.44,0.104722,128451,100929
1677.31,0.090357,105080,85342
1680.21,0.084159,88906,73244
1683.1,0.079129,75033,62535
1685.99,0.085232,63520,52201
1688.87,0.083370,53714,44332
1691.75,0.086331,45653,37423
1694.62,0.103713,39137,30823
1697.49,0.094982,33776,27141
1701.31,0.108825,28175,21930