File: samples/wool/wool-000811/Column 1_050570_20150331_120935.csv
Method:,Column 1,,
Host Date-Time:,31/3/15 @ 12:9:35,,
Header Version:,1,,
System Temp (C):,34.09,,
Detector Temp (C):,34.18,,
Humidity (%):,1.76,,
Lamp PD:,3818,,
Shift Vector Coefficients:,-10.5391,0.0761263,-0.000134223,,
Pixel to Wavelength Coefficients:,1775.68,-0.916766,-0.000235065,,
Serial Number:,5510004,,
Scan Config Name:,Column 1,,
Scan Config Type:,Slew,,
Section 1,,
Start wavelength (nm):,900,,
End wavelength (nm):,1700,,
Pattern Pixel Width (nm):,   7.03,,,,
Exposure (ms):,  0.635,,,,
Digital Resolution:,228,,
Num Repeats:,6,,
PGA Gain:,64,,
Total Measurement Time in sec:,  2.730,,
Wavelength (nm),Absorbance (AU),Reference Signal (unitless),Sample Signal (unitless)
901.51,0.034108,108485,100291
905.376,0.040245,121306,110570
909.237,0.042514,131909,119608
913.095,0.043253,143299,129715
916.948,0.045622,156982,141328
922.079,0.046287,179937,161746
925.923,0.047440,200504,179756
929.762,0.048438,222660,199161
933.597,0.048553,244426,218572
937.427,0.048861,263972,235883
941.254,0.047441,281845,252679
945.076,0.047112,297271,266711
950.165,0.046438,315605,283600
953.978,0.046503,328029,294720
957.786,0.047449,340470,305232
961.59,0.046946,352317,316219
965.389,0.046451,363056,326229
969.185,0.047011,373162,334878
972.976,0.047885,382632,342686
976.763,0.048058,391202,350222
981.806,0.048831,400190,357631
985.583,0.049771,406088,362117
989.355,0.050025,410162,365536
993.124,0.050307,412868,367709
996.888,0.051106,414263,368273
1000.65,0.051842,415476,368726
1004.4,0.052453,415479,368210
1009.41,0.053809,414358,366072
1013.15,0.054319,412923,364376
1016.89,0.055241,411526,362373
1020.63,0.055024,409066,360387
1024.36,0.055154,406777,358263
1028.09,0.054734,404427,356538
1031.82,0.054430,401911,354568
1036.78,0.054132,398410,351721
1040.49,0.053433,396204,350337
1044.2,0.053453,394236,348581
1047.91,0.053250,392042,346803
1051.61,0.052569,389823,345381
1055.31,0.051071,388234,345162
1059,0.051499,387599,344258
1063.92,0.050454,386688,344276
1067.61,0.049925,386598,344615
1071.29,0.048526,387377,346424
1074.96,0.048787,388536,347252
1078.63,0.047747,389855,349266
1082.3,0.046599,391215,351412
1085.96,0.046918,393215,352949
1090.84,0.045604,396270,356769
1094.49,0.045211,398760,359336
1098.14,0.044885,400987,361614
1101.79,0.044612,403477,364088
1105.43,0.044509,406116,366557
1109.06,0.043916,407701,368490
1112.7,0.044334,409859,370084
1117.53,0.043893,412494,372842
1121.15,0.044916,414909,374142
1124.77,0.045527,416559,375102
1128.38,0.047022,418532,375584
1131.99,0.048267,419956,375783
1135.6,0.050393,421946,375720
1139.2,0.051891,423881,376143
1143.99,0.054270,426786,376652
1147.58,0.055149,428617,377503
1151.17,0.056546,431169,378531
1154.75,0.057490,433579,379820
1158.33,0.058628,436264,381172
1161.91,0.060915,439132,381663
1165.48,0.063785,442389,381961
1169.04,0.066321,446101,382924
1173.79,0.070119,451929,384549
1177.34,0.072171,456026,386206
1180.9,0.074743,461306,388370
1184.44,0.076516,467657,392113
1187.99,0.077142,473969,396833
1191.52,0.076822,479856,402058
1195.06,0.077191,487372,408009
1199.76,0.076148,497347,417361
1203.29,0.075062,504311,424264
1206.81,0.074225,511507,431148
1210.33,0.073645,519078,438114
1213.84,0.072606,527163,446004
1217.35,0.071845,534208,452757
1220.85,0.071458,540472,458474
1225.51,0.070661,549929,467354
1229.01,0.069665,556888,474354
1232.5,0.069009,562180,479586
1235.98,0.068388,567975,485223
1239.46,0.067353,574815,492238
1242.94,0.066650,582782,499869
1246.41,0.065915,591476,508185
1251.03,0.065505,604016,519450
1254.5,0.066029,612289,525929
1257.96,0.066721,619125,530955
1261.41,0.066646,624551,535700
1264.86,0.067605,629900,539097
1268.31,0.068136,634345,542237
1271.75,0.068830,638574,544981
1276.33,0.069312,642499,547722
1279.76,0.069102,645905,550892
1283.19,0.068329,648307,553926
1286.61,0.068285,650446,555810
1290.03,0.067616,652132,558110
1293.44,0.067164,653907,560212
1296.85,0.067140,655963,562004
1301.39,0.067050,657349,563308
1304.8,0.067087,657558,563439
1308.19,0.066987,658515,564389
1311.58,0.067513,658804,563954
1314.97,0.067869,659011,563669
1318.36,0.067957,658272,562922
1321.73,0.068325,658022,562232
1326.23,0.069584,657870,560475
1329.6,0.070277,656482,558400
1332.97,0.071303,654926,555762
1336.33,0.072580,653727,553116
1339.69,0.074162,652497,550068
1343.04,0.075680,649913,545978
1346.39,0.077783,647671,541466
1349.73,0.080149,645338,536585
1354.18,0.083329,641175,529234
1357.52,0.085383,638376,524437
1360.85,0.087984,635805,519206
1364.17,0.089854,633413,515030
1367.49,0.092342,631026,510159
1370.81,0.094668,628050,505040
1374.12,0.097288,625034,499592
1378.54,0.100471,620272,492166
1381.84,0.103846,616892,485694
1385.14,0.107878,613613,478648
1388.43,0.111973,611526,472544
1391.72,0.116154,610663,467356
1395.01,0.121630,610634,461478
1398.29,0.126382,611700,457253
1402.66,0.133560,614051,451486
1405.93,0.139299,616268,447168
1409.2,0.144635,617795,442802
1412.46,0.149570,618872,438562
1415.72,0.153827,619795,434932
1418.98,0.157743,620495,431514
1422.23,0.161906,621087,427806
1426.56,0.165745,621375,424237
1429.8,0.168284,621616,421928
1433.04,0.171685,622129,418982
1436.27,0.173660,621526,416677
1439.5,0.175850,621113,414305
1442.72,0.178469,620921,411687
1445.94,0.180721,620270,409129
1450.23,0.184501,618860,404661
1453.44,0.187311,617697,401296
1456.64,0.191013,616264,396966
1459.85,0.193675,614413,393356
1463.04,0.196424,612307,389534
1466.24,0.200062,610032,384849
1469.43,0.203421,607345,380202
1473.67,0.209675,603789,372572
1476.85,0.215224,601175,366249
1480.02,0.221735,597737,358736
1483.19,0.228545,594479,351230
1486.36,0.234661,591232,344427
1489.52,0.240147,587853,338160
1492.68,0.244652,583875,332405
1496.89,0.246187,578062,327935
1500.03,0.247640,574159,324633
1503.18,0.246955,570285,322951
1506.32,0.246430,565444,320597
1509.45,0.244886,560571,318966
1512.58,0.243364,555821,317374
1515.71,0.241021,550344,315946
1519.87,0.237449,543983,314874
1522.99,0.234787,538764,313770
1526.1,0.232321,533692,312586
1529.21,0.229265,527902,311378
1532.32,0.226578,521886,309740
1535.42,0.223692,515888,308222
1538.51,0.220500,509987,306944
1541.6,0.216548,503936,306075
1545.72,0.212141,494694,303526
1548.8,0.209316,488378,301606
1551.88,0.206618,481832,299418
1554.95,0.204473,474989,296627
1558.02,0.202327,467818,293596
1561.08,0.200914,460730,290090
1564.15,0.200819,454170,286022
1568.22,0.199333,444181,280690
1571.27,0.198661,436947,276546
1574.32,0.198254,429598,272150
1577.36,0.196476,422039,268458
1580.4,0.195420,414375,264225
1583.43,0.193652,406354,260167
1586.46,0.191546,398475,256363
1590.49,0.188957,388982,251752
1593.51,0.187110,380708,247447
1596.53,0.185058,372727,243407
1599.54,0.182945,365060,239563
1602.55,0.180560,357543,235922
1605.55,0.177667,349495,232153
1608.55,0.176021,341154,227473
1612.54,0.174913,330877,221184
1615.53,0.172938,322904,216838
1618.51,0.171089,315116,212511
1621.49,0.169986,307217,207711
1624.47,0.168865,299481,203004
1627.44,0.167561,292112,198604
1630.41,0.165517,284245,194167
1634.36,0.163404,274079,188136
1637.32,0.163473,266916,183190
1640.27,0.162443,259612,178600
1643.22,0.161143,251804,173748
1646.16,0.160616,244348,168808
1649.1,0.160710,236703,163491
1652.04,0.158157,228171,158527
1655.95,0.156141,215408,150356
1658.88,0.151719,204937,144511
1661.8,0.147628,193395,137663
1664.72,0.142088,179728,129577
1667.63,0.130206,163642,121252
1670.54,0.117064,146312,111742
1673.44,0.106170,128451,100593
1677.31,0.086860,105080,86032
1680.21,0.078299,88906,74239
1683.1,0.076961,75033,62848
1685.99,0.080104,63520,52821
1688.87,0.081806,53714,44492
1691.75,0.085913,45653,37459
1694.62,0.093409,39137,31563
1697.49,0.097068,33776,27011
1701.31,0.097701,28175,22499