File: samples/wool/wool-000811/Column 1_050537_20150331_115355.csv
Method:,Column 1,,
Host Date-Time:,31/3/15 @ 11:53:55,,
Header Version:,1,,
System Temp (C):,31.8,,
Detector Temp (C):,30.17,,
Humidity (%):,3.46,,
Lamp PD:,3826,,
Shift Vector Coefficients:,-10.5391,0.0761263,-0.000134223,,
Pixel to Wavelength Coefficients:,1775.68,-0.916766,-0.000235065,,
Serial Number:,5510004,,
Scan Config Name:,Column 1,,
Scan Config Type:,Slew,,
Section 1,,
Start wavelength (nm):,900,,
End wavelength (nm):,1700,,
Pattern Pixel Width (nm):,   7.03,,,,
Exposure (ms):,  0.635,,,,
Digital Resolution:,228,,
Num Repeats:,6,,
PGA Gain:,64,,
Total Measurement Time in sec:,  2.672,,
Wavelength (nm),Absorbance (AU),Reference Signal (unitless),Sample Signal (unitless)
901.51,0.043958,108485,98042
905.376,0.053129,121306,107338
909.237,0.051384,131909,117190
913.095,0.051763,143299,127198
916.948,0.051509,156982,139425
922.079,0.051715,179937,159737
925.923,0.052120,200504,177829
929.762,0.052544,222660,197287
933.597,0.054205,244426,215746
937.427,0.053660,263972,233291
941.254,0.053926,281845,248934
945.076,0.053896,297271,262577
950.165,0.055113,315605,277991
953.978,0.054253,328029,289507
957.786,0.054917,340470,300028
961.59,0.055152,352317,310300
965.389,0.055230,363056,319701
969.185,0.055619,373162,328306
972.976,0.056666,382632,335827
976.763,0.056915,391202,343152
981.806,0.057949,400190,350201
985.583,0.058654,406088,354786
989.355,0.058654,410162,358345
993.124,0.059978,412868,359611
996.888,0.060206,414263,360637
1000.65,0.061399,415476,360701
1004.4,0.062627,415479,359685
1009.41,0.063595,414358,357916
1013.15,0.063931,412923,356400
1016.89,0.064763,411526,354515
1020.63,0.064578,409066,352546
1024.36,0.064282,406777,350812
1028.09,0.064033,404427,348985
1031.82,0.063344,401911,347365
1036.78,0.063258,398410,344407
1040.49,0.062258,396204,343290
1044.2,0.061994,394236,341792
1047.91,0.061075,392042,340610
1051.61,0.060869,389823,338843
1055.31,0.059739,388234,338341
1059,0.058679,387599,338613
1063.92,0.057855,386688,338459
1067.61,0.057157,386598,338924
1071.29,0.055432,387377,340959
1074.96,0.055804,388536,341686
1078.63,0.055215,389855,343311
1082.3,0.053758,391215,345667
1085.96,0.053764,393215,347429
1090.84,0.052369,396270,351255
1094.49,0.051857,398760,353879
1098.14,0.051887,400987,355831
1101.79,0.051579,403477,358294
1105.43,0.051533,406116,360676
1109.06,0.051160,407701,362395
1112.7,0.050994,409859,364452
1117.53,0.050360,412494,367331
1121.15,0.052092,414909,368011
1124.77,0.052144,416559,369430
1128.38,0.053931,418532,369656
1131.99,0.055576,419956,369511
1135.6,0.058564,421946,368717
1139.2,0.059544,423881,369573
1143.99,0.062887,426786,369252
1147.58,0.063686,428617,370155
1151.17,0.065719,431169,370620
1154.75,0.067188,433579,371433
1158.33,0.068300,436264,372777
1161.91,0.070650,439132,373203
1165.48,0.074095,442389,373000
1169.04,0.076910,446101,373700
1173.79,0.081393,451929,374694
1177.34,0.083716,456026,376074
1180.9,0.086526,461306,377975
1184.44,0.088394,467657,381534
1187.99,0.089028,473969,386120
1191.52,0.088669,479856,391239
1195.06,0.088063,487372,397922
1199.76,0.086559,497347,407475
1203.29,0.085307,504311,414373
1206.81,0.083976,511507,421576
1210.33,0.082575,519078,429198
1213.84,0.082021,527163,436439
1217.35,0.080829,534208,443488
1220.85,0.079834,540472,449717
1225.51,0.078087,549929,459430
1229.01,0.077424,556888,465955
1232.5,0.076828,562180,471029
1235.98,0.076170,567975,476606
1239.46,0.074646,574815,484041
1242.94,0.073732,582782,491784
1246.41,0.072393,591476,500661
1251.03,0.072156,604016,511555
1254.5,0.072439,612289,518224
1257.96,0.072928,619125,523420
1261.41,0.073118,624551,527776
1264.86,0.074114,629900,531077
1268.31,0.074380,634345,534497
1271.75,0.075156,638574,537100
1276.33,0.075658,642499,539777
1279.76,0.075348,645905,543026
1283.19,0.074987,648307,545499
1286.61,0.074242,650446,548238
1290.03,0.074213,652132,549696
1293.44,0.073759,653907,551769
1296.85,0.073546,655963,553775
1301.39,0.073530,657349,554965
1304.8,0.073373,657558,555343
1308.19,0.073648,658515,555799
1311.58,0.073628,658804,556068
1314.97,0.074288,659011,555398
1318.36,0.074614,658272,554359
1321.73,0.075278,658022,553302
1326.23,0.076599,657870,551495
1329.6,0.077329,656482,549406
1332.97,0.079124,654926,545843
1336.33,0.080085,653727,543640
1339.69,0.082454,652497,539665
1343.04,0.084440,649913,535076
1346.39,0.086571,647671,530620
1349.73,0.089166,645338,525559
1354.18,0.092426,641175,518264
1357.52,0.095302,638376,512595
1360.85,0.097540,635805,507907
1364.17,0.099781,633413,503392
1367.49,0.102782,631026,498041
1370.81,0.105817,628050,492240
1374.12,0.108299,625034,487085
1378.54,0.111998,620272,479274
1381.84,0.116194,616892,472080
1385.14,0.120760,613613,464659
1388.43,0.126567,611526,456928
1391.72,0.132248,610663,450354
1395.01,0.138213,610634,444189
1398.29,0.144611,611700,438457
1402.66,0.153244,614051,431480
1405.93,0.160603,616268,425762
1409.2,0.167009,617795,420567
1412.46,0.173139,618872,415396
1415.72,0.178311,619795,411090
1418.98,0.183388,620495,406771
1422.23,0.187789,621087,403054
1426.56,0.192603,621375,398796
1429.8,0.195877,621616,395954
1433.04,0.198507,622129,393889
1436.27,0.201109,621526,391156
1439.5,0.203457,621113,388789
1442.72,0.206593,620921,385872
1445.94,0.208502,620270,383777
1450.23,0.212185,618860,379671
1453.44,0.215158,617697,376372
1456.64,0.218273,616264,372815
1459.85,0.221142,614413,369248
1463.04,0.223335,612307,366129
1466.24,0.226589,610032,362046
1469.43,0.229761,607345,357828
1473.67,0.234712,603789,351701
1476.85,0.239083,601175,346671
1480.02,0.245133,597737,339920
1483.19,0.250853,594479,333644
1486.36,0.256846,591232,327274
1489.52,0.261630,587853,321839
1492.68,0.265070,583875,317139
1496.89,0.268422,578062,311568
1500.03,0.269152,574159,308944
1503.18,0.269136,570285,306871
1506.32,0.268370,565444,304803
1509.45,0.267148,560571,303028
1512.58,0.265969,555821,301277
1515.71,0.263743,550344,299841
1519.87,0.261223,543983,298100
1522.99,0.257983,538764,297451
1526.1,0.255804,533692,296133
1529.21,0.252618,527902,295077
1532.32,0.249409,521886,293878
1535.42,0.245532,515888,293105
1538.51,0.242459,509987,291810
1541.6,0.238995,503936,290657
1545.72,0.234619,494694,288216
1548.8,0.231436,488378,286629
1551.88,0.228601,481832,284639
1554.95,0.225736,474989,282454
1558.02,0.223366,467818,279712
1561.08,0.222184,460730,276225
1564.15,0.221825,454170,272517
1568.22,0.221290,444181,266852
1571.27,0.219770,436947,263426
1574.32,0.218595,429598,259697
1577.36,0.217588,422039,255720
1580.4,0.215872,414375,252070
1583.43,0.213269,406354,248677
1586.46,0.211281,398475,244974
1590.49,0.208692,388982,240568
1593.51,0.206979,380708,236381
1596.53,0.204944,372727,232513
1599.54,0.202299,365060,229121
1602.55,0.199326,357543,225945
1605.55,0.197777,349495,221648
1608.55,0.195481,341154,217505
1612.54,0.192553,330877,212380
1615.53,0.189853,322904,208555
1618.51,0.188813,315116,204013
1621.49,0.187677,307217,199420
1624.47,0.185503,299481,195374
1627.44,0.184057,292112,191202
1630.41,0.183368,284245,186348
1634.36,0.181163,274079,180598
1637.32,0.180679,266916,176074
1640.27,0.180190,259612,171449
1643.22,0.178992,251804,166752
1646.16,0.176253,244348,162838
1649.1,0.176386,236703,157695
1652.04,0.175484,228171,152327
1655.95,0.175129,215408,143924
1658.88,0.172396,204937,137792
1661.8,0.172525,193395,129993
1664.72,0.169718,179728,121590
1667.63,0.165224,163642,111859
1670.54,0.161040,146312,100981
1673.44,0.158319,128451,89211
1677.31,0.156333,105080,73314
1680.21,0.156708,88906,61976
1683.1,0.160127,75033,51895
1685.99,0.161506,63520,43793
1688.87,0.171403,53714,36198
1691.75,0.179031,45653,30230
1694.62,0.171741,39137,26354
1697.49,0.182138,33776,22206
1701.31,0.177883,28175,18706