File: samples/wool/wool-000811/Column 1_050552_20150331_120056.csv
Method:,Column 1,,
Host Date-Time:,31/3/15 @ 12:0:56,,
Header Version:,1,,
System Temp (C):,33.35,,
Detector Temp (C):,32.35,,
Humidity (%):,2.93,,
Lamp PD:,3820,,
Shift Vector Coefficients:,-10.5391,0.0761263,-0.000134223,,
Pixel to Wavelength Coefficients:,1775.68,-0.916766,-0.000235065,,
Serial Number:,5510004,,
Scan Config Name:,Column 1,,
Scan Config Type:,Slew,,
Section 1,,
Start wavelength (nm):,900,,
End wavelength (nm):,1700,,
Pattern Pixel Width (nm):,   7.03,,,,
Exposure (ms):,  0.635,,,,
Digital Resolution:,228,,
Num Repeats:,6,,
PGA Gain:,64,,
Total Measurement Time in sec:,  2.671,,
Wavelength (nm),Absorbance (AU),Reference Signal (unitless),Sample Signal (unitless)
901.51,0.035040,108485,100076
905.376,0.040363,121306,110540
909.237,0.042017,131909,119745
913.095,0.042507,143299,129938
916.948,0.043378,156982,142060
922.079,0.044232,179937,162513
925.923,0.044879,200504,180819
929.762,0.046547,222660,200030
933.597,0.046570,244426,219572
937.427,0.046335,263972,237259
941.254,0.045471,281845,253828
945.076,0.045619,297271,267629
950.165,0.045712,315605,284074
953.978,0.045718,328029,295253
957.786,0.045528,340470,306585
961.59,0.046495,352317,316547
965.389,0.046560,363056,326147
969.185,0.046257,373162,335460
972.976,0.047053,382632,343343
976.763,0.047542,391202,350638
981.806,0.048360,400190,358019
985.583,0.049135,406088,362648
989.355,0.049791,410162,365733
993.124,0.049828,412868,368115
996.888,0.050667,414263,368646
1000.65,0.051454,415476,369056
1004.4,0.053190,415479,367586
1009.41,0.053916,414358,365982
1013.15,0.054229,412923,364452
1016.89,0.054731,411526,362799
1020.63,0.054770,409066,360598
1024.36,0.055005,406777,358386
1028.09,0.054464,404427,356760
1031.82,0.054301,401911,354674
1036.78,0.054574,398410,351363
1040.49,0.053898,396204,349962
1044.2,0.053409,394236,348616
1047.91,0.052815,392042,347150
1051.61,0.052504,389823,345433
1055.31,0.051875,388234,344523
1059,0.051550,387599,344217
1063.92,0.049987,386688,344646
1067.61,0.049791,386598,344722
1071.29,0.049336,387377,345778
1074.96,0.048715,388536,347309
1078.63,0.048085,389855,348994
1082.3,0.047490,391215,350692
1085.96,0.047021,393215,352865
1090.84,0.045952,396270,356483
1094.49,0.046110,398760,358593
1098.14,0.045339,400987,361236
1101.79,0.044820,403477,363914
1105.43,0.044520,406116,366547
1109.06,0.044966,407701,367600
1112.7,0.044381,409859,370044
1117.53,0.044157,412494,372615
1121.15,0.045929,414909,373271
1124.77,0.045913,416559,374769
1128.38,0.046881,418532,375706
1131.99,0.048296,419956,375758
1135.6,0.050051,421946,376016
1139.2,0.051793,423881,376228
1143.99,0.054558,426786,376402
1147.58,0.055681,428617,377041
1151.17,0.057049,431169,378093
1154.75,0.058692,433579,378771
1158.33,0.060174,436264,379818
1161.91,0.062625,439132,380163
1165.48,0.065399,442389,380544
1169.04,0.067130,446101,382211
1173.79,0.071354,451929,383457
1177.34,0.073883,456026,384686
1180.9,0.075705,461306,387511
1184.44,0.077570,467657,391163
1187.99,0.078731,473969,395384
1191.52,0.077965,479856,401001
1195.06,0.078269,487372,406997
1199.76,0.076823,497347,416712
1203.29,0.076211,504311,423143
1206.81,0.075248,511507,430134
1210.33,0.074685,519078,437067
1213.84,0.073725,527163,444856
1217.35,0.073129,534208,451421
1220.85,0.072321,540472,457564
1225.51,0.070953,549929,467040
1229.01,0.070226,556888,473742
1232.5,0.069650,562180,478879
1235.98,0.069097,567975,484431
1239.46,0.068340,574815,491120
1242.94,0.067137,582782,499309
1246.41,0.066490,591476,507513
1251.03,0.066266,604016,518540
1254.5,0.066870,612289,524912
1257.96,0.067146,619125,530435
1261.41,0.067434,624551,534729
1264.86,0.068276,629900,538264
1268.31,0.068722,634345,541506
1271.75,0.069771,638574,543801
1276.33,0.069871,642499,547018
1279.76,0.069923,645905,549852
1283.19,0.069348,648307,552628
1286.61,0.069036,650446,554850
1290.03,0.068714,652132,556700
1293.44,0.068186,653907,558895
1296.85,0.068112,655963,560747
1301.39,0.068149,657349,561884
1304.8,0.068171,657558,562035
1308.19,0.067844,658515,563277
1311.58,0.068594,658804,562552
1314.97,0.068911,659011,562317
1318.36,0.069658,658272,560722
1321.73,0.069968,658022,560109
1326.23,0.071257,657870,558320
1329.6,0.072261,656482,555855
1332.97,0.073003,654926,553591
1336.33,0.074388,653727,550819
1339.69,0.076217,652497,547471
1343.04,0.078316,649913,542674
1346.39,0.080376,647671,538243
1349.73,0.082392,645338,533821
1354.18,0.086058,641175,525919
1357.52,0.087822,638376,521500
1360.85,0.090396,635805,516331
1364.17,0.092703,633413,511663
1367.49,0.095235,631026,506772
1370.81,0.097219,628050,502083
1374.12,0.099942,625034,496548
1378.54,0.103619,620272,488611
1381.84,0.107511,616892,481613
1385.14,0.111665,613613,474493
1388.43,0.116465,611526,467681
1391.72,0.121876,610663,461239
1395.01,0.126796,610634,456021
1398.29,0.132849,611700,450494
1402.66,0.140576,614051,444251
1405.93,0.146958,616268,439351
1409.2,0.153531,617795,433824
1412.46,0.159330,618872,428816
1415.72,0.164195,619795,424671
1418.98,0.168487,620495,420970
1422.23,0.172808,621087,417200
1426.56,0.177646,621375,412770
1429.8,0.180503,621616,410222
1433.04,0.183455,622129,407780
1436.27,0.185794,621526,405196
1439.5,0.188678,621113,402247
1442.72,0.190802,620921,400161
1445.94,0.193577,620270,397195
1450.23,0.196781,618860,393379
1453.44,0.199477,617697,390210
1456.64,0.202612,616264,386505
1459.85,0.205297,614413,382969
1463.04,0.207776,612307,379484
1466.24,0.210596,610032,375627
1469.43,0.213940,607345,371104
1473.67,0.219515,603789,364225
1476.85,0.224872,601175,358203
1480.02,0.230104,597737,351889
1483.19,0.236151,594479,345132
1486.36,0.241956,591232,338690
1489.52,0.246474,587853,333269
1492.68,0.249729,583875,328542
1496.89,0.251884,578062,323661
1500.03,0.252834,574159,320773
1503.18,0.253077,570285,318431
1506.32,0.252409,565444,316214
1509.45,0.250152,560571,315122
1512.58,0.248474,555821,313661
1515.71,0.246846,550344,311737
1519.87,0.243174,543983,310750
1522.99,0.241286,538764,309110
1526.1,0.237993,533692,308530
1529.21,0.235760,527902,306756
1532.32,0.232192,521886,305762
1535.42,0.229085,515888,304418
1538.51,0.226287,509987,302881
1541.6,0.222977,503936,301577
1545.72,0.218745,494694,298945
1548.8,0.215697,488378,297207
1551.88,0.213143,481832,294953
1554.95,0.211148,474989,292103
1558.02,0.208781,467818,289265
1561.08,0.207091,460730,285993
1564.15,0.206789,454170,282117
1568.22,0.205159,444181,276950
1571.27,0.204591,436947,272796
1574.32,0.203502,429598,268881
1577.36,0.202259,422039,264907
1580.4,0.200899,414375,260912
1583.43,0.198656,406354,257187
1586.46,0.197018,398475,253153
1590.49,0.194488,388982,248566
1593.51,0.192820,380708,244215
1596.53,0.190489,372727,240382
1599.54,0.188338,365060,236606
1602.55,0.186148,357543,232906
1605.55,0.184131,349495,228723
1608.55,0.181746,341154,224494
1612.54,0.179850,330877,218684
1615.53,0.176397,322904,215118
1618.51,0.175526,315116,210351
1621.49,0.175228,307217,205219
1624.47,0.173288,299481,200947
1627.44,0.171862,292112,196647
1630.41,0.171270,284245,191612
1634.36,0.169965,274079,185315
1637.32,0.169063,266916,180847
1640.27,0.167644,259612,176474
1643.22,0.166452,251804,171637
1646.16,0.165240,244348,167020
1649.1,0.164716,236703,161990
1652.04,0.163252,228171,156678
1655.95,0.161974,215408,148350
1658.88,0.160496,204937,141620
1661.8,0.157252,193395,134646
1664.72,0.151678,179728,126747
1667.63,0.142480,163642,117873
1670.54,0.134130,146312,107436
1673.44,0.122571,128451,96865
1677.31,0.111098,105080,81362
1680.21,0.108292,88906,69285
1683.1,0.108393,75033,58460
1685.99,0.114829,63520,48762
1688.87,0.119268,53714,40815
1691.75,0.118977,45653,34713
1694.62,0.125424,39137,29320
1697.49,0.128675,33776,25115
1701.31,0.139213,28175,20448