File: samples/wool/wool-000811/Column 1_050554_20150331_120157.csv
Method:,Column 1,,
Host Date-Time:,31/3/15 @ 12:1:57,,
Header Version:,1,,
System Temp (C):,33.44,,
Detector Temp (C):,32.5,,
Humidity (%):,2.44,,
Lamp PD:,3820,,
Shift Vector Coefficients:,-10.5391,0.0761263,-0.000134223,,
Pixel to Wavelength Coefficients:,1775.68,-0.916766,-0.000235065,,
Serial Number:,5510004,,
Scan Config Name:,Column 1,,
Scan Config Type:,Slew,,
Section 1,,
Start wavelength (nm):,900,,
End wavelength (nm):,1700,,
Pattern Pixel Width (nm):,   7.03,,,,
Exposure (ms):,  0.635,,,,
Digital Resolution:,228,,
Num Repeats:,6,,
PGA Gain:,64,,
Total Measurement Time in sec:,  2.735,,
Wavelength (nm),Absorbance (AU),Reference Signal (unitless),Sample Signal (unitless)
901.51,0.034506,108485,100199
905.376,0.039362,121306,110795
909.237,0.042965,131909,119484
913.095,0.043806,143299,129550
916.948,0.043274,156982,142094
922.079,0.044251,179937,162506
925.923,0.044692,200504,180897
929.762,0.046660,222660,199978
933.597,0.046826,244426,219443
937.427,0.046824,263972,236992
941.254,0.046385,281845,253294
945.076,0.046123,297271,267319
950.165,0.045095,315605,284478
953.978,0.045558,328029,295362
957.786,0.045665,340470,306488
961.59,0.046161,352317,316791
965.389,0.046213,363056,326408
969.185,0.046473,373162,335293
972.976,0.047038,382632,343355
976.763,0.048120,391202,350172
981.806,0.048226,400190,358130
985.583,0.048630,406088,363070
989.355,0.049728,410162,365786
993.124,0.049842,412868,368103
996.888,0.050709,414263,368610
1000.65,0.051323,415476,369167
1004.4,0.052835,415479,367887
1009.41,0.054074,414358,365849
1013.15,0.054299,412923,364393
1016.89,0.055004,411526,362571
1020.63,0.054787,409066,360584
1024.36,0.055302,406777,358141
1028.09,0.055063,404427,356268
1031.82,0.054226,401911,354735
1036.78,0.053891,398410,351916
1040.49,0.053546,396204,350246
1044.2,0.053423,394236,348605
1047.91,0.052767,392042,347189
1051.61,0.052511,389823,345427
1055.31,0.052414,388234,344096
1059,0.051593,387599,344183
1063.92,0.049821,386688,344778
1067.61,0.049681,386598,344809
1071.29,0.048996,387377,346049
1074.96,0.049266,388536,346869
1078.63,0.047862,389855,349173
1082.3,0.047159,391215,350959
1085.96,0.046271,393215,353475
1090.84,0.045805,396270,356604
1094.49,0.045595,398760,359018
1098.14,0.045678,400987,360954
1101.79,0.045068,403477,363706
1105.43,0.044829,406116,366287
1109.06,0.044068,407701,368361
1112.7,0.044150,409859,370241
1117.53,0.044214,412494,372566
1121.15,0.044927,414909,374133
1124.77,0.046225,416559,374500
1128.38,0.046959,418532,375638
1131.99,0.048991,419956,375157
1135.6,0.050758,421946,375404
1139.2,0.051900,423881,376135
1143.99,0.054968,426786,376047
1147.58,0.055495,428617,377202
1151.17,0.057080,431169,378066
1154.75,0.058125,433579,379265
1158.33,0.059785,436264,380158
1161.91,0.061627,439132,381038
1165.48,0.064834,442389,381040
1169.04,0.067338,446101,382028
1173.79,0.071020,451929,383752
1177.34,0.073247,456026,385250
1180.9,0.075451,461306,387738
1184.44,0.077059,467657,391623
1187.99,0.078411,473969,395675
1191.52,0.077764,479856,401187
1195.06,0.077785,487372,407451
1199.76,0.076441,497347,417079
1203.29,0.075701,504311,423640
1206.81,0.074898,511507,430481
1210.33,0.074022,519078,437734
1213.84,0.073475,527163,445113
1217.35,0.072585,534208,451986
1220.85,0.071787,540472,458127
1225.51,0.070885,549929,467113
1229.01,0.070464,556888,473482
1232.5,0.069437,562180,479113
1235.98,0.068915,567975,484634
1239.46,0.068164,574815,491320
1242.94,0.066991,582782,499477
1246.41,0.066425,591476,507589
1251.03,0.066258,604016,518550
1254.5,0.066289,612289,525615
1257.96,0.066773,619125,530891
1261.41,0.067389,624551,534785
1264.86,0.067991,629900,538618
1268.31,0.068578,634345,541686
1271.75,0.069193,638574,544525
1276.33,0.070036,642499,546810
1279.76,0.069939,645905,549831
1283.19,0.069338,648307,552640
1286.61,0.069046,650446,554837
1290.03,0.068504,652132,556970
1293.44,0.067978,653907,559162
1296.85,0.068063,655963,560811
1301.39,0.067698,657349,562468
1304.8,0.067879,657558,562413
1308.19,0.067843,658515,563278
1311.58,0.067680,658804,563736
1314.97,0.068425,659011,562947
1318.36,0.069198,658272,561316
1321.73,0.069572,658022,560620
1326.23,0.070439,657870,559372
1329.6,0.071510,656482,556817
1332.97,0.072722,654926,553950
1336.33,0.074198,653727,551059
1339.69,0.076060,652497,547669
1343.04,0.077823,649913,543291
1346.39,0.079780,647671,538982
1349.73,0.082156,645338,534111
1354.18,0.085446,641175,526660
1357.52,0.087611,638376,521754
1360.85,0.090263,635805,516489
1364.17,0.092195,633413,512262
1367.49,0.094614,631026,507497
1370.81,0.097452,628050,501813
1374.12,0.099725,625034,496797
1378.54,0.103498,620272,488747
1381.84,0.107039,616892,482137
1385.14,0.110967,613613,475256
1388.43,0.115444,611526,468782
1391.72,0.120462,610663,462743
1395.01,0.125563,610634,457318
1398.29,0.132049,611700,451325
1402.66,0.140108,614051,444730
1405.93,0.146362,616268,439954
1409.2,0.152301,617795,435054
1412.46,0.157252,618872,430873
1415.72,0.161996,619795,426827
1418.98,0.166883,620495,422528
1422.23,0.170841,621087,419094
1426.56,0.174962,621375,415329
1429.8,0.178201,621616,412402
1433.04,0.181263,622129,409843
1436.27,0.183713,621526,407142
1439.5,0.185932,621113,404798
1442.72,0.188392,620921,402387
1445.94,0.190470,620270,400047
1450.23,0.194495,618860,395455
1453.44,0.197558,617697,391938
1456.64,0.200256,616264,388607
1459.85,0.202927,614413,385064
1463.04,0.205620,612307,381372
1466.24,0.208535,610032,377414
1469.43,0.212247,607345,372553
1473.67,0.217693,603789,365757
1476.85,0.222526,601175,360143
1480.02,0.228309,597737,353347
1483.19,0.235093,594479,345974
1486.36,0.240946,591232,339478
1489.52,0.245429,587853,334072
1492.68,0.248838,583875,329217
1496.89,0.250817,578062,324457
1500.03,0.250912,574159,322196
1503.18,0.250840,570285,320075
1506.32,0.250617,565444,317521
1509.45,0.249667,560571,315474
1512.58,0.247685,555821,314232
1515.71,0.245415,550344,312766
1519.87,0.242253,543983,311410
1522.99,0.239699,538764,310241
1526.1,0.237055,533692,309197
1529.21,0.233716,527902,308203
1532.32,0.230466,521886,306980
1535.42,0.227911,515888,305242
1538.51,0.224580,509987,304074
1541.6,0.222078,503936,302202
1545.72,0.217518,494694,299791
1548.8,0.214001,488378,298370
1551.88,0.212024,481832,295714
1554.95,0.209278,474989,293363
1558.02,0.207342,467818,290225
1561.08,0.207038,460730,286028
1564.15,0.205269,454170,283106
1568.22,0.204238,444181,277538
1571.27,0.203390,436947,273551
1574.32,0.201694,429598,270003
1577.36,0.200655,422039,265887
1580.4,0.198907,414375,262112
1583.43,0.197859,406354,257659
1586.46,0.195272,398475,254173
1590.49,0.194318,388982,248663
1593.51,0.191472,380708,244974
1596.53,0.189032,372727,241190
1599.54,0.186587,365060,237562
1602.55,0.184508,357543,233787
1605.55,0.182745,349495,229454
1608.55,0.180648,341154,225062
1612.54,0.178284,330877,219474
1615.53,0.176859,322904,214889
1618.51,0.174721,315116,210741
1621.49,0.173570,307217,206004
1624.47,0.172105,299481,201495
1627.44,0.171849,292112,196653
1630.41,0.169829,284245,192249
1634.36,0.168963,274079,185743
1637.32,0.167108,266916,181663
1640.27,0.166172,259612,177073
1643.22,0.165504,251804,172012
1646.16,0.165568,244348,166894
1649.1,0.164332,236703,162133
1652.04,0.163352,228171,156642
1655.95,0.161734,215408,148432
1658.88,0.157641,204937,142554
1661.8,0.154326,193395,135556
1664.72,0.150296,179728,127151
1667.63,0.140001,163642,118548
1670.54,0.131410,146312,108111
1673.44,0.121769,128451,97044
1677.31,0.109883,105080,81590
1680.21,0.104218,88906,69938
1683.1,0.103121,75033,59174
1685.99,0.105603,63520,49809
1688.87,0.112060,53714,41498
1691.75,0.116943,45653,34876
1694.62,0.126803,39137,29227
1697.49,0.133422,33776,24842
1701.31,0.129780,28175,20897