File: samples/wool/wool-000811/Column 1_050555_20150331_120211.csv
Method:,Column 1,,
Host Date-Time:,31/3/15 @ 12:2:11,,
Header Version:,1,,
System Temp (C):,33.48,,
Detector Temp (C):,32.57,,
Humidity (%):,2.44,,
Lamp PD:,3820,,
Shift Vector Coefficients:,-10.5391,0.0761263,-0.000134223,,
Pixel to Wavelength Coefficients:,1775.68,-0.916766,-0.000235065,,
Serial Number:,5510004,,
Scan Config Name:,Column 1,,
Scan Config Type:,Slew,,
Section 1,,
Start wavelength (nm):,900,,
End wavelength (nm):,1700,,
Pattern Pixel Width (nm):,   7.03,,,,
Exposure (ms):,  0.635,,,,
Digital Resolution:,228,,
Num Repeats:,6,,
PGA Gain:,64,,
Total Measurement Time in sec:,  2.675,,
Wavelength (nm),Absorbance (AU),Reference Signal (unitless),Sample Signal (unitless)
901.51,0.033930,108485,100332
905.376,0.039021,121306,110882
909.237,0.041173,131909,119978
913.095,0.042708,143299,129878
916.948,0.043082,156982,142157
922.079,0.043866,179937,162650
925.923,0.044946,200504,180791
929.762,0.045968,222660,200297
933.597,0.046205,244426,219757
937.427,0.045229,263972,237864
941.254,0.046569,281845,253187
945.076,0.045400,297271,267764
950.165,0.046444,315605,283596
953.978,0.045293,328029,295542
957.786,0.045612,340470,306526
961.59,0.046170,352317,316784
965.389,0.046213,363056,326408
969.185,0.046847,373162,335004
972.976,0.046918,382632,343450
976.763,0.047495,391202,350676
981.806,0.048028,400190,358293
985.583,0.048942,406088,362809
989.355,0.049557,410162,365930
993.124,0.050149,412868,367843
996.888,0.050478,414263,368806
1000.65,0.051104,415476,369353
1004.4,0.052398,415479,368257
1009.41,0.054126,414358,365805
1013.15,0.054422,412923,364290
1016.89,0.054886,411526,362670
1020.63,0.054695,409066,360660
1024.36,0.054701,406777,358637
1028.09,0.055384,404427,356005
1031.82,0.054538,401911,354480
1036.78,0.053876,398410,351928
1040.49,0.053691,396204,350129
1044.2,0.053344,394236,348668
1047.91,0.053167,392042,346869
1051.61,0.052785,389823,345209
1055.31,0.051959,388234,344457
1059,0.051482,387599,344271
1063.92,0.050655,386688,344117
1067.61,0.049647,386598,344836
1071.29,0.049290,387377,345815
1074.96,0.048834,388536,347214
1078.63,0.047657,389855,349338
1082.3,0.046652,391215,351369
1085.96,0.046469,393215,353314
1090.84,0.046001,396270,356443
1094.49,0.045607,398760,359008
1098.14,0.045164,400987,361382
1101.79,0.044664,403477,364045
1105.43,0.045016,406116,366129
1109.06,0.044082,407701,368349
1112.7,0.043914,409859,370442
1117.53,0.044357,412494,372444
1121.15,0.045182,414909,373913
1124.77,0.045350,416559,375255
1128.38,0.047060,418532,375551
1131.99,0.048454,419956,375621
1135.6,0.049656,421946,376358
1139.2,0.052663,423881,375475
1143.99,0.054654,426786,376319
1147.58,0.055712,428617,377014
1151.17,0.057071,431169,378074
1154.75,0.058108,433579,379280
1158.33,0.059837,436264,380113
1161.91,0.061873,439132,380822
1165.48,0.064642,442389,381208
1169.04,0.067147,446101,382196
1173.79,0.071020,451929,383752
1177.34,0.073016,456026,385455
1180.9,0.075410,461306,387774
1184.44,0.077581,467657,391153
1187.99,0.078159,473969,395905
1191.52,0.077974,479856,400993
1195.06,0.077352,487372,407858
1199.76,0.077027,497347,416517
1203.29,0.075795,504311,423549
1206.81,0.074758,511507,430619
1210.33,0.073918,519078,437839
1213.84,0.073583,527163,445002
1217.35,0.072809,534208,451753
1220.85,0.071702,540472,458217
1225.51,0.070895,549929,467102
1229.01,0.070526,556888,473415
1232.5,0.069826,562180,478685
1235.98,0.069004,567975,484535
1239.46,0.068330,574815,491132
1242.94,0.067164,582782,499278
1246.41,0.066542,591476,507452
1251.03,0.066426,604016,518349
1254.5,0.066200,612289,525722
1257.96,0.066969,619125,530651
1261.41,0.067346,624551,534837
1264.86,0.068057,629900,538536
1268.31,0.068688,634345,541549
1271.75,0.069381,638574,544290
1276.33,0.069523,642499,547456
1279.76,0.069292,645905,550651
1283.19,0.068860,648307,553249
1286.61,0.068765,650446,555196
1290.03,0.068456,652132,557031
1293.44,0.067908,653907,559252
1296.85,0.067807,655963,561142
1301.39,0.067515,657349,562705
1304.8,0.067877,657558,562415
1308.19,0.067955,658515,563132
1311.58,0.067940,658804,563399
1314.97,0.068199,659011,563240
1318.36,0.069054,658272,561502
1321.73,0.069494,658022,560720
1326.23,0.070187,657870,559697
1329.6,0.071805,656482,556439
1332.97,0.072773,654926,553884
1336.33,0.073660,653727,551743
1339.69,0.075686,652497,548141
1343.04,0.077569,649913,543609
1346.39,0.079607,647671,539197
1349.73,0.081939,645338,534378
1354.18,0.085112,641175,527065
1357.52,0.087736,638376,521604
1360.85,0.089657,635805,517210
1364.17,0.092373,633413,512052
1367.49,0.094567,631026,507552
1370.81,0.097018,628050,502315
1374.12,0.099725,625034,496797
1378.54,0.103343,620272,488921
1381.84,0.106217,616892,483050
1385.14,0.110928,613613,475299
1388.43,0.115438,611526,468788
1391.72,0.120986,610663,462185
1395.01,0.125982,610634,456877
1398.29,0.131677,611700,451712
1402.66,0.139444,614051,445411
1405.93,0.145617,616268,440710
1409.2,0.151798,617795,435558
1412.46,0.156814,618872,431307
1415.72,0.161885,619795,426936
1418.98,0.166173,620495,423219
1422.23,0.170349,621087,419569
1426.56,0.174813,621375,415471
1429.8,0.178264,621616,412343
1433.04,0.180255,622129,410795
1436.27,0.182946,621526,407862
1439.5,0.185261,621113,405424
1442.72,0.188487,620921,402299
1445.94,0.190394,620270,400117
1450.23,0.194267,618860,395663
1453.44,0.196758,617697,392661
1456.64,0.199949,616264,388882
1459.85,0.202871,614413,385114
1463.04,0.205265,612307,381684
1466.24,0.208391,610032,377539
1469.43,0.211460,607345,373229
1473.67,0.216690,603789,366602
1476.85,0.222919,601175,359817
1480.02,0.228284,597737,353367
1483.19,0.234191,594479,346693
1486.36,0.239594,591232,340537
1489.52,0.244552,587853,334747
1492.68,0.248443,583875,329516
1496.89,0.250674,578062,324564
1500.03,0.251009,574159,322124
1503.18,0.251370,570285,319685
1506.32,0.250424,565444,317662
1509.45,0.248773,560571,316124
1512.58,0.247544,555821,314334
1515.71,0.245173,550344,312940
1519.87,0.242497,543983,311235
1522.99,0.239105,538764,310666
1526.1,0.236971,533692,309257
1529.21,0.233687,527902,308224
1532.32,0.230743,521886,306784
1535.42,0.227372,515888,305621
1538.51,0.224124,509987,304393
1541.6,0.221187,503936,302823
1545.72,0.217520,494694,299790
1548.8,0.214365,488378,298120
1551.88,0.210704,481832,296614
1554.95,0.209380,474989,293294
1558.02,0.207044,467818,290424
1561.08,0.206098,460730,286648
1564.15,0.205906,454170,282691
1568.22,0.203364,444181,278097
1571.27,0.202642,436947,274023
1574.32,0.202558,429598,269466
1577.36,0.200860,422039,265762
1580.4,0.198693,414375,262241
1583.43,0.197964,406354,257597
1586.46,0.194858,398475,254415
1590.49,0.193317,388982,249237
1593.51,0.191676,380708,244859
1596.53,0.188517,372727,241476
1599.54,0.187262,365060,237193
1602.55,0.183947,357543,234089
1605.55,0.182679,349495,229489
1608.55,0.180054,341154,225370
1612.54,0.178143,330877,219545
1615.53,0.175685,322904,215471
1618.51,0.174369,315116,210912
1621.49,0.173511,307217,206032
1624.47,0.172114,299481,201491
1627.44,0.171154,292112,196968
1630.41,0.169709,284245,192302
1634.36,0.167810,274079,186237
1637.32,0.167510,266916,181495
1640.27,0.167118,259612,176688
1643.22,0.165509,251804,172010
1646.16,0.164277,244348,167391
1649.1,0.164255,236703,162162
1652.04,0.162546,228171,156933
1655.95,0.162080,215408,148314
1658.88,0.158440,204937,142292
1661.8,0.154878,193395,135384
1664.72,0.147810,179728,127881
1667.63,0.140653,163642,118370
1670.54,0.129914,146312,108484
1673.44,0.121241,128451,97162
1677.31,0.110176,105080,81535
1680.21,0.102643,88906,70192
1683.1,0.101788,75033,59356
1685.99,0.107657,63520,49574
1688.87,0.110754,53714,41623
1691.75,0.114633,45653,35062
1694.62,0.118153,39137,29815
1697.49,0.126760,33776,25226
1701.31,0.134965,28175,20649