File: samples/wool/wool-000811/Column 1_050565_20150331_120713.csv
Method:,Column 1,,
Host Date-Time:,31/3/15 @ 12:7:13,,
Header Version:,1,,
System Temp (C):,33.91,,
Detector Temp (C):,33.76,,
Humidity (%):,1.86,,
Lamp PD:,3818,,
Shift Vector Coefficients:,-10.5391,0.0761263,-0.000134223,,
Pixel to Wavelength Coefficients:,1775.68,-0.916766,-0.000235065,,
Serial Number:,5510004,,
Scan Config Name:,Column 1,,
Scan Config Type:,Slew,,
Section 1,,
Start wavelength (nm):,900,,
End wavelength (nm):,1700,,
Pattern Pixel Width (nm):,   7.03,,,,
Exposure (ms):,  0.635,,,,
Digital Resolution:,228,,
Num Repeats:,6,,
PGA Gain:,64,,
Total Measurement Time in sec:,  2.666,,
Wavelength (nm),Absorbance (AU),Reference Signal (unitless),Sample Signal (unitless)
901.51,0.033943,108485,100329
905.376,0.040308,121306,110554
909.237,0.043467,131909,119346
913.095,0.042798,143299,129851
916.948,0.045241,156982,141452
922.079,0.044955,179937,162243
925.923,0.047389,200504,179777
929.762,0.048503,222660,199131
933.597,0.049074,244426,218310
937.427,0.047429,263972,236662
941.254,0.047276,281845,252775
945.076,0.046420,297271,267136
950.165,0.046142,315605,283793
953.978,0.045633,328029,295311
957.786,0.046389,340470,305978
961.59,0.046283,352317,316702
965.389,0.046345,363056,326309
969.185,0.046955,373162,334921
972.976,0.047439,382632,343038
976.763,0.047563,391202,350621
981.806,0.048284,400190,358082
985.583,0.048702,406088,363010
989.355,0.049060,410162,366349
993.124,0.050228,412868,367776
996.888,0.050375,414263,368894
1000.65,0.050845,415476,369574
1004.4,0.052700,415479,368001
1009.41,0.053561,414358,366281
1013.15,0.054194,412923,364481
1016.89,0.054695,411526,362829
1020.63,0.054204,409066,361068
1024.36,0.054937,406777,358442
1028.09,0.054818,404427,356469
1031.82,0.054013,401911,354909
1036.78,0.054423,398410,351485
1040.49,0.053047,396204,350648
1044.2,0.053578,394236,348480
1047.91,0.052530,392042,347378
1051.61,0.052866,389823,345145
1055.31,0.051868,388234,344529
1059,0.051374,387599,344357
1063.92,0.050362,386688,344349
1067.61,0.049274,386598,345132
1071.29,0.048749,387377,346246
1074.96,0.048277,388536,347660
1078.63,0.047816,389855,349210
1082.3,0.046854,391215,351206
1085.96,0.045747,393215,353902
1090.84,0.045848,396270,356569
1094.49,0.045574,398760,359036
1098.14,0.045122,400987,361417
1101.79,0.044157,403477,364470
1105.43,0.044301,406116,366732
1109.06,0.043971,407701,368443
1112.7,0.044173,409859,370221
1117.53,0.043698,412494,373009
1121.15,0.044575,414909,374436
1124.77,0.045145,416559,375432
1128.38,0.046266,418532,376238
1131.99,0.047703,419956,376271
1135.6,0.050010,421946,376051
1139.2,0.051515,423881,376469
1143.99,0.054602,426786,376364
1147.58,0.054965,428617,377663
1151.17,0.056305,431169,378741
1154.75,0.057283,433579,380001
1158.33,0.059145,436264,380719
1161.91,0.060577,439132,381960
1165.48,0.063785,442389,381961
1169.04,0.065962,446101,383240
1173.79,0.069607,451929,385002
1177.34,0.072295,456026,386095
1180.9,0.074875,461306,388252
1184.44,0.076761,467657,391892
1187.99,0.077701,473969,396323
1191.52,0.077065,479856,401833
1195.06,0.077094,487372,408100
1199.76,0.076208,497347,417303
1203.29,0.074745,504311,424574
1206.81,0.074111,511507,431261
1210.33,0.072998,519078,438768
1213.84,0.072580,527163,446031
1217.35,0.071945,534208,452653
1220.85,0.071290,540472,458652
1225.51,0.070219,549929,467830
1229.01,0.069539,556888,474492
1232.5,0.069166,562180,479413
1235.98,0.068454,567975,485149
1239.46,0.067207,574815,492403
1242.94,0.066086,582782,500519
1246.41,0.065658,591476,508486
1251.03,0.065770,604016,519133
1254.5,0.065909,612289,526075
1257.96,0.066142,619125,531663
1261.41,0.066824,624551,535481
1264.86,0.067055,629900,539780
1268.31,0.068188,634345,542172
1271.75,0.068628,638574,545234
1276.33,0.069071,642499,548027
1279.76,0.069331,645905,550602
1283.19,0.068283,648307,553985
1286.61,0.068304,650446,555785
1290.03,0.067363,652132,558435
1293.44,0.067400,653907,559907
1296.85,0.066933,655963,562272
1301.39,0.066538,657349,563973
1304.8,0.066834,657558,563767
1308.19,0.067349,658515,563919
1311.58,0.066849,658804,564816
1314.97,0.067570,659011,564057
1318.36,0.068054,658272,562797
1321.73,0.068594,658022,561884
1326.23,0.069173,657870,561006
1329.6,0.070344,656482,558315
1332.97,0.071261,654926,555816
1336.33,0.072806,653727,552829
1339.69,0.074259,652497,549945
1343.04,0.076368,649913,545114
1346.39,0.078323,647671,540793
1349.73,0.080415,645338,536256
1354.18,0.083517,641175,529005
1357.52,0.085938,638376,523767
1360.85,0.087734,635805,519505
1364.17,0.090378,633413,514409
1367.49,0.092872,631026,509537
1370.81,0.094984,628050,504673
1374.12,0.097872,625034,498921
1378.54,0.101298,620272,491229
1381.84,0.104200,616892,485299
1385.14,0.108498,613613,477966
1388.43,0.113125,611526,471292
1391.72,0.117548,610663,465858
1395.01,0.122102,610634,460977
1398.29,0.127663,611700,455906
1402.66,0.134816,614051,450182
1405.93,0.140675,616268,445753
1409.2,0.146031,617795,441381
1412.46,0.151277,618872,436841
1415.72,0.155993,619795,432768
1418.98,0.159805,620495,429470
1422.23,0.163734,621087,426009
1426.56,0.167747,621375,422286
1429.8,0.170669,621616,419617
1433.04,0.173102,622129,417617
1436.27,0.175836,621526,414594
1439.5,0.177826,621113,412425
1442.72,0.180410,620921,409851
1445.94,0.183200,620270,406800
1450.23,0.186736,618860,402584
1453.44,0.189776,617697,399024
1456.64,0.192631,616264,395490
1459.85,0.195486,614413,391719
1463.04,0.198752,612307,387451
1466.24,0.201836,610032,383280
1469.43,0.205714,607345,378200
1473.67,0.212018,603789,370567
1476.85,0.217597,601175,364254
1480.02,0.224017,597737,356856
1483.19,0.230438,594479,349702
1486.36,0.235613,591232,343673
1489.52,0.241084,587853,337431
1492.68,0.244745,583875,332334
1496.89,0.247431,578062,326997
1500.03,0.248044,574159,324331
1503.18,0.249085,570285,321371
1506.32,0.247443,565444,319850
1509.45,0.245686,560571,318379
1512.58,0.243796,555821,317058
1515.71,0.241669,550344,315475
1519.87,0.238434,543983,314160
1522.99,0.235204,538764,313469
1526.1,0.232979,533692,312113
1529.21,0.229829,527902,310974
1532.32,0.226741,521886,309624
1535.42,0.224139,515888,307905
1538.51,0.221146,509987,306488
1541.6,0.218013,503936,305044
1545.72,0.213032,494694,302904
1548.8,0.210376,488378,300871
1551.88,0.207743,481832,298643
1554.95,0.204883,474989,296347
1558.02,0.203844,467818,292572
1561.08,0.202821,460730,288819
1564.15,0.201707,454170,285438
1568.22,0.201063,444181,279574
1571.27,0.199332,436947,276119
1574.32,0.198477,429598,272010
1577.36,0.197151,422039,268041
1580.4,0.195439,414375,264213
1583.43,0.194321,406354,259767
1586.46,0.192810,398475,255618
1590.49,0.189955,388982,251174
1593.51,0.187510,380708,247219
1596.53,0.186119,372727,242813
1599.54,0.183594,365060,239205
1602.55,0.181125,357543,235615
1605.55,0.178832,349495,231531
1608.55,0.177007,341154,226957
1612.54,0.174222,330877,221536
1615.53,0.172484,322904,217065
1618.51,0.171615,315116,212254
1621.49,0.170398,307217,207514
1624.47,0.168918,299481,202979
1627.44,0.168284,292112,198274
1630.41,0.166985,284245,193512
1634.36,0.164717,274079,187568
1637.32,0.163867,266916,183024
1640.27,0.164102,259612,177919
1643.22,0.161958,251804,173422
1646.16,0.161319,244348,168535
1649.1,0.160915,236703,163414
1652.04,0.160131,228171,157808
1655.95,0.156841,215408,150114
1658.88,0.154191,204937,143691
1661.8,0.149104,193395,137196
1664.72,0.142322,179728,129507
1667.63,0.132044,163642,120740
1670.54,0.122740,146312,110291
1673.44,0.109533,128451,99817
1677.31,0.091356,105080,85146
1680.21,0.085032,88906,73097
1683.1,0.081329,75033,62219
1685.99,0.083546,63520,52404
1688.87,0.086961,53714,43967
1691.75,0.091056,45653,37018
1694.62,0.105973,39137,30663
1697.49,0.106823,33776,26411
1701.31,0.116175,28175,21562