File: samples/wool/wool-000811/Column 1_050557_20150331_120308.csv
Method:,Column 1,,
Host Date-Time:,31/3/15 @ 12:3:8,,
Header Version:,1,,
System Temp (C):,33.57,,
Detector Temp (C):,32.83,,
Humidity (%):,2.34,,
Lamp PD:,3819,,
Shift Vector Coefficients:,-10.5391,0.0761263,-0.000134223,,
Pixel to Wavelength Coefficients:,1775.68,-0.916766,-0.000235065,,
Serial Number:,5510004,,
Scan Config Name:,Column 1,,
Scan Config Type:,Slew,,
Section 1,,
Start wavelength (nm):,900,,
End wavelength (nm):,1700,,
Pattern Pixel Width (nm):,   7.03,,,,
Exposure (ms):,  0.635,,,,
Digital Resolution:,228,,
Num Repeats:,6,,
PGA Gain:,64,,
Total Measurement Time in sec:,  2.690,,
Wavelength (nm),Absorbance (AU),Reference Signal (unitless),Sample Signal (unitless)
901.51,0.033199,108485,100501
905.376,0.037867,121306,111177
909.237,0.039947,131909,120317
913.095,0.043481,143299,129647
916.948,0.041246,156982,142759
922.079,0.044144,179937,162546
925.923,0.044238,200504,181086
929.762,0.045404,222660,200557
933.597,0.046446,244426,219635
937.427,0.046063,263972,237408
941.254,0.046315,281845,253335
945.076,0.045592,297271,267646
950.165,0.044985,315605,284550
953.978,0.045889,328029,295137
957.786,0.045596,340470,306537
961.59,0.045848,352317,317019
965.389,0.046657,363056,326074
969.185,0.046529,373162,335250
972.976,0.046866,382632,343491
976.763,0.047501,391202,350671
981.806,0.048186,400190,358163
985.583,0.048887,406088,362855
989.355,0.048794,410162,366574
993.124,0.049626,412868,368286
996.888,0.050177,414263,369062
1000.65,0.050867,415476,369555
1004.4,0.052310,415479,368332
1009.41,0.053389,414358,366426
1013.15,0.054158,412923,364511
1016.89,0.054707,411526,362819
1020.63,0.054774,409066,360595
1024.36,0.055181,406777,358241
1028.09,0.053909,404427,357216
1031.82,0.054233,401911,354729
1036.78,0.052844,398410,352766
1040.49,0.053274,396204,350465
1044.2,0.053495,394236,348547
1047.91,0.052924,392042,347063
1051.61,0.051934,389823,345886
1055.31,0.051426,388234,344880
1059,0.050893,387599,344738
1063.92,0.049890,386688,344723
1067.61,0.049223,386598,345173
1071.29,0.048629,387377,346342
1074.96,0.048293,388536,347647
1078.63,0.047524,389855,349445
1082.3,0.046725,391215,351310
1085.96,0.045817,393215,353845
1090.84,0.045484,396270,356868
1094.49,0.045079,398760,359445
1098.14,0.044921,400987,361584
1101.79,0.044837,403477,363900
1105.43,0.044550,406116,366522
1109.06,0.043640,407701,368724
1112.7,0.043481,409859,370812
1117.53,0.043712,412494,372997
1121.15,0.045123,414909,373964
1124.77,0.045175,416559,375406
1128.38,0.046586,418532,375961
1131.99,0.047840,419956,376152
1135.6,0.049665,421946,376350
1139.2,0.051654,423881,376348
1143.99,0.054366,426786,376569
1147.58,0.054794,428617,377812
1151.17,0.056435,431169,378628
1154.75,0.058010,433579,379366
1158.33,0.059436,436264,380464
1161.91,0.061341,439132,381289
1165.48,0.064206,442389,381591
1169.04,0.066296,446101,382946
1173.79,0.070254,451929,384429
1177.34,0.072878,456026,385577
1180.9,0.074804,461306,388316
1184.44,0.076275,467657,392331
1187.99,0.077560,473969,396451
1191.52,0.077534,479856,401400
1195.06,0.076810,487372,408367
1199.76,0.076076,497347,417430
1203.29,0.075433,504311,423902
1206.81,0.074284,511507,431090
1210.33,0.073335,519078,438427
1213.84,0.072769,527163,445837
1217.35,0.072471,534208,452105
1220.85,0.071113,540472,458839
1225.51,0.070249,549929,467797
1229.01,0.070038,556888,473947
1232.5,0.069153,562180,479427
1235.98,0.069090,567975,484439
1239.46,0.067846,574815,491679
1242.94,0.066901,582782,499580
1246.41,0.066342,591476,507686
1251.03,0.065714,604016,519200
1254.5,0.065779,612289,526232
1257.96,0.066390,619125,531359
1261.41,0.066924,624551,535358
1264.86,0.067333,629900,539434
1268.31,0.068324,634345,542003
1271.75,0.069004,638574,544763
1276.33,0.069031,642499,548077
1279.76,0.069169,645905,550807
1283.19,0.068847,648307,553266
1286.61,0.068414,650446,555645
1290.03,0.068265,652132,557276
1293.44,0.067412,653907,559892
1296.85,0.067695,655963,561286
1301.39,0.067142,657349,563189
1304.8,0.066968,657558,563594
1308.19,0.067407,658515,563843
1311.58,0.067839,658804,563530
1314.97,0.068131,659011,563329
1318.36,0.068698,658272,561962
1321.73,0.069315,658022,560951
1326.23,0.070144,657870,559752
1329.6,0.071318,656482,557064
1332.97,0.071921,654926,554972
1336.33,0.073399,653727,552074
1339.69,0.075263,652497,548675
1343.04,0.077330,649913,543908
1346.39,0.078869,647671,540114
1349.73,0.081235,645338,535244
1354.18,0.085048,641175,527143
1357.52,0.086734,638376,522808
1360.85,0.089481,635805,517420
1364.17,0.091447,633413,513145
1367.49,0.094042,631026,508166
1370.81,0.096459,628050,502962
1374.12,0.098805,625034,497850
1378.54,0.102401,620272,489983
1381.84,0.105896,616892,483407
1385.14,0.109918,613613,476405
1388.43,0.114594,611526,469700
1391.72,0.120108,610663,463120
1395.01,0.125192,610634,457709
1398.29,0.130201,611700,453250
1402.66,0.138412,614051,446470
1405.93,0.144754,616268,441586
1409.2,0.149798,617795,437569
1412.46,0.155390,618872,432724
1415.72,0.160102,619795,428693
1418.98,0.164590,620495,424765
1422.23,0.168851,621087,421019
1426.56,0.172928,621375,417278
1429.8,0.175705,621616,414779
1433.04,0.178870,622129,412107
1436.27,0.181339,621526,409374
1439.5,0.183691,621113,406892
1442.72,0.186054,620921,404559
1445.94,0.187884,620270,402436
1450.23,0.191798,618860,397919
1453.44,0.195057,617697,394202
1456.64,0.197533,616264,391051
1459.85,0.200684,614413,387058
1463.04,0.203183,612307,383518
1466.24,0.206671,610032,379037
1469.43,0.209901,607345,374571
1473.67,0.215970,603789,367211
1476.85,0.220984,601175,361424
1480.02,0.226527,597737,354800
1483.19,0.232956,594479,347681
1486.36,0.238828,591232,341138
1489.52,0.244052,587853,335133
1492.68,0.247089,583875,330545
1496.89,0.249013,578062,325808
1500.03,0.249693,574159,323102
1503.18,0.249925,570285,320750
1506.32,0.249442,565444,318381
1509.45,0.248431,560571,316373
1512.58,0.246367,555821,315187
1515.71,0.243980,550344,313801
1519.87,0.240745,543983,312493
1522.99,0.238148,538764,311351
1526.1,0.235580,533692,310249
1529.21,0.232571,527902,309017
1532.32,0.229323,521886,307789
1535.42,0.226321,515888,306362
1538.51,0.222985,509987,305193
1541.6,0.220536,503936,303277
1545.72,0.215547,494694,301155
1548.8,0.212233,488378,299587
1551.88,0.209856,481832,297194
1554.95,0.208029,474989,294208
1558.02,0.206265,467818,290946
1561.08,0.205784,460730,286855
1564.15,0.204120,454170,283856
1568.22,0.203109,444181,278260
1571.27,0.201742,436947,274591
1574.32,0.200795,429598,270562
1577.36,0.198898,422039,266965
1580.4,0.197246,414375,263116
1583.43,0.195845,406354,258857
1586.46,0.194756,398475,254475
1590.49,0.192375,388982,249778
1593.51,0.190068,380708,245767
1596.53,0.187890,372727,241825
1599.54,0.185577,365060,238115
1602.55,0.182969,357543,234617
1605.55,0.181479,349495,230124
1608.55,0.178848,341154,225997
1612.54,0.176871,330877,220189
1615.53,0.173744,322904,216436
1618.51,0.174165,315116,211011
1621.49,0.172645,307217,206443
1624.47,0.171950,299481,201567
1627.44,0.169253,292112,197832
1630.41,0.168435,284245,192867
1634.36,0.166880,274079,186636
1637.32,0.165903,266916,182168
1640.27,0.165415,259612,177382
1643.22,0.163323,251804,172878
1646.16,0.164445,244348,167326
1649.1,0.163257,236703,162535
1652.04,0.160451,228171,157692
1655.95,0.159933,215408,149049
1658.88,0.155574,204937,143234
1661.8,0.151994,193395,136286
1664.72,0.146663,179728,128219
1667.63,0.137713,163642,119174
1670.54,0.127567,146312,109072
1673.44,0.115800,128451,98387
1677.31,0.103925,105080,82717
1680.21,0.097777,88906,70983
1683.1,0.093978,75033,60433
1685.99,0.098914,63520,50582
1688.87,0.102169,53714,42454
1691.75,0.105101,45653,35840
1694.62,0.116307,39137,29942
1697.49,0.116871,33776,25807
1701.31,0.127149,28175,21024