File: samples/wool/wool-000811/Column 1_050558_20150331_120328.csv
Method:,Column 1,,
Host Date-Time:,31/3/15 @ 12:3:28,,
Header Version:,1,,
System Temp (C):,33.57,,
Detector Temp (C):,32.88,,
Humidity (%):,2.25,,
Lamp PD:,3819,,
Shift Vector Coefficients:,-10.5391,0.0761263,-0.000134223,,
Pixel to Wavelength Coefficients:,1775.68,-0.916766,-0.000235065,,
Serial Number:,5510004,,
Scan Config Name:,Column 1,,
Scan Config Type:,Slew,,
Section 1,,
Start wavelength (nm):,900,,
End wavelength (nm):,1700,,
Pattern Pixel Width (nm):,   7.03,,,,
Exposure (ms):,  0.635,,,,
Digital Resolution:,228,,
Num Repeats:,6,,
PGA Gain:,64,,
Total Measurement Time in sec:,  2.677,,
Wavelength (nm),Absorbance (AU),Reference Signal (unitless),Sample Signal (unitless)
901.51,0.032966,108485,100555
905.376,0.039245,121306,110825
909.237,0.042754,131909,119542
913.095,0.041966,143299,130100
916.948,0.043274,156982,142094
922.079,0.045059,179937,162204
925.923,0.045086,200504,180733
929.762,0.046871,222660,199881
933.597,0.047362,244426,219172
937.427,0.047156,263972,236811
941.254,0.047491,281845,252650
945.076,0.045050,297271,267980
950.165,0.046044,315605,283857
953.978,0.045358,328029,295498
957.786,0.045650,340470,306499
961.59,0.046249,352317,316727
965.389,0.045999,363056,326569
969.185,0.046796,373162,335044
972.976,0.046565,382632,343729
976.763,0.047826,391202,350409
981.806,0.048338,400190,358037
985.583,0.048802,406088,362926
989.355,0.049512,410162,365968
993.124,0.049717,412868,368209
996.888,0.050775,414263,368554
1000.65,0.051268,415476,369214
1004.4,0.052431,415479,368229
1009.41,0.053984,414358,365925
1013.15,0.054495,412923,364229
1016.89,0.055142,411526,362456
1020.63,0.054609,409066,360732
1024.36,0.055467,406777,358005
1028.09,0.054966,404427,356348
1031.82,0.054331,401911,354649
1036.78,0.053376,398410,352334
1040.49,0.053103,396204,350603
1044.2,0.053160,394236,348816
1047.91,0.052435,392042,347454
1051.61,0.051980,389823,345850
1055.31,0.051603,388234,344739
1059,0.051613,387599,344167
1063.92,0.050064,386688,344585
1067.61,0.049498,386598,344954
1071.29,0.048478,387377,346462
1074.96,0.048883,388536,347175
1078.63,0.047676,389855,349323
1082.3,0.047237,391215,350896
1085.96,0.046427,393215,353348
1090.84,0.045842,396270,356574
1094.49,0.045356,398760,359216
1098.14,0.045429,400987,361161
1101.79,0.044975,403477,363784
1105.43,0.044791,406116,366319
1109.06,0.044371,407701,368104
1112.7,0.044143,409859,370247
1117.53,0.044367,412494,372435
1121.15,0.045032,414909,374042
1124.77,0.045364,416559,375243
1128.38,0.046816,418532,375762
1131.99,0.048493,419956,375587
1135.6,0.050116,421946,375959
1139.2,0.051610,423881,376386
1143.99,0.054250,426786,376669
1147.58,0.055761,428617,376971
1151.17,0.057083,431169,378063
1154.75,0.058321,433579,379094
1158.33,0.060093,436264,379889
1161.91,0.061800,439132,380886
1165.48,0.064310,442389,381500
1169.04,0.066537,446101,382733
1173.79,0.070332,451929,384360
1177.34,0.073102,456026,385379
1180.9,0.074973,461306,388165
1184.44,0.077175,467657,391519
1187.99,0.077744,473969,396283
1191.52,0.077514,479856,401418
1195.06,0.077215,487372,407986
1199.76,0.076387,497347,417131
1203.29,0.075671,504311,423670
1206.81,0.074984,511507,430395
1210.33,0.074055,519078,437701
1213.84,0.073410,527163,445179
1217.35,0.072358,534208,452223
1220.85,0.071660,540472,458261
1225.51,0.070371,549929,467666
1229.01,0.070000,556888,473989
1232.5,0.069090,562180,479496
1235.98,0.068610,567975,484975
1239.46,0.067846,574815,491680
1242.94,0.066699,582782,499812
1246.41,0.066353,591476,507673
1251.03,0.065791,604016,519108
1254.5,0.066118,612289,525822
1257.96,0.066726,619125,530948
1261.41,0.067347,624551,534836
1264.86,0.067373,629900,539385
1268.31,0.068316,634345,542013
1271.75,0.069082,638574,544665
1276.33,0.069359,642499,547663
1279.76,0.069687,645905,550151
1283.19,0.069003,648307,553067
1286.61,0.068639,650446,555357
1290.03,0.068356,652132,557159
1293.44,0.067670,653907,559559
1296.85,0.067158,655963,561981
1301.39,0.067507,657349,562716
1304.8,0.067031,657558,563512
1308.19,0.067678,658515,563492
1311.58,0.067593,658804,563849
1314.97,0.068565,659011,562766
1318.36,0.068954,658272,561631
1321.73,0.069604,658022,560578
1326.23,0.070177,657870,559710
1329.6,0.071046,656482,557413
1332.97,0.072116,654926,554723
1336.33,0.073501,653727,551945
1339.69,0.075109,652497,548870
1343.04,0.077006,649913,544314
1346.39,0.079470,647671,539367
1349.73,0.081658,645338,534723
1354.18,0.084809,641175,527433
1357.52,0.087119,638376,522345
1360.85,0.089247,635805,517698
1364.17,0.091460,633413,513129
1367.49,0.093825,631026,508419
1370.81,0.096424,628050,503003
1374.12,0.098901,625034,497740
1378.54,0.102571,620272,489791
1381.84,0.106111,616892,483168
1385.14,0.109953,613613,476367
1388.43,0.114674,611526,469614
1391.72,0.119155,610663,464137
1395.01,0.125091,610634,457815
1398.29,0.130723,611700,452705
1402.66,0.137705,614051,447198
1405.93,0.144695,616268,441646
1409.2,0.149989,617795,437376
1412.46,0.155295,618872,432819
1415.72,0.160001,619795,428792
1418.98,0.164198,620495,425148
1422.23,0.167970,621087,421874
1426.56,0.172753,621375,417446
1429.8,0.175851,621616,414640
1433.04,0.178767,622129,412205
1436.27,0.180802,621526,409881
1439.5,0.183072,621113,407473
1442.72,0.185711,620921,404879
1445.94,0.188396,620270,401962
1450.23,0.192176,618860,397573
1453.44,0.194534,617697,394677
1456.64,0.197220,616264,391333
1459.85,0.200165,614413,387521
1463.04,0.202831,612307,383829
1466.24,0.206239,610032,379414
1469.43,0.210108,607345,374393
1473.67,0.215501,603789,367607
1476.85,0.220520,601175,361810
1480.02,0.226598,597737,354742
1483.19,0.232873,594479,347747
1486.36,0.238489,591232,341404
1489.52,0.243903,587853,335248
1492.68,0.247306,583875,330380
1496.89,0.249057,578062,325775
1500.03,0.250301,574159,322650
1503.18,0.250036,570285,320668
1506.32,0.249155,565444,318592
1509.45,0.247725,560571,316888
1512.58,0.246769,555821,314895
1515.71,0.244531,550344,313403
1519.87,0.240709,543983,312519
1522.99,0.237561,538764,311772
1526.1,0.235131,533692,310570
1529.21,0.232984,527902,308723
1532.32,0.230535,521886,306931
1535.42,0.226440,515888,306278
1538.51,0.223523,509987,304815
1541.6,0.219735,503936,303837
1545.72,0.215874,494694,300928
1548.8,0.212577,488378,299350
1551.88,0.209821,481832,297218
1554.95,0.207911,474989,294288
1558.02,0.205887,467818,291199
1561.08,0.205026,460730,287356
1564.15,0.204388,454170,283681
1568.22,0.203025,444181,278314
1571.27,0.202295,436947,274242
1574.32,0.200741,429598,270596
1577.36,0.198675,422039,267102
1580.4,0.197596,414375,262904
1583.43,0.196533,406354,258447
1586.46,0.194001,398475,254918
1590.49,0.192250,388982,249850
1593.51,0.190155,380708,245718
1596.53,0.188035,372727,241744
1599.54,0.185849,365060,237966
1602.55,0.183676,357543,234235
1605.55,0.181341,349495,230197
1608.55,0.178686,341154,226081
1612.54,0.178007,330877,219614
1615.53,0.173666,322904,216475
1618.51,0.173328,315116,211418
1621.49,0.171993,307217,206753
1624.47,0.170878,299481,202065
1627.44,0.169442,292112,197746
1630.41,0.168994,284245,192619
1634.36,0.167465,274079,186385
1637.32,0.166950,266916,181729
1640.27,0.166359,259612,176997
1643.22,0.164775,251804,172301
1646.16,0.164409,244348,167340
1649.1,0.163145,236703,162577
1652.04,0.162618,228171,156907
1655.95,0.159796,215408,149096
1658.88,0.154345,204937,143640
1661.8,0.152220,193395,136215
1664.72,0.146680,179728,128214
1667.63,0.138249,163642,119027
1670.54,0.126509,146312,109338
1673.44,0.116630,128451,98199
1677.31,0.105598,105080,82399
1680.21,0.097043,88906,71103
1683.1,0.095757,75033,60186
1685.99,0.100342,63520,50416
1688.87,0.106818,53714,42002
1691.75,0.115389,45653,35001
1694.62,0.111934,39137,30245
1697.49,0.122102,33776,25498
1701.31,0.125520,28175,21103