File: samples/wool/wool-000811/Column 1_050624_20150331_123500.csv
Method:,Column 1,,
Host Date-Time:,31/3/15 @ 12:35:0,,
Header Version:,1,,
System Temp (C):,34.11,,
Detector Temp (C):,35.02,,
Humidity (%):,1.56,,
Lamp PD:,3818,,
Shift Vector Coefficients:,-10.5391,0.0761263,-0.000134223,,
Pixel to Wavelength Coefficients:,1775.68,-0.916766,-0.000235065,,
Serial Number:,5510004,,
Scan Config Name:,Column 1,,
Scan Config Type:,Slew,,
Section 1,,
Start wavelength (nm):,900,,
End wavelength (nm):,1700,,
Pattern Pixel Width (nm):,   7.03,,,,
Exposure (ms):,  0.635,,,,
Digital Resolution:,228,,
Num Repeats:,6,,
PGA Gain:,64,,
Total Measurement Time in sec:,  2.728,,
Wavelength (nm),Absorbance (AU),Reference Signal (unitless),Sample Signal (unitless)
901.51,0.068702,108485,92612
905.376,0.073053,121306,102525
909.237,0.075437,131909,110876
913.095,0.076534,143299,120146
916.948,0.078443,156982,131041
922.079,0.079530,179937,149827
925.923,0.081163,200504,166326
929.762,0.082140,222660,184290
933.597,0.081667,244426,202526
937.427,0.079783,263972,219672
941.254,0.080195,281845,234323
945.076,0.079072,297271,247788
950.165,0.077507,315605,264020
953.978,0.077569,328029,274374
957.786,0.077604,340470,284757
961.59,0.077209,352317,294934
965.389,0.077665,363056,303605
969.185,0.078123,373162,311727
972.976,0.078085,382632,319666
976.763,0.077937,391202,326937
981.806,0.078551,400190,333976
985.583,0.078600,406088,338860
989.355,0.079385,410162,341641
993.124,0.079519,412868,343789
996.888,0.080088,414263,344499
1000.65,0.081454,415476,344423
1004.4,0.081868,415479,344097
1009.41,0.083527,414358,341860
1013.15,0.083496,412923,340701
1016.89,0.084467,411526,338790
1020.63,0.085060,409066,336305
1024.36,0.084012,406777,335231
1028.09,0.084656,404427,332801
1031.82,0.084352,401911,330962
1036.78,0.083766,398410,328522
1040.49,0.083246,396204,327094
1044.2,0.083693,394236,325135
1047.91,0.082750,392042,324028
1051.61,0.082739,389823,322202
1055.31,0.082479,388234,321081
1059,0.081733,387599,321107
1063.92,0.080880,386688,320982
1067.61,0.080072,386598,321505
1071.29,0.079838,387377,322326
1074.96,0.079440,388536,323587
1078.63,0.078960,389855,325045
1082.3,0.078087,391215,326835
1085.96,0.077044,393215,329296
1090.84,0.075980,396270,332668
1094.49,0.075000,398760,335515
1098.14,0.075377,400987,337096
1101.79,0.074863,403477,339591
1105.43,0.074068,406116,342438
1109.06,0.073228,407701,344440
1112.7,0.073015,409859,346433
1117.53,0.072472,412494,349097
1121.15,0.073534,414909,350283
1124.77,0.073421,416559,351767
1128.38,0.074592,418532,352482
1131.99,0.075353,419956,353062
1135.6,0.076913,421946,353463
1139.2,0.077885,423881,354290
1143.99,0.080081,426786,354919
1147.58,0.080574,428617,356037
1151.17,0.081606,431169,357307
1154.75,0.082891,433579,358243
1158.33,0.083776,436264,359727
1161.91,0.085799,439132,360409
1165.48,0.087798,442389,361415
1169.04,0.090126,446101,362499
1173.79,0.093425,451929,364456
1177.34,0.095767,456026,365782
1180.9,0.097388,461306,368639
1184.44,0.099215,467657,372145
1187.99,0.100205,473969,376309
1191.52,0.100654,479856,380590
1195.06,0.100294,487372,386871
1199.76,0.099674,497347,395353
1203.29,0.099226,504311,401303
1206.81,0.098567,511507,407647
1210.33,0.098099,519078,414127
1213.84,0.097608,527163,421053
1217.35,0.097131,534208,427149
1220.85,0.096442,540472,432844
1225.51,0.095028,549929,441854
1229.01,0.094485,556888,448005
1232.5,0.094035,562180,452731
1235.98,0.093435,567975,458030
1239.46,0.092727,574815,464303
1242.94,0.091580,582782,471983
1246.41,0.091069,591476,479588
1251.03,0.091168,604016,489644
1254.5,0.090974,612289,496572
1257.96,0.091204,619125,501851
1261.41,0.092029,624551,505288
1264.86,0.092677,629900,508856
1268.31,0.092722,634345,512393
1271.75,0.093578,638574,514794
1276.33,0.093684,642499,517831
1279.76,0.093766,645905,520478
1283.19,0.092971,648307,523371
1286.61,0.092661,650446,525473
1290.03,0.092614,652132,526892
1293.44,0.092009,653907,529063
1296.85,0.092048,655963,530678
1301.39,0.091258,657349,532768
1304.8,0.091472,657558,532675
1308.19,0.091323,658515,533633
1311.58,0.091330,658804,533859
1314.97,0.092519,659011,532566
1318.36,0.092563,658272,531915
1321.73,0.092682,658022,531568
1326.23,0.093849,657870,530019
1329.6,0.094521,656482,528083
1332.97,0.095003,654926,526247
1336.33,0.096154,653727,523893
1339.69,0.097246,652497,521594
1343.04,0.098687,649913,517807
1346.39,0.100767,647671,513556
1349.73,0.102545,645338,509615
1354.18,0.105625,641175,502750
1357.52,0.107572,638376,498316
1360.85,0.109664,635805,493924
1364.17,0.111416,633413,490084
1367.49,0.113268,631026,486160
1370.81,0.115564,628050,481316
1374.12,0.117616,625034,476747
1378.54,0.120284,620272,470217
1381.84,0.123317,616892,464400
1385.14,0.126283,613613,458788
1388.43,0.130073,611526,453254
1391.72,0.133834,610663,448712
1395.01,0.137306,610634,445118
1398.29,0.141256,611700,441858
1402.66,0.147177,614051,437550
1405.93,0.152056,616268,434224
1409.2,0.156347,617795,431020
1412.46,0.160580,618872,427583
1415.72,0.164647,619795,424230
1418.98,0.168132,620495,421314
1422.23,0.171051,621087,418891
1426.56,0.174658,621375,415619
1429.8,0.177463,621616,413104
1433.04,0.179838,622129,411190
1436.27,0.181998,621526,408753
1439.5,0.184188,621113,406427
1442.72,0.186269,620921,404359
1445.94,0.189075,620270,401334
1450.23,0.192676,618860,397115
1453.44,0.195150,617697,394117
1456.64,0.198348,616264,390318
1459.85,0.200957,614413,386815
1463.04,0.203555,612307,383190
1466.24,0.207491,610032,378322
1469.43,0.211609,607345,373101
1473.67,0.218360,603789,365195
1476.85,0.223740,601175,359138
1480.02,0.229789,597737,352145
1483.19,0.236854,594479,344574
1486.36,0.242081,591232,338592
1489.52,0.247783,587853,332266
1492.68,0.251329,583875,327334
1496.89,0.253302,578062,322606
1500.03,0.253569,574159,320231
1503.18,0.253370,570285,318216
1506.32,0.252990,565444,315791
1509.45,0.251932,560571,313833
1512.58,0.250167,555821,312441
1515.71,0.247310,550344,311404
1519.87,0.244745,543983,309628
1522.99,0.242236,538764,308434
1526.1,0.239670,533692,307341
1529.21,0.236869,527902,305974
1532.32,0.233475,521886,304860
1535.42,0.230906,515888,303144
1538.51,0.227709,509987,301891
1541.6,0.225492,503936,299836
1545.72,0.221034,494694,297374
1548.8,0.218149,488378,295534
1551.88,0.216172,481832,292903
1554.95,0.214048,474989,290159
1558.02,0.211991,467818,287135
1561.08,0.210858,460730,283523
1564.15,0.210650,454170,279620
1568.22,0.209334,444181,274300
1571.27,0.209047,436947,270011
1574.32,0.208254,429598,265955
1577.36,0.206604,422039,262270
1580.4,0.206159,414375,257771
1583.43,0.204500,406354,253749
1586.46,0.203097,398475,249634
1590.49,0.201402,388982,244640
1593.51,0.199170,380708,240670
1596.53,0.197266,372727,236660
1599.54,0.195020,365060,232994
1602.55,0.193013,357543,229253
1605.55,0.191442,349495,224905
1608.55,0.189193,341154,220677
1612.54,0.187950,330877,214643
1615.53,0.186583,322904,210131
1618.51,0.185904,315116,205384
1621.49,0.183817,307217,201200
1624.47,0.182881,299481,196557
1627.44,0.181749,292112,192221
1630.41,0.181206,284245,187278
1634.36,0.178717,274079,181618
1637.32,0.178703,266916,176877
1640.27,0.177997,259612,172317
1643.22,0.177520,251804,167318
1646.16,0.177597,244348,162335
1649.1,0.175901,236703,157871
1652.04,0.173634,228171,152977
1655.95,0.171017,215408,145293
1658.88,0.167613,204937,139318
1661.8,0.162884,193395,132911
1664.72,0.155173,179728,125731
1667.63,0.141634,163642,118103
1670.54,0.125505,146312,109591
1673.44,0.110177,128451,99669
1677.31,0.087638,105080,85878
1680.21,0.077668,88906,74347
1683.1,0.074048,75033,63271
1685.99,0.071008,63520,53939
1688.87,0.071008,53714,45612
1691.75,0.075511,45653,38367
1694.62,0.083251,39137,32310
1697.49,0.086521,33776,27675
1701.31,0.092863,28175,22751