File: samples/wool/wool-000811/Column 1_050565_20150331_120701.csv
Method:,Column 1,,
Host Date-Time:,31/3/15 @ 12:7:1,,
Header Version:,1,,
System Temp (C):,33.9,,
Detector Temp (C):,33.68,,
Humidity (%):,1.91,,
Lamp PD:,3819,,
Shift Vector Coefficients:,-10.5391,0.0761263,-0.000134223,,
Pixel to Wavelength Coefficients:,1775.68,-0.916766,-0.000235065,,
Serial Number:,5510004,,
Scan Config Name:,Column 1,,
Scan Config Type:,Slew,,
Section 1,,
Start wavelength (nm):,900,,
End wavelength (nm):,1700,,
Pattern Pixel Width (nm):,   7.03,,,,
Exposure (ms):,  0.635,,,,
Digital Resolution:,228,,
Num Repeats:,6,,
PGA Gain:,64,,
Total Measurement Time in sec:,  2.668,,
Wavelength (nm),Absorbance (AU),Reference Signal (unitless),Sample Signal (unitless)
901.51,0.034545,108485,100190
905.376,0.037656,121306,111231
909.237,0.041941,131909,119766
913.095,0.043957,143299,129505
916.948,0.044070,156982,141834
922.079,0.046190,179937,161782
925.923,0.047415,200504,179766
929.762,0.048582,222660,199095
933.597,0.048644,244426,218526
937.427,0.047255,263972,236757
941.254,0.046792,281845,253057
945.076,0.046404,297271,267146
950.165,0.046579,315605,283508
953.978,0.045880,328029,295143
957.786,0.045929,340470,306302
961.59,0.046339,352317,316661
965.389,0.046262,363056,326371
969.185,0.046151,373162,335542
972.976,0.046796,382632,343546
976.763,0.047198,391202,350916
981.806,0.048098,400190,358235
985.583,0.048907,406088,362838
989.355,0.049451,410162,366020
993.124,0.049567,412868,368336
996.888,0.050875,414263,368469
1000.65,0.051624,415476,368911
1004.4,0.052374,415479,368277
1009.41,0.053660,414358,366198
1013.15,0.054400,412923,364308
1016.89,0.055026,411526,362553
1020.63,0.054958,409066,360442
1024.36,0.054690,406777,358646
1028.09,0.054291,404427,356902
1031.82,0.053817,401911,355069
1036.78,0.053494,398410,352238
1040.49,0.053147,396204,350568
1044.2,0.053353,394236,348661
1047.91,0.052588,392042,347332
1051.61,0.052030,389823,345810
1055.31,0.051612,388234,344732
1059,0.050440,387599,345098
1063.92,0.050402,386688,344317
1067.61,0.048931,386598,345405
1071.29,0.048795,387377,346209
1074.96,0.048495,388536,347485
1078.63,0.048171,389855,348925
1082.3,0.046522,391215,351474
1085.96,0.046130,393215,353590
1090.84,0.045537,396270,356824
1094.49,0.044925,398760,359573
1098.14,0.044565,400987,361881
1101.79,0.044200,403477,364434
1105.43,0.043914,406116,367059
1109.06,0.044016,407701,368405
1112.7,0.044374,409859,370050
1117.53,0.043453,412494,373220
1121.15,0.044593,414909,374421
1124.77,0.045150,416559,375428
1128.38,0.046965,418532,375633
1131.99,0.047952,419956,376055
1135.6,0.049800,421946,376233
1139.2,0.051724,423881,376288
1143.99,0.054058,426786,376836
1147.58,0.054910,428617,377711
1151.17,0.056109,431169,378912
1154.75,0.057368,433579,379927
1158.33,0.059213,436264,380659
1161.91,0.061359,439132,381273
1165.48,0.063520,442389,382194
1169.04,0.066213,446101,383019
1173.79,0.070104,451929,384562
1177.34,0.072235,456026,386149
1180.9,0.074453,461306,388630
1184.44,0.076110,467657,392480
1187.99,0.077230,473969,396753
1191.52,0.077203,479856,401706
1195.06,0.077066,487372,408126
1199.76,0.076506,497347,417017
1203.29,0.074888,504311,424434
1206.81,0.074282,511507,431092
1210.33,0.073042,519078,438723
1213.84,0.072827,527163,445777
1217.35,0.071785,534208,452820
1220.85,0.071144,540472,458806
1225.51,0.070789,549929,467216
1229.01,0.069683,556888,474335
1232.5,0.068932,562180,479671
1235.98,0.067936,567975,485728
1239.46,0.067129,574815,492492
1242.94,0.066682,582782,499832
1246.41,0.065528,591476,508638
1251.03,0.065542,604016,519405
1254.5,0.066070,612289,525880
1257.96,0.066495,619125,531231
1261.41,0.066905,624551,535381
1264.86,0.067637,629900,539057
1268.31,0.067919,634345,542509
1271.75,0.068566,638574,545312
1276.33,0.068888,642499,548257
1279.76,0.069342,645905,550588
1283.19,0.068687,648307,553470
1286.61,0.067859,650446,556355
1290.03,0.067832,652132,557832
1293.44,0.067047,653907,560363
1296.85,0.067199,655963,561928
1301.39,0.066504,657349,564017
1304.8,0.066875,657558,563714
1308.19,0.066938,658515,564453
1311.58,0.067148,658804,564428
1314.97,0.067751,659011,563822
1318.36,0.068502,658272,562216
1321.73,0.068266,658022,562308
1326.23,0.069296,657870,560847
1329.6,0.070277,656482,558401
1332.97,0.070952,654926,556212
1336.33,0.072579,653727,553118
1339.69,0.074223,652497,549991
1343.04,0.076185,649913,545343
1346.39,0.078562,647671,540496
1349.73,0.080426,645338,536243
1354.18,0.083715,641175,528764
1357.52,0.085937,638376,523769
1360.85,0.087985,635805,519205
1364.17,0.089933,633413,514937
1367.49,0.092638,631026,509811
1370.81,0.094693,628050,505012
1374.12,0.097442,625034,499415
1378.54,0.100965,620272,491606
1381.84,0.104757,616892,484677
1385.14,0.108240,613613,478250
1388.43,0.113426,611526,470965
1391.72,0.117682,610663,465714
1395.01,0.122431,610634,460628
1398.29,0.127196,611700,456397
1402.66,0.135042,614051,449948
1405.93,0.140383,616268,446053
1409.2,0.145966,617795,441447
1412.46,0.151506,618872,436611
1415.72,0.155879,619795,432882
1418.98,0.160015,620495,429263
1422.23,0.163538,621087,426201
1426.56,0.168217,621375,421829
1429.8,0.170848,621616,419444
1433.04,0.173329,622129,417399
1436.27,0.176166,621526,414279
1439.5,0.177960,621113,412297
1442.72,0.180264,620921,409989
1445.94,0.183110,620270,406884
1450.23,0.186983,618860,402355
1453.44,0.189289,617697,399472
1456.64,0.192163,616264,395917
1459.85,0.195782,614413,391452
1463.04,0.198714,612307,387485
1466.24,0.202194,610032,382965
1469.43,0.205847,607345,378084
1473.67,0.211791,603789,370761
1476.85,0.216927,601175,364816
1480.02,0.223488,597737,357291
1483.19,0.230323,594479,349795
1486.36,0.235744,591232,343569
1489.52,0.241413,587853,337175
1492.68,0.245107,583875,332057
1496.89,0.247674,578062,326814
1500.03,0.248124,574159,324271
1503.18,0.248259,570285,321983
1506.32,0.246998,565444,320178
1509.45,0.245569,560571,318465
1512.58,0.244320,555821,316676
1515.71,0.242020,550344,315220
1519.87,0.238389,543983,314193
1522.99,0.235967,538764,312919
1526.1,0.233483,533692,311751
1529.21,0.230483,527902,310506
1532.32,0.227512,521886,309075
1535.42,0.224118,515888,307920
1538.51,0.221554,509987,306200
1541.6,0.217989,503936,305061
1545.72,0.213485,494694,302588
1548.8,0.210364,488378,300879
1551.88,0.207373,481832,298898
1554.95,0.205277,474989,296078
1558.02,0.203935,467818,292511
1561.08,0.202481,460730,289045
1564.15,0.201637,454170,285484
1568.22,0.201066,444181,279572
1571.27,0.199414,436947,276067
1574.32,0.198367,429598,272079
1577.36,0.197028,422039,268117
1580.4,0.196137,414375,263789
1583.43,0.194093,406354,259903
1586.46,0.192470,398475,255818
1590.49,0.190043,388982,251123
1593.51,0.188064,380708,246904
1596.53,0.186369,372727,242673
1599.54,0.183139,365060,239456
1602.55,0.181061,357543,235650
1605.55,0.179649,349495,231096
1608.55,0.177409,341154,226747
1612.54,0.175522,330877,220874
1615.53,0.172276,322904,217169
1618.51,0.170687,315116,212708
1621.49,0.171183,307217,207139
1624.47,0.168535,299481,203158
1627.44,0.168832,292112,198024
1630.41,0.166548,284245,193707
1634.36,0.164810,274079,187528
1637.32,0.164104,266916,182924
1640.27,0.163451,259612,178186
1643.22,0.163022,251804,172998
1646.16,0.161522,244348,168456
1649.1,0.160901,236703,163419
1652.04,0.159246,228171,158130
1655.95,0.156913,215408,150089
1658.88,0.153662,204937,143866
1661.8,0.149500,193395,137071
1664.72,0.144275,179728,128926
1667.63,0.132994,163642,120476
1670.54,0.120638,146312,110826
1673.44,0.110478,128451,99600
1677.31,0.092919,105080,84840
1680.21,0.083898,88906,73288
1683.1,0.084243,75033,61803
1685.99,0.086982,63520,51991
1688.87,0.086004,53714,44064
1691.75,0.091655,45653,36967
1694.62,0.099297,39137,31138
1697.49,0.103531,33776,26612
1701.31,0.106593,28175,22043