File: samples/wool/wool-000811/Column 1_050571_20150331_120938.csv
Method:,Column 1,,
Host Date-Time:,31/3/15 @ 12:9:38,,
Header Version:,1,,
System Temp (C):,34.07,,
Detector Temp (C):,34.15,,
Humidity (%):,1.76,,
Lamp PD:,3818,,
Shift Vector Coefficients:,-10.5391,0.0761263,-0.000134223,,
Pixel to Wavelength Coefficients:,1775.68,-0.916766,-0.000235065,,
Serial Number:,5510004,,
Scan Config Name:,Column 1,,
Scan Config Type:,Slew,,
Section 1,,
Start wavelength (nm):,900,,
End wavelength (nm):,1700,,
Pattern Pixel Width (nm):,   7.03,,,,
Exposure (ms):,  0.635,,,,
Digital Resolution:,228,,
Num Repeats:,6,,
PGA Gain:,64,,
Total Measurement Time in sec:,  2.733,,
Wavelength (nm),Absorbance (AU),Reference Signal (unitless),Sample Signal (unitless)
901.51,0.036296,108485,99787
905.376,0.040469,121306,110513
909.237,0.043536,131909,119327
913.095,0.043059,143299,129773
916.948,0.045680,156982,141309
922.079,0.047777,179937,161192
925.923,0.048540,200504,179301
929.762,0.050429,222660,198250
933.597,0.049890,244426,217900
937.427,0.047692,263972,236519
941.254,0.048036,281845,252333
945.076,0.048139,297271,266081
950.165,0.046594,315605,283498
953.978,0.046065,328029,295017
957.786,0.046526,340470,305881
961.59,0.047105,352317,316103
965.389,0.046610,363056,326110
969.185,0.046488,373162,335281
972.976,0.047404,382632,343066
976.763,0.047895,391202,350353
981.806,0.048331,400190,358043
985.583,0.049497,406088,362346
989.355,0.049879,410162,365659
993.124,0.049945,412868,368016
996.888,0.050770,414263,368558
1000.65,0.051518,415476,369001
1004.4,0.053018,415479,367732
1009.41,0.054125,414358,365806
1013.15,0.055077,412923,363741
1016.89,0.055421,411526,362223
1020.63,0.055036,409066,360377
1024.36,0.054753,406777,358594
1028.09,0.054862,404427,356433
1031.82,0.054479,401911,354528
1036.78,0.053746,398410,352034
1040.49,0.053320,396204,350428
1044.2,0.053868,394236,348248
1047.91,0.053163,392042,346872
1051.61,0.052569,389823,345381
1055.31,0.051606,388234,344737
1059,0.051810,387599,344011
1063.92,0.050864,386688,343951
1067.61,0.049827,386598,344693
1071.29,0.049187,387377,345897
1074.96,0.048551,388536,347440
1078.63,0.048134,389855,348955
1082.3,0.047378,391215,350782
1085.96,0.046624,393215,353188
1090.84,0.045969,396270,356469
1094.49,0.045569,398760,359040
1098.14,0.044961,400987,361551
1101.79,0.045010,403477,363755
1105.43,0.045033,406116,366115
1109.06,0.044536,407701,367964
1112.7,0.044068,409859,370311
1117.53,0.044396,412494,372410
1121.15,0.045110,414909,373975
1124.77,0.045856,416559,374818
1128.38,0.047082,418532,375532
1131.99,0.048187,419956,375852
1135.6,0.049935,421946,376116
1139.2,0.051560,423881,376430
1143.99,0.053918,426786,376957
1147.58,0.054807,428617,377800
1151.17,0.056662,431169,378430
1154.75,0.057795,433579,379554
1158.33,0.059976,436264,379991
1161.91,0.061341,439132,381289
1165.48,0.063842,442389,381911
1169.04,0.066248,446101,382988
1173.79,0.070375,451929,384322
1177.34,0.072361,456026,386037
1180.9,0.074959,461306,388177
1184.44,0.076930,467657,391740
1187.99,0.078067,473969,395989
1191.52,0.077679,479856,401266
1195.06,0.076930,487372,408254
1199.76,0.076115,497347,417392
1203.29,0.075686,504311,423655
1206.81,0.074564,511507,430812
1210.33,0.073870,519078,437888
1213.84,0.073123,527163,445474
1217.35,0.072427,534208,452151
1220.85,0.070947,540472,459014
1225.51,0.070715,549929,467296
1229.01,0.069920,556888,474076
1232.5,0.069303,562180,479261
1235.98,0.068642,567975,484939
1239.46,0.067567,574815,491996
1242.94,0.066334,582782,500233
1246.41,0.065714,591476,508421
1251.03,0.065541,604016,519406
1254.5,0.065860,612289,526134
1257.96,0.066257,619125,531522
1261.41,0.067007,624551,535255
1264.86,0.067328,629900,539441
1268.31,0.068301,634345,542032
1271.75,0.069073,638574,544676
1276.33,0.069254,642499,547795
1279.76,0.069228,645905,550732
1283.19,0.068682,648307,553476
1286.61,0.068204,650446,555914
1290.03,0.068035,652132,557572
1293.44,0.067261,653907,560086
1296.85,0.067300,655963,561797
1301.39,0.066929,657349,563465
1304.8,0.067230,657558,563254
1308.19,0.067377,658515,563883
1311.58,0.067150,658804,564425
1314.97,0.067724,659011,563856
1318.36,0.068244,658272,562550
1321.73,0.068367,658022,562178
1326.23,0.069414,657870,560694
1329.6,0.070380,656482,558268
1332.97,0.071219,654926,555870
1336.33,0.072341,653727,553421
1339.69,0.074300,652497,549894
1343.04,0.075829,649913,545791
1346.39,0.078258,647671,540875
1349.73,0.080060,645338,536694
1354.18,0.083321,641175,529243
1357.52,0.086083,638376,523593
1360.85,0.087628,635805,519632
1364.17,0.090107,633413,514730
1367.49,0.092271,631026,510242
1370.81,0.094902,628050,504768
1374.12,0.097433,625034,499425
1378.54,0.100423,620272,492220
1381.84,0.104024,616892,485495
1385.14,0.108073,613613,478433
1388.43,0.112271,611526,472219
1391.72,0.116575,610663,466903
1395.01,0.121416,610634,461705
1398.29,0.126160,611700,457487
1402.66,0.133371,614051,451683
1405.93,0.139153,616268,447318
1409.2,0.144762,617795,442672
1412.46,0.149533,618872,438599
1415.72,0.154129,619795,434629
1418.98,0.157706,620495,431551
1422.23,0.161843,621087,427868
1426.56,0.165957,621375,424030
1429.8,0.168667,621616,421556
1433.04,0.171627,622129,419038
1436.27,0.173715,621526,416624
1439.5,0.175760,621113,414391
1442.72,0.178563,620921,411598
1445.94,0.180499,620270,409338
1450.23,0.184757,618860,404423
1453.44,0.187789,617697,400854
1456.64,0.190338,616264,397584
1459.85,0.193830,614413,393215
1463.04,0.196377,612307,389576
1466.24,0.199613,610032,385247
1469.43,0.203443,607345,380183
1473.67,0.209799,603789,372466
1476.85,0.215809,601175,365756
1480.02,0.221734,597737,358737
1483.19,0.229009,594479,350855
1486.36,0.234871,591232,344260
1489.52,0.240094,587853,338201
1492.68,0.244049,583875,332867
1496.89,0.246741,578062,327517
1500.03,0.246938,574159,325158
1503.18,0.247200,570285,322769
1506.32,0.245922,565444,320972
1509.45,0.245194,560571,318740
1512.58,0.243605,555821,317198
1515.71,0.241111,550344,315881
1519.87,0.238179,543983,314345
1522.99,0.235527,538764,313236
1526.1,0.232281,533692,312615
1529.21,0.229116,527902,311485
1532.32,0.225864,521886,310250
1535.42,0.222642,515888,308968
1538.51,0.220186,509987,307166
1541.6,0.217127,503936,305667
1545.72,0.212221,494694,303470
1548.8,0.208831,488378,301943
1551.88,0.207264,481832,298973
1554.95,0.204826,474989,296386
1558.02,0.202808,467818,293271
1561.08,0.201035,460730,290009
1564.15,0.201092,454170,285842
1568.22,0.199582,444181,280529
1571.27,0.198818,436947,276446
1574.32,0.197544,429598,272595
1577.36,0.196431,422039,268486
1580.4,0.195236,414375,264337
1583.43,0.192925,406354,260603
1586.46,0.192263,398475,255940
1590.49,0.188951,388982,251755
1593.51,0.186982,380708,247520
1596.53,0.185477,372727,243172
1599.54,0.182912,365060,239581
1602.55,0.181337,357543,235500
1605.55,0.178099,349495,231922
1608.55,0.176017,341154,227475
1612.54,0.174169,330877,221563
1615.53,0.172546,322904,217034
1618.51,0.171124,315116,212494
1621.49,0.170465,307217,207482
1624.47,0.168604,299481,203126
1627.44,0.168220,292112,198303
1630.41,0.165334,284245,194249
1634.36,0.164652,274079,187596
1637.32,0.164085,266916,182932
1640.27,0.163400,259612,178207
1643.22,0.161535,251804,173591
1646.16,0.161961,244348,168286
1649.1,0.160689,236703,163499
1652.04,0.158878,228171,158264
1655.95,0.156470,215408,150242
1658.88,0.152595,204937,144220
1661.8,0.148737,193395,137312
1664.72,0.141679,179728,129699
1667.63,0.130751,163642,121100
1670.54,0.118067,146312,111484
1673.44,0.104704,128451,100933
1677.31,0.086663,105080,86071
1680.21,0.078428,88906,74217
1683.1,0.075429,75033,63070
1685.99,0.077522,63520,53136
1688.87,0.083978,53714,44270
1691.75,0.087028,45653,37363
1694.62,0.096641,39137,31329
1697.49,0.095463,33776,27111
1701.31,0.106278,28175,22059