File: samples/wool/wool-000811/Column 1_050571_20150331_120943.csv
Method:,Column 1,,
Host Date-Time:,31/3/15 @ 12:9:43,,
Header Version:,1,,
System Temp (C):,34.07,,
Detector Temp (C):,34.14,,
Humidity (%):,1.76,,
Lamp PD:,3818,,
Shift Vector Coefficients:,-10.5391,0.0761263,-0.000134223,,
Pixel to Wavelength Coefficients:,1775.68,-0.916766,-0.000235065,,
Serial Number:,5510004,,
Scan Config Name:,Column 1,,
Scan Config Type:,Slew,,
Section 1,,
Start wavelength (nm):,900,,
End wavelength (nm):,1700,,
Pattern Pixel Width (nm):,   7.03,,,,
Exposure (ms):,  0.635,,,,
Digital Resolution:,228,,
Num Repeats:,6,,
PGA Gain:,64,,
Total Measurement Time in sec:,  2.674,,
Wavelength (nm),Absorbance (AU),Reference Signal (unitless),Sample Signal (unitless)
901.51,0.035179,108485,100044
905.376,0.041177,121306,110333
909.237,0.044403,131909,119089
913.095,0.047404,143299,128481
916.948,0.047081,156982,140854
922.079,0.046784,179937,161561
925.923,0.048618,200504,179269
929.762,0.049901,222660,198491
933.597,0.050129,244426,217780
937.427,0.049099,263972,235754
941.254,0.048406,281845,252118
945.076,0.047512,297271,266465
950.165,0.047474,315605,282924
953.978,0.046292,328029,294863
957.786,0.046514,340470,305890
961.59,0.047407,352317,315883
965.389,0.046749,363056,326005
969.185,0.047331,373162,334631
972.976,0.047673,382632,342853
976.763,0.048909,391202,349536
981.806,0.049053,400190,357448
985.583,0.049590,406088,362268
989.355,0.050357,410162,365257
993.124,0.050451,412868,367587
996.888,0.051545,414263,367901
1000.65,0.052060,415476,368541
1004.4,0.053191,415479,367585
1009.41,0.054789,414358,365247
1013.15,0.055236,412923,363608
1016.89,0.055445,411526,362203
1020.63,0.055251,409066,360199
1024.36,0.055665,406777,357842
1028.09,0.055069,404427,356263
1031.82,0.055184,401911,353953
1036.78,0.054337,398410,351555
1040.49,0.054263,396204,349668
1044.2,0.053860,394236,348254
1047.91,0.053846,392042,346327
1051.61,0.053352,389823,344759
1055.31,0.052181,388234,344281
1059,0.052105,387599,343778
1063.92,0.051078,386688,343782
1067.61,0.050015,386598,344544
1071.29,0.049431,387377,345703
1074.96,0.048852,388536,347200
1078.63,0.048312,389855,348812
1082.3,0.047150,391215,350966
1085.96,0.046890,393215,352972
1090.84,0.046417,396270,356102
1094.49,0.046214,398760,358507
1098.14,0.045746,400987,360898
1101.79,0.045607,403477,363255
1105.43,0.045080,406116,366075
1109.06,0.044529,407701,367970
1112.7,0.044534,409859,369914
1117.53,0.044798,412494,372066
1121.15,0.045409,414909,373718
1124.77,0.045579,416559,375057
1128.38,0.046715,418532,375849
1131.99,0.048192,419956,375848
1135.6,0.049963,421946,376092
1139.2,0.052153,423881,375916
1143.99,0.054662,426786,376312
1147.58,0.054976,428617,377653
1151.17,0.056532,431169,378543
1154.75,0.058192,433579,379207
1158.33,0.059809,436264,380137
1161.91,0.061549,439132,381106
1165.48,0.064361,442389,381455
1169.04,0.066777,446101,382522
1173.79,0.070016,451929,384640
1177.34,0.072906,456026,385553
1180.9,0.074974,461306,388164
1184.44,0.076989,467657,391686
1187.99,0.077637,473969,396381
1191.52,0.077705,479856,401242
1195.06,0.077186,487372,408014
1199.76,0.076713,497347,416818
1203.29,0.075277,504311,424054
1206.81,0.074787,511507,430591
1210.33,0.073974,519078,437783
1213.84,0.073666,527163,444917
1217.35,0.072540,534208,452033
1220.85,0.071371,540472,458566
1225.51,0.070601,549929,467418
1229.01,0.069971,556888,474020
1232.5,0.069481,562180,479065
1235.98,0.068801,567975,484762
1239.46,0.067755,574815,491782
1242.94,0.066796,582782,499701
1246.41,0.066180,591476,507875
1251.03,0.065876,604016,519006
1254.5,0.065905,612289,526079
1257.96,0.066690,619125,530993
1261.41,0.067358,624551,534823
1264.86,0.067926,629900,538698
1268.31,0.068470,634345,541820
1271.75,0.069393,638574,544275
1276.33,0.069573,642499,547393
1279.76,0.069425,645905,550483
1283.19,0.068796,648307,553330
1286.61,0.068407,650446,555654
1290.03,0.067834,652132,557830
1293.44,0.067571,653907,559687
1296.85,0.067449,655963,561604
1301.39,0.067242,657349,563059
1304.8,0.067175,657558,563325
1308.19,0.067040,658515,564320
1311.58,0.067496,658804,563975
1314.97,0.067801,659011,563757
1318.36,0.068605,658272,562083
1321.73,0.068571,658022,561914
1326.23,0.069678,657870,560354
1329.6,0.070501,656482,558113
1332.97,0.071563,654926,555430
1336.33,0.072722,653727,552935
1339.69,0.074661,652497,549436
1343.04,0.076268,649913,545239
1346.39,0.078042,647671,541144
1349.73,0.080160,645338,536571
1354.18,0.083592,641175,528914
1357.52,0.085551,638376,524235
1360.85,0.088074,635805,519099
1364.17,0.090053,633413,514795
1367.49,0.092480,631026,509996
1370.81,0.095149,628050,504482
1374.12,0.097401,625034,499462
1378.54,0.101078,620272,491478
1381.84,0.104199,616892,485300
1385.14,0.107721,613613,478821
1388.43,0.112441,611526,472035
1391.72,0.117111,610663,466327
1395.01,0.121699,610634,461405
1398.29,0.126645,611700,456976
1402.66,0.133574,614051,451472
1405.93,0.139471,616268,446991
1409.2,0.145154,617795,442273
1412.46,0.149658,618872,438473
1415.72,0.154359,619795,434399
1418.98,0.158135,620495,431125
1422.23,0.161724,621087,427985
1426.56,0.165707,621375,424274
1429.8,0.168858,621616,421371
1433.04,0.171283,622129,419370
1436.27,0.174058,621526,416295
1439.5,0.176295,621113,413881
1442.72,0.178825,620921,411350
1445.94,0.180533,620270,409306
1450.23,0.184679,618860,404495
1453.44,0.187939,617697,400716
1456.64,0.191019,616264,396961
1459.85,0.193384,614413,393619
1463.04,0.196904,612307,389104
1466.24,0.200181,610032,384744
1469.43,0.203650,607345,380002
1473.67,0.210076,603789,372228
1476.85,0.216358,601175,365294
1480.02,0.222471,597737,358129
1483.19,0.229963,594479,350085
1486.36,0.235596,591232,343686
1489.52,0.241197,587853,337343
1492.68,0.243977,583875,332922
1496.89,0.246195,578062,327929
1500.03,0.248472,574159,324011
1503.18,0.248188,570285,322036
1506.32,0.247394,565444,319886
1509.45,0.245580,560571,318457
1512.58,0.243669,555821,317151
1515.71,0.241412,550344,315662
1519.87,0.238345,543983,314225
1522.99,0.236004,538764,312892
1526.1,0.232456,533692,312489
1529.21,0.230103,527902,310778
1532.32,0.226625,521886,309707
1535.42,0.223607,515888,308282
1538.51,0.220073,509987,307246
1541.6,0.216914,503936,305817
1545.72,0.212241,494694,303456
1548.8,0.209917,488378,301189
1551.88,0.207309,481832,298942
1554.95,0.205401,474989,295994
1558.02,0.202846,467818,293245
1561.08,0.201705,460730,289562
1564.15,0.201246,454170,285741
1568.22,0.200168,444181,280151
1571.27,0.199230,436947,276184
1574.32,0.198307,429598,272117
1577.36,0.196790,422039,268264
1580.4,0.195628,414375,264098
1583.43,0.194354,406354,259747
1586.46,0.191964,398475,256116
1590.49,0.190024,388982,251134
1593.51,0.187918,380708,246987
1596.53,0.185626,372727,243089
1599.54,0.183817,365060,239082
1602.55,0.181476,357543,235425
1605.55,0.179245,349495,231311
1608.55,0.175937,341154,227517
1612.54,0.174077,330877,221610
1615.53,0.173098,322904,216758
1618.51,0.171537,315116,212292
1621.49,0.170869,307217,207289
1624.47,0.169428,299481,202741
1627.44,0.167732,292112,198526
1630.41,0.166617,284245,193676
1634.36,0.165278,274079,187326
1637.32,0.165164,266916,182478
1640.27,0.163536,259612,178151
1643.22,0.163280,251804,172895
1646.16,0.161950,244348,168290
1649.1,0.160821,236703,163449
1652.04,0.159046,228171,158203
1655.95,0.158060,215408,149693
1658.88,0.153357,204937,143967
1661.8,0.149522,193395,137064
1664.72,0.143367,179728,129196
1667.63,0.130984,163642,121035
1670.54,0.117947,146312,111515
1673.44,0.105967,128451,100640
1677.31,0.088808,105080,85647
1680.21,0.083436,88906,73366
1683.1,0.077355,75033,62791
1685.99,0.077783,63520,53104
1688.87,0.085816,53714,44083
1691.75,0.091855,45653,36950
1694.62,0.097487,39137,31268
1697.49,0.103939,33776,26587
1701.31,0.113945,28175,21673