File: samples/wool/wool-000811/Column 1_050547_20150331_115814.csv
Method:,Column 1,,
Host Date-Time:,31/3/15 @ 11:58:14,,
Header Version:,1,,
System Temp (C):,32.98,,
Detector Temp (C):,31.63,,
Humidity (%):,2.44,,
Lamp PD:,3823,,
Shift Vector Coefficients:,-10.5391,0.0761263,-0.000134223,,
Pixel to Wavelength Coefficients:,1775.68,-0.916766,-0.000235065,,
Serial Number:,5510004,,
Scan Config Name:,Column 1,,
Scan Config Type:,Slew,,
Section 1,,
Start wavelength (nm):,900,,
End wavelength (nm):,1700,,
Pattern Pixel Width (nm):,   7.03,,,,
Exposure (ms):,  0.635,,,,
Digital Resolution:,228,,
Num Repeats:,6,,
PGA Gain:,64,,
Total Measurement Time in sec:,  2.721,,
Wavelength (nm),Absorbance (AU),Reference Signal (unitless),Sample Signal (unitless)
901.51,0.047185,108485,97316
905.376,0.052147,121306,107581
909.237,0.054213,131909,116429
913.095,0.054084,143299,126520
916.948,0.056147,156982,137944
922.079,0.055434,179937,158375
925.923,0.055817,200504,176322
929.762,0.056844,222660,195343
933.597,0.057366,244426,214181
937.427,0.056504,263972,231768
941.254,0.057296,281845,247010
945.076,0.056579,297271,260960
950.165,0.056055,315605,277389
953.978,0.056226,328029,288195
957.786,0.056068,340470,299234
961.59,0.056597,352317,309269
965.389,0.057059,363056,318357
969.185,0.057158,373162,327144
972.976,0.057442,382632,335227
976.763,0.058141,391202,342184
981.806,0.058902,400190,349433
985.583,0.059473,406088,354117
989.355,0.060016,410162,357223
993.124,0.061028,412868,358743
996.888,0.061463,414263,359595
1000.65,0.061895,415476,360289
1004.4,0.063039,415479,359344
1009.41,0.064259,414358,357369
1013.15,0.064873,412923,355628
1016.89,0.065463,411526,353944
1020.63,0.065167,409066,352068
1024.36,0.065321,406777,349974
1028.09,0.064492,404427,348617
1031.82,0.064586,401911,346373
1036.78,0.063585,398410,344148
1040.49,0.062741,396204,342908
1044.2,0.062394,394236,341478
1047.91,0.061686,392042,340131
1051.61,0.060891,389823,338826
1055.31,0.060393,388234,337832
1059,0.059952,387599,337622
1063.92,0.059147,386688,337453
1067.61,0.057974,386598,338287
1071.29,0.056965,387377,339757
1074.96,0.055774,388536,341710
1078.63,0.055210,389855,343315
1082.3,0.055015,391215,344668
1085.96,0.053439,393215,347689
1090.84,0.052897,396270,350828
1094.49,0.052449,398760,353397
1098.14,0.052621,400987,355230
1101.79,0.052058,403477,357899
1105.43,0.052040,406116,360255
1109.06,0.051472,407701,362134
1112.7,0.051264,409859,364226
1117.53,0.051148,412494,366665
1121.15,0.052380,414909,367767
1124.77,0.052676,416559,368978
1128.38,0.054068,418532,369539
1131.99,0.055962,419956,369183
1135.6,0.058121,421946,369093
1139.2,0.059560,423881,369559
1143.99,0.062300,426786,369752
1147.58,0.063932,428617,369945
1151.17,0.064877,431169,371339
1154.75,0.066237,433579,372247
1158.33,0.067838,436264,373174
1161.91,0.070882,439132,373004
1165.48,0.073742,442389,373304
1169.04,0.076661,446101,373914
1173.79,0.081314,451929,374763
1177.34,0.084029,456026,375803
1180.9,0.086700,461306,377824
1184.44,0.088192,467657,381712
1187.99,0.089146,473969,386015
1191.52,0.088365,479856,391513
1195.06,0.087967,487372,398010
1199.76,0.086907,497347,407148
1203.29,0.085024,504311,414643
1206.81,0.083927,511507,421623
1210.33,0.082602,519078,429171
1213.84,0.081726,527163,436736
1217.35,0.080839,534208,443477
1220.85,0.079372,540472,450196
1225.51,0.078317,549929,459187
1229.01,0.077568,556888,465800
1232.5,0.076655,562180,471216
1235.98,0.075858,567975,476948
1239.46,0.075095,574815,483541
1242.94,0.073696,582782,491824
1246.41,0.073174,591476,499762
1251.03,0.072315,604016,511368
1254.5,0.072582,612289,518053
1257.96,0.072278,619125,524204
1261.41,0.073082,624551,527820
1264.86,0.073647,629900,531649
1268.31,0.074632,634345,534187
1271.75,0.075021,638574,537267
1276.33,0.075286,642499,540240
1279.76,0.075452,645905,542896
1283.19,0.074779,648307,545760
1286.61,0.074566,650446,547829
1290.03,0.073873,652132,550127
1293.44,0.073247,653907,552419
1296.85,0.073368,655963,554002
1301.39,0.073001,657349,555642
1304.8,0.072955,657558,555877
1308.19,0.073407,658515,556107
1311.58,0.073459,658804,556285
1314.97,0.074332,659011,555342
1318.36,0.074758,658272,554175
1321.73,0.075008,658022,553646
1326.23,0.076248,657870,551940
1329.6,0.077076,656482,549727
1332.97,0.078039,654926,547209
1336.33,0.079422,653727,544470
1339.69,0.080871,652497,541636
1343.04,0.083190,649913,536618
1346.39,0.085643,647671,531755
1349.73,0.088019,645338,526949
1354.18,0.091919,641175,518869
1357.52,0.093985,638376,514152
1360.85,0.096672,635805,508923
1364.17,0.098985,633413,504315
1367.49,0.101843,631026,499119
1370.81,0.104622,628050,493597
1374.12,0.107007,625034,488536
1378.54,0.111002,620272,480375
1381.84,0.114796,616892,473602
1385.14,0.119496,613613,466014
1388.43,0.124353,611526,459263
1391.72,0.129660,610663,453045
1395.01,0.135315,610634,447163
1398.29,0.141475,611700,441635
1402.66,0.149453,614051,435263
1405.93,0.156475,616268,429828
1409.2,0.162865,617795,424599
1412.46,0.168185,618872,420161
1415.72,0.173093,619795,416059
1418.98,0.178231,620495,411630
1422.23,0.182094,621087,408374
1426.56,0.186448,621375,404488
1429.8,0.189083,621616,402197
1433.04,0.192302,622129,399557
1436.27,0.194849,621526,396835
1439.5,0.197137,621113,394488
1442.72,0.199977,620921,391795
1445.94,0.202312,620270,389286
1450.23,0.206486,618860,384686
1453.44,0.208967,617697,381776
1456.64,0.212222,616264,378046
1459.85,0.214729,614413,374741
1463.04,0.217824,612307,370805
1466.24,0.220165,610032,367441
1469.43,0.223806,607345,362768
1473.67,0.229639,603789,355833
1476.85,0.234381,601175,350445
1480.02,0.240643,597737,343453
1483.19,0.247123,594479,336522
1486.36,0.253126,591232,330090
1489.52,0.258818,587853,323930
1492.68,0.262103,583875,319313
1496.89,0.264922,578062,314089
1500.03,0.266215,574159,311041
1503.18,0.266892,570285,308461
1506.32,0.265578,565444,306769
1509.45,0.264476,560571,304898
1512.58,0.262852,555821,303447
1515.71,0.260981,550344,301754
1519.87,0.257684,543983,300539
1522.99,0.255222,538764,299348
1526.1,0.251868,533692,298829
1529.21,0.248837,527902,297657
1532.32,0.245897,521886,296264
1535.42,0.242928,515888,294868
1538.51,0.239198,509987,294009
1541.6,0.236707,503936,292192
1545.72,0.231226,494694,290476
1548.8,0.227789,488378,289046
1551.88,0.225332,481832,286790
1554.95,0.222609,474989,284495
1558.02,0.220289,467818,281701
1561.08,0.219208,460730,278124
1564.15,0.218398,454170,274676
1568.22,0.217740,444181,269042
1571.27,0.216428,436947,265461
1574.32,0.215873,429598,261330
1577.36,0.214489,422039,257551
1580.4,0.212249,414375,254182
1583.43,0.210890,406354,250043
1586.46,0.209212,398475,246144
1590.49,0.206136,388982,241988
1593.51,0.204079,380708,237965
1596.53,0.201963,372727,234114
1599.54,0.199330,365060,230693
1602.55,0.197473,357543,226911
1605.55,0.194675,349495,223237
1608.55,0.191198,341154,219661
1612.54,0.189736,330877,213762
1615.53,0.187643,322904,209619
1618.51,0.186073,315116,205304
1621.49,0.183830,307217,201194
1624.47,0.183084,299481,196465
1627.44,0.180206,292112,192905
1630.41,0.179949,284245,187821
1634.36,0.178098,274079,181877
1637.32,0.177470,266916,177380
1640.27,0.175937,259612,173136
1643.22,0.175226,251804,168204
1646.16,0.173329,244348,163938
1649.1,0.173208,236703,158853
1652.04,0.172243,228171,153468
1655.95,0.171143,215408,145251
1658.88,0.168022,204937,139187
1661.8,0.166484,193395,131814
1664.72,0.160805,179728,124111
1667.63,0.153870,163642,114822
1670.54,0.145329,146312,104701
1673.44,0.138823,128451,93307
1677.31,0.130540,105080,77800
1680.21,0.126077,88906,66505
1683.1,0.129576,75033,55677
1685.99,0.132238,63520,46846
1688.87,0.140127,53714,38901
1691.75,0.145214,45653,32678
1694.62,0.148621,39137,27795
1697.49,0.160452,33776,23343
1701.31,0.165366,28175,19253