File: samples/wool/wool-000811/Column 1_050578_20150331_121323.csv
Method:,Column 1,,
Host Date-Time:,31/3/15 @ 12:13:23,,
Header Version:,1,,
System Temp (C):,33.81,,
Detector Temp (C):,34.64,,
Humidity (%):,2.05,,
Lamp PD:,3819,,
Shift Vector Coefficients:,-10.5391,0.0761263,-0.000134223,,
Pixel to Wavelength Coefficients:,1775.68,-0.916766,-0.000235065,,
Serial Number:,5510004,,
Scan Config Name:,Column 1,,
Scan Config Type:,Slew,,
Section 1,,
Start wavelength (nm):,900,,
End wavelength (nm):,1700,,
Pattern Pixel Width (nm):,   7.03,,,,
Exposure (ms):,  0.635,,,,
Digital Resolution:,228,,
Num Repeats:,6,,
PGA Gain:,64,,
Total Measurement Time in sec:,  2.675,,
Wavelength (nm),Absorbance (AU),Reference Signal (unitless),Sample Signal (unitless)
901.51,0.071681,108485,91979
905.376,0.078453,121306,101258
909.237,0.080535,131909,109582
913.095,0.080846,143299,118959
916.948,0.080742,156982,130349
922.079,0.082357,179937,148855
925.923,0.084489,200504,165057
929.762,0.085087,222660,183044
933.597,0.083935,244426,201471
937.427,0.084013,263972,217543
941.254,0.083025,281845,232801
945.076,0.082682,297271,245737
950.165,0.081823,315605,261409
953.978,0.079828,328029,272951
957.786,0.080982,340470,282551
961.59,0.081194,352317,292240
965.389,0.080377,363056,301715
969.185,0.081272,373162,309475
972.976,0.081865,382632,316896
976.763,0.082201,391202,323743
981.806,0.082324,400190,331087
985.583,0.083190,406088,335297
989.355,0.083152,410162,338691
993.124,0.084136,412868,340154
996.888,0.084358,414263,341129
1000.65,0.084703,415476,341856
1004.4,0.086072,415479,340782
1009.41,0.087473,414358,338768
1013.15,0.087782,412923,337355
1016.89,0.088754,411526,335462
1020.63,0.088170,409066,333905
1024.36,0.088565,406777,331735
1028.09,0.088503,404427,329866
1031.82,0.088092,401911,328124
1036.78,0.088193,398410,325190
1040.49,0.087293,396204,324060
1044.2,0.087756,394236,322107
1047.91,0.087496,392042,320506
1051.61,0.086746,389823,319243
1055.31,0.086477,388234,318139
1059,0.085770,387599,318136
1063.92,0.085144,386688,317846
1067.61,0.084614,386598,318160
1071.29,0.084139,387377,319150
1074.96,0.083839,388536,320326
1078.63,0.083382,389855,321752
1082.3,0.082596,391215,323459
1085.96,0.081915,393215,325623
1090.84,0.080790,396270,329004
1094.49,0.080212,398760,331512
1098.14,0.079471,400987,333933
1101.79,0.079315,403477,336127
1105.43,0.079236,406116,338387
1109.06,0.078302,407701,340439
1112.7,0.078158,409859,342355
1117.53,0.077609,412494,344992
1121.15,0.078461,414909,346331
1124.77,0.078628,416559,347575
1128.38,0.079341,418532,348648
1131.99,0.080404,419956,348979
1135.6,0.082545,421946,348909
1139.2,0.083476,423881,349758
1143.99,0.085359,426786,350632
1147.58,0.086533,428617,351185
1151.17,0.087161,431169,352766
1154.75,0.088593,433579,353570
1158.33,0.090007,436264,354603
1161.91,0.091305,439132,355869
1165.48,0.093795,442389,356459
1169.04,0.096121,446101,357530
1173.79,0.099429,451929,359452
1177.34,0.101366,456026,361097
1180.9,0.103678,461306,363338
1184.44,0.105148,467657,367096
1187.99,0.105931,473969,371380
1191.52,0.106190,479856,375769
1195.06,0.105860,487372,381945
1199.76,0.105198,497347,390357
1203.29,0.104478,504311,396479
1206.81,0.103862,511507,402707
1210.33,0.103137,519078,409351
1213.84,0.102834,527163,416017
1217.35,0.102271,534208,422123
1220.85,0.101484,540472,427848
1225.51,0.100309,549929,436513
1229.01,0.100096,556888,442254
1232.5,0.099701,562180,446863
1235.98,0.099269,567975,451919
1239.46,0.098334,574815,458347
1242.94,0.097194,582782,465921
1246.41,0.096789,591476,473313
1251.03,0.096644,604016,483509
1254.5,0.096810,612289,489944
1257.96,0.097201,619125,494968
1261.41,0.097561,624551,498892
1264.86,0.098083,629900,502561
1268.31,0.098667,634345,505427
1271.75,0.099613,638574,507690
1276.33,0.099671,642499,510742
1279.76,0.099251,645905,513946
1283.19,0.098897,648307,516278
1286.61,0.098793,650446,518106
1290.03,0.098473,652132,519831
1293.44,0.097383,653907,522556
1296.85,0.097432,655963,524140
1301.39,0.097341,657349,525357
1304.8,0.097647,657558,525154
1308.19,0.098017,658515,525471
1311.58,0.098024,658804,525693
1314.97,0.098840,659011,524871
1318.36,0.098876,658272,524239
1321.73,0.099506,658022,523280
1326.23,0.100243,657870,522273
1329.6,0.101316,656482,519885
1332.97,0.102437,654926,517315
1336.33,0.103671,653727,514903
1339.69,0.105335,652497,511969
1343.04,0.106539,649913,508530
1346.39,0.108790,647671,504155
1349.73,0.110876,645338,499932
1354.18,0.113799,641175,493376
1357.52,0.116263,638376,488443
1360.85,0.117702,635805,484866
1364.17,0.120118,633413,480362
1367.49,0.122308,631026,476145
1370.81,0.124554,628050,471455
1374.12,0.126588,625034,466999
1378.54,0.129884,620272,459937
1381.84,0.133496,616892,453642
1385.14,0.137584,613613,447003
1388.43,0.141552,611526,441431
1391.72,0.146643,610663,435671
1395.01,0.151595,610634,430711
1398.29,0.157558,611700,425579
1402.66,0.164576,614051,420367
1405.93,0.170949,616268,415739
1409.2,0.176159,617795,411799
1412.46,0.181499,618872,407476
1415.72,0.186642,619795,403279
1418.98,0.190268,620495,400378
1422.23,0.194233,621087,397118
1426.56,0.198593,621375,393333
1429.8,0.201126,621616,391198
1433.04,0.203855,622129,389068
1436.27,0.206500,621526,386331
1439.5,0.208072,621113,384679
1442.72,0.211073,620921,381912
1445.94,0.213021,620270,379804
1450.23,0.216125,618860,376242
1453.44,0.219212,617697,372875
1456.64,0.221914,616264,369703
1459.85,0.224641,614413,366285
1463.04,0.226397,612307,363557
1466.24,0.229331,610032,359767
1469.43,0.232700,607345,355415
1473.67,0.237854,603789,349165
1476.85,0.242262,601175,344143
1480.02,0.246885,597737,338552
1483.19,0.252760,594479,332182
1486.36,0.257865,591232,326507
1489.52,0.261008,587853,322300
1492.68,0.264143,583875,317817
1496.89,0.265590,578062,313606
1500.03,0.266564,574159,310791
1503.18,0.266181,570285,308966
1506.32,0.265424,565444,306878
1509.45,0.264764,560571,304696
1512.58,0.262469,555821,303715
1515.71,0.260104,550344,302364
1519.87,0.258050,543983,300286
1522.99,0.254723,538764,299692
1526.1,0.252814,533692,298179
1529.21,0.250498,527902,296521
1532.32,0.247564,521886,295129
1535.42,0.244450,515888,293836
1538.51,0.241098,509987,292726
1541.6,0.238466,503936,291011
1545.72,0.235092,494694,287902
1548.8,0.231974,488378,286274
1551.88,0.229464,481832,284074
1554.95,0.228532,474989,280641
1558.02,0.226489,467818,277708
1561.08,0.224520,460730,274743
1564.15,0.223767,454170,271301
1568.22,0.222265,444181,266253
1571.27,0.221882,436947,262148
1574.32,0.221515,429598,257957
1577.36,0.219829,422039,254404
1580.4,0.218496,414375,250552
1583.43,0.216468,406354,246852
1586.46,0.215226,398475,242759
1590.49,0.212709,388982,238353
1593.51,0.210766,380708,234329
1596.53,0.208867,372727,230422
1599.54,0.206993,365060,226658
1602.55,0.206365,357543,222312
1605.55,0.203082,349495,218957
1608.55,0.200379,341154,215066
1612.54,0.198060,330877,209704
1615.53,0.197659,322904,204840
1618.51,0.196698,315116,200342
1621.49,0.196139,307217,195572
1624.47,0.193652,299481,191742
1627.44,0.192416,292112,187557
1630.41,0.192030,284245,182668
1634.36,0.190696,274079,176677
1637.32,0.189364,266916,172588
1640.27,0.188703,259612,168121
1643.22,0.189849,251804,162635
1646.16,0.188764,244348,158214
1649.1,0.186957,236703,153903
1652.04,0.184270,228171,149276
1655.95,0.181821,215408,141723
1658.88,0.183606,204937,134281
1661.8,0.173127,193395,129813
1664.72,0.165538,179728,122766
1667.63,0.153499,163642,114920
1670.54,0.139925,146312,106012
1673.44,0.123985,128451,96550
1677.31,0.103102,105080,82874
1680.21,0.092692,88906,71819
1683.1,0.087827,75033,61295
1685.99,0.092683,63520,51313
1688.87,0.090472,53714,43613
1691.75,0.097843,45653,36444
1694.62,0.101759,39137,30962
1697.49,0.109198,33776,26267
1701.31,0.109241,28175,21909