File: samples/wool/wool-000811/Column 1_050550_20150331_115942.csv
Method:,Column 1,,
Host Date-Time:,31/3/15 @ 11:59:42,,
Header Version:,1,,
System Temp (C):,33.29,,
Detector Temp (C):,32.12,,
Humidity (%):,2.15,,
Lamp PD:,3822,,
Shift Vector Coefficients:,-10.5391,0.0761263,-0.000134223,,
Pixel to Wavelength Coefficients:,1775.68,-0.916766,-0.000235065,,
Serial Number:,5510004,,
Scan Config Name:,Column 1,,
Scan Config Type:,Slew,,
Section 1,,
Start wavelength (nm):,900,,
End wavelength (nm):,1700,,
Pattern Pixel Width (nm):,   7.03,,,,
Exposure (ms):,  0.635,,,,
Digital Resolution:,228,,
Num Repeats:,6,,
PGA Gain:,64,,
Total Measurement Time in sec:,  2.687,,
Wavelength (nm),Absorbance (AU),Reference Signal (unitless),Sample Signal (unitless)
901.51,0.045826,108485,97621
905.376,0.051582,121306,107721
909.237,0.052560,131909,116873
913.095,0.052214,143299,127066
916.948,0.054040,156982,138615
922.079,0.055151,179937,158478
925.923,0.055093,200504,176616
929.762,0.055519,222660,195940
933.597,0.056584,244426,214567
937.427,0.055799,263972,232145
941.254,0.055725,281845,247905
945.076,0.056261,297271,261151
950.165,0.055137,315605,277976
953.978,0.054735,328029,289186
957.786,0.054651,340470,300212
961.59,0.055327,352317,310175
965.389,0.055737,363056,319328
969.185,0.055707,373162,328239
972.976,0.056341,382632,336078
976.763,0.057294,391202,342852
981.806,0.056903,400190,351045
985.583,0.058258,406088,355109
989.355,0.058357,410162,358590
993.124,0.059293,412868,360179
996.888,0.060165,414263,360671
1000.65,0.060666,415476,361310
1004.4,0.061902,415479,360286
1009.41,0.063697,414358,357832
1013.15,0.063724,412923,356570
1016.89,0.064085,411526,355069
1020.63,0.063992,409066,353022
1024.36,0.063599,406777,351364
1028.09,0.063169,404427,349680
1031.82,0.063060,401911,347592
1036.78,0.062270,398410,345192
1040.49,0.062449,396204,343139
1044.2,0.061486,394236,342192
1047.91,0.060870,392042,340771
1051.61,0.060070,389823,339467
1055.31,0.059743,388234,338338
1059,0.059434,387599,338025
1063.92,0.058498,386688,337958
1067.61,0.056769,386598,339227
1071.29,0.056417,387377,340186
1074.96,0.055326,388536,342062
1078.63,0.055295,389855,343248
1082.3,0.053785,391215,345645
1085.96,0.053369,393215,347745
1090.84,0.052627,396270,351046
1094.49,0.052506,398760,353350
1098.14,0.051305,400987,356308
1101.79,0.051429,403477,358418
1105.43,0.051323,406116,360850
1109.06,0.051060,407701,362478
1112.7,0.050518,409859,364852
1117.53,0.050637,412494,367097
1121.15,0.051870,414909,368199
1124.77,0.051935,416559,369608
1128.38,0.053310,418532,370185
1131.99,0.054834,419956,370143
1135.6,0.056742,421946,370267
1139.2,0.059272,423881,369804
1143.99,0.062120,426786,369905
1147.58,0.062825,428617,370889
1151.17,0.064565,431169,371606
1154.75,0.065860,433579,372570
1158.33,0.068138,436264,372916
1161.91,0.070017,439132,373747
1165.48,0.072929,442389,374003
1169.04,0.075554,446101,374869
1173.79,0.079904,451929,375981
1177.34,0.082539,456026,377095
1180.9,0.085557,461306,378819
1184.44,0.087148,467657,382630
1187.99,0.088513,473969,386578
1191.52,0.087496,479856,392297
1195.06,0.087353,487372,398573
1199.76,0.085929,497347,408066
1203.29,0.084198,504311,415432
1206.81,0.083804,511507,421743
1210.33,0.081677,519078,430086
1213.84,0.081220,527163,437245
1217.35,0.079403,534208,444946
1220.85,0.078847,540472,450740
1225.51,0.077300,549929,460264
1229.01,0.076781,556888,466645
1232.5,0.075758,562180,472191
1235.98,0.075202,567975,477669
1239.46,0.074230,574815,484505
1242.94,0.072523,582782,493155
1246.41,0.071756,591476,501396
1251.03,0.071493,604016,512337
1254.5,0.071757,612289,519038
1257.96,0.071881,619125,524684
1261.41,0.072444,624551,528596
1264.86,0.072966,629900,532483
1268.31,0.073620,634345,535433
1271.75,0.074305,638574,538154
1276.33,0.074850,642499,540782
1279.76,0.074721,645905,543811
1283.19,0.073751,648307,547054
1286.61,0.073624,650446,549019
1290.03,0.073444,652132,550670
1293.44,0.072575,653907,553275
1296.85,0.072173,655963,555528
1301.39,0.072251,657349,556602
1304.8,0.072070,657558,557011
1308.19,0.072681,658515,557038
1311.58,0.072522,658804,557486
1314.97,0.072989,659011,557062
1318.36,0.073338,658272,555990
1321.73,0.074311,658022,554536
1326.23,0.075258,657870,553200
1329.6,0.076337,656482,550663
1332.97,0.077474,654926,547921
1336.33,0.078385,653727,545772
1339.69,0.080294,652497,542356
1343.04,0.082298,649913,537721
1346.39,0.084644,647671,532979
1349.73,0.087105,645338,528059
1354.18,0.090374,641175,520718
1357.52,0.092934,638376,515398
1360.85,0.095079,635805,510793
1364.17,0.097739,633413,505764
1367.49,0.100792,631026,500329
1370.81,0.103377,628050,495014
1374.12,0.106222,625034,489420
1378.54,0.109568,620272,481963
1381.84,0.113359,616892,475171
1385.14,0.118122,613613,467490
1388.43,0.123002,611526,460694
1391.72,0.128105,610663,454670
1395.01,0.133464,610634,449073
1398.29,0.139491,611700,443657
1402.66,0.147807,614051,436915
1405.93,0.154106,616268,432179
1409.2,0.160351,617795,427064
1412.46,0.166060,618872,422222
1415.72,0.170360,619795,418686
1418.98,0.174993,620495,414711
1422.23,0.179409,621087,410907
1426.56,0.183480,621375,407262
1429.8,0.186522,621616,404576
1433.04,0.189719,622129,401940
1436.27,0.192097,621526,399358
1439.5,0.194470,621113,396918
1442.72,0.196877,620921,394602
1445.94,0.199298,620270,391997
1450.23,0.203078,618860,387717
1453.44,0.205790,617697,384579
1456.64,0.209535,616264,380392
1459.85,0.212033,614413,377075
1463.04,0.213897,612307,374173
1466.24,0.217832,610032,369420
1469.43,0.221747,607345,364492
1473.67,0.226999,603789,358003
1476.85,0.232177,601175,352228
1480.02,0.238360,597737,345263
1483.19,0.244924,594479,338230
1486.36,0.250951,591232,331747
1489.52,0.256204,587853,325885
1492.68,0.260114,583875,320779
1496.89,0.263394,578062,315196
1500.03,0.264507,574159,312266
1503.18,0.265353,570285,309556
1506.32,0.263243,565444,308423
1509.45,0.263060,560571,305894
1512.58,0.261175,555821,304621
1515.71,0.259014,550344,303124
1519.87,0.255876,543983,301793
1522.99,0.253388,538764,300615
1526.1,0.250314,533692,299900
1529.21,0.246547,527902,299231
1532.32,0.244255,521886,297386
1535.42,0.240762,515888,296342
1538.51,0.237578,509987,295108
1541.6,0.233824,503936,294138
1545.72,0.228726,494694,292153
1548.8,0.226544,488378,289876
1551.88,0.223551,481832,287968
1554.95,0.220887,474989,285625
1558.02,0.219308,467818,282338
1561.08,0.217632,460730,279135
1564.15,0.217280,454170,275384
1568.22,0.216391,444181,269879
1571.27,0.214593,436947,266585
1574.32,0.213338,429598,262860
1577.36,0.211947,422039,259063
1580.4,0.210748,414375,255062
1583.43,0.208665,406354,251327
1586.46,0.206458,398475,247710
1590.49,0.204366,388982,242976
1593.51,0.202885,380708,238620
1596.53,0.199300,372727,235554
1599.54,0.197813,365060,231500
1602.55,0.194803,357543,228310
1605.55,0.192573,349495,224320
1608.55,0.190484,341154,220022
1612.54,0.187594,330877,214819
1615.53,0.185417,322904,210696
1618.51,0.184009,315116,206282
1621.49,0.182068,307217,202012
1624.47,0.180694,299481,197549
1627.44,0.179455,292112,193239
1630.41,0.178333,284245,188521
1634.36,0.176209,274079,182670
1637.32,0.176216,266916,177893
1640.27,0.175268,259612,173403
1643.22,0.173384,251804,168919
1646.16,0.171764,244348,164530
1649.1,0.171729,236703,159395
1652.04,0.170089,228171,154231
1655.95,0.167896,215408,146341
1658.88,0.164563,204937,140300
1661.8,0.162264,193395,133101
1664.72,0.156765,179728,125271
1667.63,0.148199,163642,116331
1670.54,0.141369,146312,105660
1673.44,0.132232,128451,94734
1677.31,0.122811,105080,79197
1680.21,0.117913,88906,67767
1683.1,0.118814,75033,57074
1685.99,0.121932,63520,47971
1688.87,0.128440,53714,39962
1691.75,0.131105,45653,33757
1694.62,0.136723,39137,28567
1697.49,0.138274,33776,24566
1701.31,0.141855,28175,20324