File: samples/wool/wool-000811/Column 1_050600_20150331_122329.csv
Method:,Column 1,,
Host Date-Time:,31/3/15 @ 12:23:29,,
Header Version:,1,,
System Temp (C):,33.99,,
Detector Temp (C):,34.72,,
Humidity (%):,1.76,,
Lamp PD:,3818,,
Shift Vector Coefficients:,-10.5391,0.0761263,-0.000134223,,
Pixel to Wavelength Coefficients:,1775.68,-0.916766,-0.000235065,,
Serial Number:,5510004,,
Scan Config Name:,Column 1,,
Scan Config Type:,Slew,,
Section 1,,
Start wavelength (nm):,900,,
End wavelength (nm):,1700,,
Pattern Pixel Width (nm):,   7.03,,,,
Exposure (ms):,  0.635,,,,
Digital Resolution:,228,,
Num Repeats:,6,,
PGA Gain:,64,,
Total Measurement Time in sec:,  2.667,,
Wavelength (nm),Absorbance (AU),Reference Signal (unitless),Sample Signal (unitless)
901.51,0.069031,108485,92542
905.376,0.075802,121306,101878
909.237,0.075743,131909,110798
913.095,0.077033,143299,120008
916.948,0.079584,156982,130697
922.079,0.082337,179937,148862
925.923,0.082447,200504,165835
929.762,0.083623,222660,183662
933.597,0.082607,244426,202088
937.427,0.080987,263972,219064
941.254,0.081168,281845,233799
945.076,0.079448,297271,247574
950.165,0.079099,315605,263054
953.978,0.079244,328029,273318
957.786,0.078744,340470,284011
961.59,0.079058,352317,293681
965.389,0.078402,363056,303090
969.185,0.078430,373162,311507
972.976,0.078786,382632,319150
976.763,0.079618,391202,325674
981.806,0.079573,400190,333191
985.583,0.081439,406088,336652
989.355,0.080772,410162,340552
993.124,0.081484,412868,342237
996.888,0.081276,414263,343558
1000.65,0.082459,415476,343627
1004.4,0.083800,415479,342570
1009.41,0.085313,414358,340457
1013.15,0.085228,412923,339345
1016.89,0.085378,411526,338080
1020.63,0.086008,409066,335572
1024.36,0.085813,406777,333844
1028.09,0.085609,404427,332071
1031.82,0.085288,401911,330249
1036.78,0.085536,398410,327186
1040.49,0.085057,396204,325733
1044.2,0.084772,394236,324328
1047.91,0.084807,392042,322497
1051.61,0.083533,389823,321614
1055.31,0.084541,388234,319560
1059,0.083450,387599,319840
1063.92,0.082467,386688,319811
1067.61,0.081795,386598,320232
1071.29,0.081184,387377,321329
1074.96,0.080531,388536,322775
1078.63,0.080290,389855,324051
1082.3,0.080083,391215,325336
1085.96,0.078691,393215,328049
1090.84,0.077721,396270,331337
1094.49,0.078061,398760,333158
1098.14,0.077017,400987,335825
1101.79,0.075759,403477,338891
1105.43,0.075897,406116,340999
1109.06,0.075146,407701,342922
1112.7,0.074288,409859,345419
1117.53,0.074143,412494,347756
1121.15,0.075228,414909,348919
1124.77,0.075267,416559,350275
1128.38,0.076091,418532,351267
1131.99,0.076980,419956,351742
1135.6,0.078517,421946,352160
1139.2,0.079887,423881,352661
1143.99,0.081923,426786,353417
1147.58,0.083104,428617,353969
1151.17,0.083871,431169,355448
1154.75,0.084081,433579,357262
1158.33,0.085663,436264,358168
1161.91,0.087795,439132,358757
1165.48,0.089583,442389,359933
1169.04,0.092058,446101,360890
1173.79,0.095878,451929,362403
1177.34,0.097776,456026,364094
1180.9,0.099593,461306,366772
1184.44,0.100833,467657,370761
1187.99,0.102438,473969,374379
1191.52,0.102484,479856,378989
1195.06,0.102642,487372,384785
1199.76,0.101696,497347,393517
1203.29,0.101036,504311,399634
1206.81,0.100679,511507,405670
1210.33,0.099321,519078,412963
1213.84,0.099152,527163,419559
1217.35,0.098479,534208,425825
1220.85,0.098000,540472,431294
1225.51,0.096952,549929,439901
1229.01,0.096498,556888,445933
1232.5,0.096210,562180,450470
1235.98,0.095633,567975,455718
1239.46,0.096470,574815,460318
1242.94,0.093345,582782,470068
1246.41,0.093035,591476,477422
1251.03,0.092672,604016,487951
1254.5,0.093281,612289,493941
1257.96,0.093402,619125,499317
1261.41,0.094041,624551,502952
1264.86,0.094659,629900,506539
1268.31,0.094946,634345,509776
1271.75,0.095656,638574,512336
1276.33,0.096002,642499,515075
1279.76,0.095844,645905,517994
1283.19,0.094991,648307,520942
1286.61,0.095042,650446,522600
1290.03,0.094420,652132,524705
1293.44,0.093788,653907,526900
1296.85,0.093607,655963,528777
1301.39,0.093483,657349,530045
1304.8,0.093230,657558,530523
1308.19,0.093774,658515,530630
1311.58,0.093917,658804,530688
1314.97,0.094168,659011,530548
1318.36,0.094499,658272,529549
1321.73,0.094612,658022,529210
1326.23,0.096160,657870,527206
1329.6,0.096708,656482,525430
1332.97,0.097741,654926,522939
1336.33,0.098248,653727,521373
1339.69,0.099916,652497,518397
1343.04,0.101472,649913,514497
1346.39,0.103669,647671,510135
1349.73,0.105351,645338,506333
1354.18,0.108387,641175,499562
1357.52,0.110296,638376,495200
1360.85,0.112196,635805,491053
1364.17,0.114831,633413,486246
1367.49,0.116457,631026,482603
1370.81,0.118513,628050,478059
1374.12,0.120957,625034,473093
1378.54,0.123523,620272,466723
1381.84,0.126965,616892,460515
1385.14,0.129918,613613,454963
1388.43,0.133615,611526,449573
1391.72,0.138159,610663,444266
1395.01,0.142012,610634,440321
1398.29,0.146859,611700,436194
1402.66,0.153240,614051,431484
1405.93,0.158376,616268,427951
1409.2,0.162868,617795,424596
1412.46,0.167573,618872,420754
1415.72,0.171894,619795,417209
1418.98,0.175289,620495,414428
1422.23,0.178644,621087,411631
1426.56,0.182275,621375,408393
1429.8,0.184425,621616,406534
1433.04,0.187356,622129,404133
1436.27,0.190290,621526,401023
1439.5,0.191419,621113,399716
1442.72,0.194388,620921,396870
1445.94,0.196459,620270,394568
1450.23,0.199811,618860,390644
1453.44,0.202580,617697,387432
1456.64,0.205329,616264,384094
1459.85,0.207843,614413,380730
1463.04,0.211109,612307,376583
1466.24,0.214253,610032,372477
1469.43,0.218085,607345,367579
1473.67,0.224044,603789,360447
1476.85,0.230216,601175,353822
1480.02,0.235236,597737,347756
1483.19,0.241240,594479,341112
1486.36,0.246832,591232,334908
1489.52,0.251664,587853,329310
1492.68,0.255732,583875,324032
1496.89,0.257499,578062,319503
1500.03,0.257684,574159,317211
1503.18,0.257958,570285,314872
1506.32,0.256892,565444,312966
1509.45,0.255831,560571,311028
1512.58,0.253973,555821,309715
1515.71,0.251986,550344,308069
1519.87,0.248789,543983,306758
1522.99,0.246164,538764,305657
1526.1,0.243407,533692,304708
1529.21,0.240286,527902,303576
1532.32,0.238768,521886,301167
1535.42,0.234997,515888,300302
1538.51,0.232298,509987,298718
1541.6,0.229277,503936,297234
1545.72,0.225214,494694,294525
1548.8,0.222348,488378,292690
1551.88,0.219815,481832,290456
1554.95,0.218102,474989,287463
1558.02,0.216803,467818,283971
1561.08,0.215596,460730,280447
1564.15,0.214888,454170,276905
1568.22,0.214053,444181,271336
1571.27,0.213548,436947,267227
1574.32,0.212409,429598,263423
1577.36,0.211106,422039,259565
1580.4,0.210426,414375,255251
1583.43,0.208880,406354,251203
1586.46,0.207405,398475,247170
1590.49,0.204561,388982,242867
1593.51,0.203313,380708,238385
1596.53,0.200811,372727,234736
1599.54,0.200142,365060,230262
1602.55,0.197182,357543,227063
1605.55,0.195421,349495,222854
1608.55,0.194923,341154,217785
1612.54,0.192326,330877,212491
1615.53,0.189559,322904,208696
1618.51,0.189040,315116,203906
1621.49,0.186919,307217,199768
1624.47,0.187528,299481,194465
1627.44,0.185908,292112,190389
1630.41,0.184731,284245,185764
1634.36,0.184361,274079,179273
1637.32,0.183865,266916,174787
1640.27,0.183314,259612,170220
1643.22,0.181373,251804,165840
1646.16,0.180014,244348,161434
1649.1,0.181143,236703,155977
1652.04,0.178235,228171,151365
1655.95,0.175101,215408,143933
1658.88,0.171546,204937,138062
1661.8,0.166135,193395,131920
1664.72,0.157525,179728,125052
1667.63,0.146103,163642,116894
1670.54,0.131780,146312,108019
1673.44,0.116785,128451,98164
1677.31,0.097339,105080,83981
1680.21,0.085471,88906,73023
1683.1,0.080339,75033,62361
1685.99,0.079718,63520,52868
1688.87,0.081240,53714,44550
1691.75,0.085450,45653,37499
1694.62,0.091282,39137,31718
1697.49,0.091969,33776,27330
1701.31,0.110552,28175,21843