File: samples/wool/wool-000811/Column 1_050577_20150331_121243.csv
Method:,Column 1,,
Host Date-Time:,31/3/15 @ 12:12:43,,
Header Version:,1,,
System Temp (C):,33.82,,
Detector Temp (C):,34.64,,
Humidity (%):,2.25,,
Lamp PD:,3819,,
Shift Vector Coefficients:,-10.5391,0.0761263,-0.000134223,,
Pixel to Wavelength Coefficients:,1775.68,-0.916766,-0.000235065,,
Serial Number:,5510004,,
Scan Config Name:,Column 1,,
Scan Config Type:,Slew,,
Section 1,,
Start wavelength (nm):,900,,
End wavelength (nm):,1700,,
Pattern Pixel Width (nm):,   7.03,,,,
Exposure (ms):,  0.635,,,,
Digital Resolution:,228,,
Num Repeats:,6,,
PGA Gain:,64,,
Total Measurement Time in sec:,  2.721,,
Wavelength (nm),Absorbance (AU),Reference Signal (unitless),Sample Signal (unitless)
901.51,0.072607,108485,91783
905.376,0.077142,121306,101564
909.237,0.080587,131909,109569
913.095,0.080890,143299,118947
916.948,0.081736,156982,130051
922.079,0.084433,179937,148145
925.923,0.083937,200504,165267
929.762,0.084691,222660,183211
933.597,0.083920,244426,201478
937.427,0.083574,263972,217763
941.254,0.083068,281845,232778
945.076,0.082064,297271,246087
950.165,0.082132,315605,261223
953.978,0.080874,328029,272294
957.786,0.081051,340470,282506
961.59,0.081954,352317,291729
965.389,0.081237,363056,301118
969.185,0.081550,373162,309277
972.976,0.082018,382632,316784
976.763,0.081987,391202,323902
981.806,0.082745,400190,330766
985.583,0.083744,406088,334870
989.355,0.083859,410162,338140
993.124,0.084592,412868,339797
996.888,0.084517,414263,341004
1000.65,0.085893,415476,340920
1004.4,0.086406,415479,340520
1009.41,0.088146,414358,338244
1013.15,0.088072,412923,337130
1016.89,0.089048,411526,335235
1020.63,0.089061,409066,333221
1024.36,0.088784,406777,331568
1028.09,0.088537,404427,329840
1031.82,0.087810,401911,328337
1036.78,0.088256,398410,325143
1040.49,0.087820,396204,323667
1044.2,0.087695,394236,322152
1047.91,0.087193,392042,320730
1051.61,0.087099,389823,318984
1055.31,0.086608,388234,318043
1059,0.086435,387599,317649
1063.92,0.085529,386688,317564
1067.61,0.085214,386598,317721
1071.29,0.085365,387377,318250
1074.96,0.084580,388536,319780
1078.63,0.082888,389855,322118
1082.3,0.082292,391215,323686
1085.96,0.081926,393215,325615
1090.84,0.081206,396270,328689
1094.49,0.080902,398760,330986
1098.14,0.079941,400987,333572
1101.79,0.079917,403477,335662
1105.43,0.078972,406116,338593
1109.06,0.078482,407701,340298
1112.7,0.078417,409859,342151
1117.53,0.078294,412494,344448
1121.15,0.078187,414909,346550
1124.77,0.078668,416559,347543
1128.38,0.079894,418532,348205
1131.99,0.080356,419956,349018
1135.6,0.082193,421946,349192
1139.2,0.083948,423881,349378
1143.99,0.085625,426786,350417
1147.58,0.086364,428617,351322
1151.17,0.087661,431169,352360
1154.75,0.088728,433579,353460
1158.33,0.090280,436264,354380
1161.91,0.092362,439132,355004
1165.48,0.094725,442389,355696
1169.04,0.096360,446101,357333
1173.79,0.100120,451929,358881
1177.34,0.101801,456026,360735
1180.9,0.103860,461306,363186
1184.44,0.105843,467657,366509
1187.99,0.106561,473969,370842
1191.52,0.106661,479856,375362
1195.06,0.106617,487372,381280
1199.76,0.105795,497347,389820
1203.29,0.104885,504311,396108
1206.81,0.104431,511507,402180
1210.33,0.103814,519078,408713
1213.84,0.103530,527163,415351
1217.35,0.103166,534208,421254
1220.85,0.102219,540472,427124
1225.51,0.101735,549929,435083
1229.01,0.101138,556888,441194
1232.5,0.100442,562180,446101
1235.98,0.099830,567975,451335
1239.46,0.098569,574815,458099
1242.94,0.097623,582782,465461
1246.41,0.097069,591476,473008
1251.03,0.096896,604016,483228
1254.5,0.097064,612289,489657
1257.96,0.097658,619125,494448
1261.41,0.098084,624551,498292
1264.86,0.098870,629900,501651
1268.31,0.099033,634345,505001
1271.75,0.099621,638574,507680
1276.33,0.100011,642499,510342
1279.76,0.100050,645905,513001
1283.19,0.099751,648307,515264
1286.61,0.099081,650446,517762
1290.03,0.098442,652132,519868
1293.44,0.098081,653907,521717
1296.85,0.097959,655963,523504
1301.39,0.098028,657349,524527
1304.8,0.098139,657558,524560
1308.19,0.098268,658515,525167
1311.58,0.098255,658804,525414
1314.97,0.098921,659011,524773
1318.36,0.099503,658272,523483
1321.73,0.100115,658022,522547
1326.23,0.100612,657870,521829
1329.6,0.101881,656482,519208
1332.97,0.103056,654926,516578
1336.33,0.104128,653727,514362
1339.69,0.106018,652497,511164
1343.04,0.107734,649913,507132
1346.39,0.109754,647671,503038
1349.73,0.111634,645338,499061
1354.18,0.114532,641175,492543
1357.52,0.116642,638376,488016
1360.85,0.118819,635805,483621
1364.17,0.120724,633413,479693
1367.49,0.122884,631026,475514
1370.81,0.124996,628050,470975
1374.12,0.127020,625034,466534
1378.54,0.130692,620272,459082
1381.84,0.133999,616892,453117
1385.14,0.137977,613613,446599
1388.43,0.142313,611526,440658
1391.72,0.147529,610663,434783
1395.01,0.152892,610634,429427
1398.29,0.158386,611700,424769
1402.66,0.166109,614051,418886
1405.93,0.171866,616268,414862
1409.2,0.177774,617795,410271
1412.46,0.183563,618872,405544
1415.72,0.188038,619795,401985
1418.98,0.192114,620495,398680
1422.23,0.196305,621087,395228
1426.56,0.200683,621375,391445
1429.8,0.203400,621616,389155
1433.04,0.205584,622129,387522
1436.27,0.208395,621526,384649
1439.5,0.210388,621113,382633
1442.72,0.212746,620921,380444
1445.94,0.215446,620270,377689
1450.23,0.218968,618860,373787
1453.44,0.220653,617697,371640
1456.64,0.224095,616264,367851
1459.85,0.226427,614413,364782
1463.04,0.228879,612307,361485
1466.24,0.231015,610032,358375
1469.43,0.235020,607345,353521
1473.67,0.239362,603789,347955
1476.85,0.244053,601175,342727
1480.02,0.248283,597737,337464
1483.19,0.253830,594479,331365
1486.36,0.258756,591232,325838
1489.52,0.263052,587853,320787
1492.68,0.265344,583875,316939
1496.89,0.267689,578062,312094
1500.03,0.267428,574159,310173
1503.18,0.268010,570285,307668
1506.32,0.266654,565444,306010
1509.45,0.264747,560571,304708
1512.58,0.263482,555821,303007
1515.71,0.261230,550344,301581
1519.87,0.258886,543983,299709
1522.99,0.256360,538764,298565
1526.1,0.255190,533692,296552
1529.21,0.251380,527902,295919
1532.32,0.248257,521886,294658
1535.42,0.245992,515888,292795
1538.51,0.242646,509987,291684
1541.6,0.240052,503936,289950
1545.72,0.236220,494694,287155
1548.8,0.232546,488378,285897
1551.88,0.230651,481832,283299
1554.95,0.228737,474989,280509
1558.02,0.226881,467818,277457
1561.08,0.225509,460730,274118
1564.15,0.225204,454170,270405
1568.22,0.223146,444181,265714
1571.27,0.223259,436947,261318
1574.32,0.222172,429598,257567
1577.36,0.221241,422039,253578
1580.4,0.219330,414375,250071
1583.43,0.217796,406354,246098
1586.46,0.216613,398475,241985
1590.49,0.214330,388982,237465
1593.51,0.212610,380708,233336
1596.53,0.209954,372727,229846
1599.54,0.208681,365060,225779
1602.55,0.205520,357543,222745
1605.55,0.203320,349495,218837
1608.55,0.202099,341154,214216
1612.54,0.200186,330877,208680
1615.53,0.198488,322904,204449
1618.51,0.196683,315116,200349
1621.49,0.196681,307217,195328
1624.47,0.194511,299481,191363
1627.44,0.193933,292112,186903
1630.41,0.192778,284245,182354
1634.36,0.192104,274079,176105
1637.32,0.191311,266916,171816
1640.27,0.189491,259612,167816
1643.22,0.188931,251804,162979
1646.16,0.188240,244348,158405
1649.1,0.188081,236703,153505
1652.04,0.186341,228171,148566
1655.95,0.183566,215408,141155
1658.88,0.178797,204937,135776
1661.8,0.174243,193395,129480
1664.72,0.165619,179728,122743
1667.63,0.152940,163642,115068
1670.54,0.139724,146312,106061
1673.44,0.125287,128451,96261
1677.31,0.105071,105080,82499
1680.21,0.094510,88906,71519
1683.1,0.087063,75033,61403
1685.99,0.089269,63520,51718
1688.87,0.094523,53714,43208
1691.75,0.099216,45653,36329
1694.62,0.104672,39137,30755
1697.49,0.110738,33776,26174
1701.31,0.114928,28175,21624