File: samples/wool/wool-000811/Column 1_050629_20150331_123723.csv
Method:,Column 1,,
Host Date-Time:,31/3/15 @ 12:37:23,,
Header Version:,1,,
System Temp (C):,34.12,,
Detector Temp (C):,35.06,,
Humidity (%):,1.56,,
Lamp PD:,3818,,
Shift Vector Coefficients:,-10.5391,0.0761263,-0.000134223,,
Pixel to Wavelength Coefficients:,1775.68,-0.916766,-0.000235065,,
Serial Number:,5510004,,
Scan Config Name:,Column 1,,
Scan Config Type:,Slew,,
Section 1,,
Start wavelength (nm):,900,,
End wavelength (nm):,1700,,
Pattern Pixel Width (nm):,   7.03,,,,
Exposure (ms):,  0.635,,,,
Digital Resolution:,228,,
Num Repeats:,6,,
PGA Gain:,64,,
Total Measurement Time in sec:,  2.668,,
Wavelength (nm),Absorbance (AU),Reference Signal (unitless),Sample Signal (unitless)
901.51,0.069853,108485,92367
905.376,0.075879,121306,101860
909.237,0.078180,131909,110178
913.095,0.078076,143299,119720
916.948,0.079252,156982,130797
922.079,0.081325,179937,149209
925.923,0.081756,200504,166099
929.762,0.083559,222660,183689
933.597,0.081858,244426,202437
937.427,0.080959,263972,219078
941.254,0.080846,281845,233972
945.076,0.078843,297271,247919
950.165,0.078376,315605,263492
953.978,0.076374,328029,275130
957.786,0.078372,340470,284254
961.59,0.077679,352317,294615
965.389,0.077157,363056,303960
969.185,0.077847,373162,311925
972.976,0.077668,382632,319973
976.763,0.078199,391202,326740
981.806,0.079161,400190,333507
985.583,0.079530,406088,338135
989.355,0.079903,410162,341234
993.124,0.080299,412868,343172
996.888,0.080597,414263,344096
1000.65,0.081616,415476,344294
1004.4,0.082989,415479,343210
1009.41,0.084013,414358,341478
1013.15,0.084123,412923,340209
1016.89,0.084998,411526,338376
1020.63,0.084842,409066,336474
1024.36,0.084567,406777,334803
1028.09,0.083953,404427,333340
1031.82,0.084298,401911,331003
1036.78,0.083824,398410,328478
1040.49,0.084167,396204,326401
1044.2,0.083888,394236,324989
1047.91,0.083832,392042,323222
1051.61,0.082536,389823,322353
1055.31,0.082982,388234,320709
1059,0.081778,387599,321074
1063.92,0.081815,386688,320292
1067.61,0.080751,386598,321003
1071.29,0.079786,387377,322365
1074.96,0.079537,388536,323515
1078.63,0.078846,389855,325130
1082.3,0.077873,391215,326996
1085.96,0.076848,393215,329444
1090.84,0.076418,396270,332333
1094.49,0.075523,398760,335111
1098.14,0.075687,400987,336855
1101.79,0.074382,403477,339967
1105.43,0.074095,406116,342417
1109.06,0.074161,407701,343701
1112.7,0.073733,409859,345861
1117.53,0.073023,412494,348654
1121.15,0.073437,414909,350361
1124.77,0.074102,416559,351216
1128.38,0.075237,418532,351959
1131.99,0.075950,419956,352577
1135.6,0.077189,421946,353238
1139.2,0.078637,423881,353677
1143.99,0.080577,426786,354514
1147.58,0.080815,428617,355840
1151.17,0.081971,431169,357007
1154.75,0.082643,433579,358447
1158.33,0.084035,436264,359513
1161.91,0.085777,439132,360428
1165.48,0.088091,442389,361171
1169.04,0.090111,446101,362512
1173.79,0.093254,451929,364600
1177.34,0.095900,456026,365670
1180.9,0.098043,461306,368083
1184.44,0.099564,467657,371846
1187.99,0.101139,473969,375501
1191.52,0.100717,479856,380534
1195.06,0.100340,487372,386830
1199.76,0.100140,497347,394929
1203.29,0.098731,504311,401761
1206.81,0.098832,511507,407399
1210.33,0.098438,519078,413804
1213.84,0.097451,527163,421205
1217.35,0.097216,534208,427065
1220.85,0.096291,540472,432994
1225.51,0.095303,549929,441574
1229.01,0.094694,556888,447789
1232.5,0.093960,562180,452809
1235.98,0.093922,567975,457517
1239.46,0.092555,574815,464486
1242.94,0.091835,582782,471706
1246.41,0.090931,591476,479740
1251.03,0.091035,604016,489794
1254.5,0.091170,612289,496348
1257.96,0.091556,619125,501444
1261.41,0.092440,624551,504810
1264.86,0.093938,629900,507380
1268.31,0.093137,634345,511904
1271.75,0.093874,638574,514443
1276.33,0.093925,642499,517544
1279.76,0.093920,645905,520294
1283.19,0.093233,648307,523056
1286.61,0.093056,650446,524995
1290.03,0.092644,652132,526855
1293.44,0.091879,653907,529221
1296.85,0.092142,655963,530563
1301.39,0.091742,657349,532175
1304.8,0.091417,657558,532742
1308.19,0.092095,658515,532685
1311.58,0.091508,658804,533640
1314.97,0.092118,659011,533058
1318.36,0.092702,658272,531745
1321.73,0.092598,658022,531670
1326.23,0.093528,657870,530410
1329.6,0.094171,656482,528508
1332.97,0.094956,654926,526303
1336.33,0.096180,653727,523862
1339.69,0.097523,652497,521261
1343.04,0.098816,649913,517654
1346.39,0.100762,647671,513561
1349.73,0.102473,645338,509699
1354.18,0.105772,641175,502579
1357.52,0.107349,638376,498572
1360.85,0.109646,635805,493944
1364.17,0.111610,633413,489866
1367.49,0.113187,631026,486251
1370.81,0.115697,628050,481169
1374.12,0.117809,625034,476535
1378.54,0.120339,620272,470157
1381.84,0.123221,616892,464503
1385.14,0.126501,613613,458557
1388.43,0.129538,611526,453813
1391.72,0.132967,610663,449609
1395.01,0.137282,610634,445142
1398.29,0.141039,611700,442079
1402.66,0.147292,614051,437434
1405.93,0.151739,616268,434541
1409.2,0.156404,617795,430963
1412.46,0.160175,618872,427982
1415.72,0.164270,619795,424598
1418.98,0.167215,620495,422205
1422.23,0.170694,621087,419236
1426.56,0.174268,621375,415993
1429.8,0.176730,621616,413802
1433.04,0.179972,622129,411063
1436.27,0.181506,621526,409217
1439.5,0.183236,621113,407319
1442.72,0.186236,620921,404390
1445.94,0.188610,620270,401764
1450.23,0.191845,618860,397876
1453.44,0.194474,617697,394731
1456.64,0.198073,616264,390565
1459.85,0.200986,614413,386789
1463.04,0.203426,612307,383304
1466.24,0.207366,610032,378431
1469.43,0.210835,607345,373767
1473.67,0.217840,603789,365633
1476.85,0.223640,601175,359220
1480.02,0.230471,597737,351592
1483.19,0.236545,594479,344819
1486.36,0.242746,591232,338074
1489.52,0.247787,587853,332263
1492.68,0.251310,583875,327348
1496.89,0.253284,578062,322619
1500.03,0.253462,574159,320310
1503.18,0.254599,570285,317317
1506.32,0.253105,565444,315707
1509.45,0.251271,560571,314311
1512.58,0.250331,555821,312323
1515.71,0.247786,550344,311063
1519.87,0.244946,543983,309485
1522.99,0.242703,538764,308103
1526.1,0.240035,533692,307083
1529.21,0.237139,527902,305784
1532.32,0.233973,521886,304511
1535.42,0.230640,515888,303330
1538.51,0.228031,509987,301667
1541.6,0.225561,503936,299788
1545.72,0.221234,494694,297237
1548.8,0.218309,488378,295425
1551.88,0.215896,481832,293089
1554.95,0.213642,474989,290430
1558.02,0.212605,467818,286729
1561.08,0.211027,460730,283413
1564.15,0.210944,454170,279431
1568.22,0.209076,444181,274463
1571.27,0.210076,436947,269372
1574.32,0.208705,429598,265679
1577.36,0.207907,422039,261484
1580.4,0.209249,414375,255944
1583.43,0.204844,406354,253548
1586.46,0.203404,398475,249458
1590.49,0.202091,388982,244252
1593.51,0.199609,380708,240427
1596.53,0.197602,372727,236477
1599.54,0.195230,365060,232881
1602.55,0.193277,357543,229114
1605.55,0.191805,349495,224717
1608.55,0.190321,341154,220105
1612.54,0.187543,330877,214844
1615.53,0.185858,322904,210482
1618.51,0.185530,315116,205561
1621.49,0.185463,307217,200439
1624.47,0.183668,299481,196201
1627.44,0.182785,292112,191763
1630.41,0.181675,284245,187076
1634.36,0.180504,274079,180872
1637.32,0.180978,266916,175953
1640.27,0.178655,259612,172056
1643.22,0.178232,251804,167044
1646.16,0.176891,244348,162599
1649.1,0.177613,236703,157250
1652.04,0.174840,228171,152553
1655.95,0.172838,215408,144685
1658.88,0.166443,204937,139694
1661.8,0.164043,193395,132557
1664.72,0.155965,179728,125502
1667.63,0.142469,163642,117876
1670.54,0.128280,146312,108893
1673.44,0.112927,128451,99040
1677.31,0.092214,105080,84978
1680.21,0.078896,88906,74137
1683.1,0.073924,75033,63289
1685.99,0.071943,63520,53823
1688.87,0.077107,53714,44976
1691.75,0.083163,45653,37697
1694.62,0.086814,39137,32046
1697.49,0.092366,33776,27305
1701.31,0.107718,28175,21986