File: samples/wool/wool-000811/Column 1_050571_20150331_120955.csv
Method:,Column 1,,
Host Date-Time:,31/3/15 @ 12:9:55,,
Header Version:,1,,
System Temp (C):,34.1,,
Detector Temp (C):,34.15,,
Humidity (%):,1.76,,
Lamp PD:,3818,,
Shift Vector Coefficients:,-10.5391,0.0761263,-0.000134223,,
Pixel to Wavelength Coefficients:,1775.68,-0.916766,-0.000235065,,
Serial Number:,5510004,,
Scan Config Name:,Column 1,,
Scan Config Type:,Slew,,
Section 1,,
Start wavelength (nm):,900,,
End wavelength (nm):,1700,,
Pattern Pixel Width (nm):,   7.03,,,,
Exposure (ms):,  0.635,,,,
Digital Resolution:,228,,
Num Repeats:,6,,
PGA Gain:,64,,
Total Measurement Time in sec:,  2.676,,
Wavelength (nm),Absorbance (AU),Reference Signal (unitless),Sample Signal (unitless)
901.51,0.033398,108485,100455
905.376,0.041910,121306,110147
909.237,0.042572,131909,119592
913.095,0.043833,143299,129542
916.948,0.044915,156982,141558
922.079,0.047282,179937,161376
925.923,0.047679,200504,179657
929.762,0.049422,222660,198710
933.597,0.049707,244426,217992
937.427,0.049925,263972,235306
941.254,0.048317,281845,252170
945.076,0.047596,297271,266414
950.165,0.046471,315605,283578
953.978,0.046562,328029,294680
957.786,0.046822,340470,305673
961.59,0.047160,352317,316063
965.389,0.047289,363056,325600
969.185,0.047025,373162,334867
972.976,0.047492,382632,342996
976.763,0.048128,391202,350165
981.806,0.048352,400190,358026
985.583,0.048905,406088,362840
989.355,0.049684,410162,365823
993.124,0.050437,412868,367599
996.888,0.050787,414263,368544
1000.65,0.051676,415476,368867
1004.4,0.052674,415479,368023
1009.41,0.054790,414358,365246
1013.15,0.054621,412923,364123
1016.89,0.054956,411526,362611
1020.63,0.054956,409066,360444
1024.36,0.054592,406777,358727
1028.09,0.054767,404427,356511
1031.82,0.054489,401911,354520
1036.78,0.053649,398410,352112
1040.49,0.053264,396204,350473
1044.2,0.053783,394236,348316
1047.91,0.053152,392042,346881
1051.61,0.052618,389823,345342
1055.31,0.051940,388234,344472
1059,0.051234,387599,344468
1063.92,0.050232,386688,344452
1067.61,0.049725,386598,344774
1071.29,0.049382,387377,345742
1074.96,0.048618,388536,347387
1078.63,0.047767,389855,349250
1082.3,0.047553,391215,350641
1085.96,0.046464,393215,353318
1090.84,0.045870,396270,356551
1094.49,0.045709,398760,358924
1098.14,0.045510,400987,361094
1101.79,0.044739,403477,363982
1105.43,0.045214,406116,365962
1109.06,0.043875,407701,368525
1112.7,0.043818,409859,370524
1117.53,0.044178,412494,372597
1121.15,0.044786,414909,374254
1124.77,0.045156,416559,375423
1128.38,0.046455,418532,376074
1131.99,0.048424,419956,375647
1135.6,0.049291,421946,376674
1139.2,0.051549,423881,376439
1143.99,0.053839,426786,377026
1147.58,0.055233,428617,377430
1151.17,0.056859,431169,378258
1154.75,0.057930,433579,379436
1158.33,0.059180,436264,380688
1161.91,0.061280,439132,381342
1165.48,0.063866,442389,381890
1169.04,0.065983,446101,383222
1173.79,0.069877,451929,384763
1177.34,0.072532,456026,385885
1180.9,0.074785,461306,388333
1184.44,0.076778,467657,391877
1187.99,0.077479,473969,396525
1191.52,0.077202,479856,401707
1195.06,0.077500,487372,407719
1199.76,0.075782,497347,417713
1203.29,0.074900,504311,424423
1206.81,0.074466,511507,430909
1210.33,0.073650,519078,438109
1213.84,0.072966,527163,445635
1217.35,0.072124,534208,452466
1220.85,0.071208,540472,458738
1225.51,0.070274,549929,467770
1229.01,0.069953,556888,474040
1232.5,0.068884,562180,479724
1235.98,0.068355,567975,485260
1239.46,0.067389,574815,492197
1242.94,0.066546,582782,499989
1246.41,0.065780,591476,508343
1251.03,0.065338,604016,519650
1254.5,0.065430,612289,526655
1257.96,0.066279,619125,531495
1261.41,0.067129,624551,535105
1264.86,0.067606,629900,539095
1268.31,0.068082,634345,542305
1271.75,0.068742,638574,545091
1276.33,0.068962,642499,548164
1279.76,0.068887,645905,551165
1283.19,0.068426,648307,553802
1286.61,0.068296,650446,555796
1290.03,0.067766,652132,557917
1293.44,0.067138,653907,560245
1296.85,0.067040,655963,562133
1301.39,0.067063,657349,563291
1304.8,0.066726,657558,563908
1308.19,0.066901,658515,564501
1311.58,0.067251,658804,564294
1314.97,0.067651,659011,563951
1318.36,0.068243,658272,562552
1321.73,0.068357,658022,562190
1326.23,0.069301,657870,560840
1329.6,0.069774,656482,559048
1332.97,0.071311,654926,555752
1336.33,0.072333,653727,553431
1339.69,0.073835,652497,550482
1343.04,0.075782,649913,545850
1346.39,0.078070,647671,541108
1349.73,0.080126,645338,536613
1354.18,0.083442,641175,529096
1357.52,0.085352,638376,524475
1360.85,0.087789,635805,519440
1364.17,0.090205,633413,514615
1367.49,0.092134,631026,510403
1370.81,0.094974,628050,504685
1374.12,0.097686,625034,499135
1378.54,0.100497,620272,492136
1381.84,0.103744,616892,485809
1385.14,0.107675,613613,478872
1388.43,0.111624,611526,472924
1391.72,0.116997,610663,466450
1395.01,0.121029,610634,462117
1398.29,0.126174,611700,457472
1402.66,0.133207,614051,451853
1405.93,0.139098,616268,447375
1409.2,0.144643,617795,442794
1412.46,0.149096,618872,439041
1415.72,0.153884,619795,434875
1418.98,0.157709,620495,431548
1422.23,0.161064,621087,428636
1426.56,0.165628,621375,424352
1429.8,0.168318,621616,421895
1433.04,0.171457,622129,419202
1436.27,0.173588,621526,416746
1439.5,0.175518,621113,414622
1442.72,0.177787,620921,412334
1445.94,0.180611,620270,409232
1450.23,0.184332,618860,404819
1453.44,0.187642,617697,400990
1456.64,0.190362,616264,397562
1459.85,0.193141,614413,393840
1463.04,0.196412,612307,389545
1466.24,0.199422,610032,385417
1469.43,0.203504,607345,380129
1473.67,0.209909,603789,372371
1476.85,0.215711,601175,365839
1480.02,0.221506,597737,358925
1483.19,0.228390,594479,351355
1486.36,0.235390,591232,343849
1489.52,0.240132,587853,338171
1492.68,0.244452,583875,332558
1496.89,0.246252,578062,327886
1500.03,0.247339,574159,324858
1503.18,0.247195,570285,322773
1506.32,0.246343,565444,320661
1509.45,0.244554,560571,319210
1512.58,0.243651,555821,317164
1515.71,0.240943,550344,316003
1519.87,0.237575,543983,314782
1522.99,0.234798,538764,313762
1526.1,0.232413,533692,312520
1529.21,0.228836,527902,311686
1532.32,0.226200,521886,310010
1535.42,0.225106,515888,307220
1538.51,0.219416,509987,307711
1541.6,0.216284,503936,306261
1545.72,0.211879,494694,303709
1548.8,0.208755,488378,301996
1551.88,0.206076,481832,299792
1554.95,0.204486,474989,296618
1558.02,0.202146,467818,293718
1561.08,0.200923,460730,290084
1564.15,0.200468,454170,286253
1568.22,0.199675,444181,280469
1571.27,0.199613,436947,275941
1574.32,0.197932,429598,272352
1577.36,0.196174,422039,268645
1580.4,0.194851,414375,264571
1583.43,0.193219,406354,260427
1586.46,0.192039,398475,256072
1590.49,0.189549,388982,251409
1593.51,0.187259,380708,247362
1596.53,0.184960,372727,243462
1599.54,0.182258,365060,239942
1602.55,0.179809,357543,236330
1605.55,0.178828,349495,231533
1608.55,0.176284,341154,227335
1612.54,0.174271,330877,221511
1615.53,0.171654,322904,217480
1618.51,0.171028,315116,212541
1621.49,0.169332,307217,208024
1624.47,0.167615,299481,203589
1627.44,0.167953,292112,198425
1630.41,0.166037,284245,193935
1634.36,0.163390,274079,188142
1637.32,0.163641,266916,183119
1640.27,0.162045,259612,178764
1643.22,0.162019,251804,173398
1646.16,0.160081,244348,169016
1649.1,0.160028,236703,163748
1652.04,0.159142,228171,158168
1655.95,0.156106,215408,150368
1658.88,0.152691,204937,144188
1661.8,0.147511,193395,137700
1664.72,0.141535,179728,129742
1667.63,0.130381,163642,121203
1670.54,0.119253,146312,111180
1673.44,0.103424,128451,101231
1677.31,0.087658,105080,85874
1680.21,0.077481,88906,74379
1683.1,0.074748,75033,63169
1685.99,0.081256,63520,52681
1688.87,0.082705,53714,44400
1691.75,0.086435,45653,37414
1694.62,0.089056,39137,31881
1697.49,0.096553,33776,27043
1701.31,0.100431,28175,22358