File: samples/wool/wool-000811/Column 1_050559_20150331_120408.csv
Method:,Column 1,,
Host Date-Time:,31/3/15 @ 12:4:8,,
Header Version:,1,,
System Temp (C):,33.64,,
Detector Temp (C):,33.06,,
Humidity (%):,2.15,,
Lamp PD:,3819,,
Shift Vector Coefficients:,-10.5391,0.0761263,-0.000134223,,
Pixel to Wavelength Coefficients:,1775.68,-0.916766,-0.000235065,,
Serial Number:,5510004,,
Scan Config Name:,Column 1,,
Scan Config Type:,Slew,,
Section 1,,
Start wavelength (nm):,900,,
End wavelength (nm):,1700,,
Pattern Pixel Width (nm):,   7.03,,,,
Exposure (ms):,  0.635,,,,
Digital Resolution:,228,,
Num Repeats:,6,,
PGA Gain:,64,,
Total Measurement Time in sec:,  2.683,,
Wavelength (nm),Absorbance (AU),Reference Signal (unitless),Sample Signal (unitless)
901.51,0.034910,108485,100106
905.376,0.041669,121306,110208
909.237,0.044056,131909,119184
913.095,0.044826,143299,129246
916.948,0.044168,156982,141802
922.079,0.045514,179937,162034
925.923,0.045867,200504,180408
929.762,0.046849,222660,199891
933.597,0.048215,244426,218742
937.427,0.047354,263972,236703
941.254,0.048066,281845,252316
945.076,0.047173,297271,266673
950.165,0.046308,315605,283685
953.978,0.045821,328029,295183
957.786,0.046103,340470,306179
961.59,0.046682,352317,316411
965.389,0.046776,363056,325985
969.185,0.046868,373162,334988
972.976,0.047324,382632,343129
976.763,0.047903,391202,350347
981.806,0.048312,400190,358059
985.583,0.049107,406088,362671
989.355,0.049645,410162,365856
993.124,0.049908,412868,368047
996.888,0.050728,414263,368594
1000.65,0.051770,415476,368787
1004.4,0.052563,415479,368117
1009.41,0.053746,414358,366125
1013.15,0.054435,412923,364279
1016.89,0.054635,411526,362879
1020.63,0.055099,409066,360325
1024.36,0.055150,406777,358267
1028.09,0.054689,404427,356575
1031.82,0.054613,401911,354419
1036.78,0.054043,398410,351793
1040.49,0.053904,396204,349957
1044.2,0.053588,394236,348472
1047.91,0.052932,392042,347057
1051.61,0.052404,389823,345512
1055.31,0.052048,388234,344386
1059,0.051972,387599,343883
1063.92,0.050564,386688,344189
1067.61,0.049946,386598,344599
1071.29,0.049260,387377,345839
1074.96,0.048763,388536,347271
1078.63,0.048198,389855,348903
1082.3,0.047409,391215,350757
1085.96,0.046264,393215,353481
1090.84,0.046300,396270,356198
1094.49,0.045946,398760,358728
1098.14,0.045607,400987,361013
1101.79,0.045050,403477,363721
1105.43,0.045020,406116,366126
1109.06,0.044914,407701,367644
1112.7,0.044799,409859,369688
1117.53,0.044847,412494,372024
1121.15,0.045240,414909,373863
1124.77,0.045860,416559,374815
1128.38,0.047066,418532,375546
1131.99,0.048508,419956,375574
1135.6,0.050367,421946,375742
1139.2,0.052076,423881,375983
1143.99,0.054637,426786,376334
1147.58,0.055376,428617,377306
1151.17,0.056956,431169,378174
1154.75,0.057877,433579,379482
1158.33,0.059758,436264,380182
1161.91,0.062024,439132,380690
1165.48,0.064253,442389,381550
1169.04,0.067262,446101,382095
1173.79,0.071012,451929,383759
1177.34,0.073668,456026,384877
1180.9,0.075420,461306,387765
1184.44,0.077042,467657,391639
1187.99,0.077890,473969,396150
1191.52,0.078107,479856,400870
1195.06,0.077428,487372,407786
1199.76,0.076105,497347,417402
1203.29,0.075480,504311,423856
1206.81,0.074908,511507,430471
1210.33,0.073919,519078,437838
1213.84,0.073558,527163,445028
1217.35,0.072658,534208,451910
1220.85,0.071804,540472,458109
1225.51,0.070800,549929,467204
1229.01,0.069990,556888,474000
1232.5,0.069790,562180,478724
1235.98,0.069008,567975,484531
1239.46,0.067495,574815,492077
1242.94,0.066543,582782,499992
1246.41,0.066088,591476,507983
1251.03,0.066174,604016,518650
1254.5,0.066480,612289,525384
1257.96,0.066830,619125,530821
1261.41,0.067132,624551,535101
1264.86,0.067796,629900,538860
1268.31,0.068527,634345,541750
1271.75,0.069754,638574,543822
1276.33,0.069716,642499,547213
1279.76,0.069743,645905,550080
1283.19,0.068888,648307,553214
1286.61,0.068719,650446,555255
1290.03,0.068208,652132,557349
1293.44,0.067704,653907,559515
1296.85,0.067755,655963,561208
1301.39,0.067473,657349,562760
1304.8,0.067305,657558,563156
1308.19,0.067750,658515,563399
1311.58,0.067956,658804,563378
1314.97,0.068504,659011,562845
1318.36,0.068760,658272,561882
1321.73,0.069252,658022,561033
1326.23,0.070387,657870,559440
1329.6,0.071254,656482,557146
1332.97,0.072129,654926,554706
1336.33,0.073485,653727,551965
1339.69,0.075555,652497,548307
1343.04,0.077038,649913,544273
1346.39,0.079654,647671,539139
1349.73,0.082002,645338,534300
1354.18,0.084974,641175,527233
1357.52,0.086958,638376,522539
1360.85,0.089008,635805,517984
1364.17,0.091040,633413,513626
1367.49,0.094091,631026,508108
1370.81,0.096381,628050,503052
1374.12,0.098592,625034,498094
1378.54,0.102177,620272,490236
1381.84,0.106071,616892,483212
1385.14,0.110075,613613,476233
1388.43,0.114441,611526,469866
1391.72,0.119236,610663,464051
1395.01,0.124583,610634,458351
1398.29,0.129954,611700,453507
1402.66,0.137684,614051,447219
1405.93,0.143499,616268,442864
1409.2,0.149284,617795,438087
1412.46,0.154944,618872,433168
1415.72,0.159021,619795,429761
1418.98,0.163635,620495,425700
1422.23,0.167462,621087,422367
1426.56,0.172063,621375,418110
1429.8,0.174876,621616,415572
1433.04,0.177899,622129,413030
1436.27,0.179913,621526,410720
1439.5,0.182764,621113,407762
1442.72,0.185017,620921,405527
1445.94,0.187256,620270,403018
1450.23,0.190683,618860,398942
1453.44,0.194049,617697,395118
1456.64,0.197217,616264,391336
1459.85,0.199707,614413,387930
1463.04,0.202064,612307,384508
1466.24,0.205638,610032,379940
1469.43,0.209412,607345,374993
1473.67,0.215096,603789,367950
1476.85,0.220415,601175,361898
1480.02,0.225878,597737,355330
1483.19,0.232638,594479,347935
1486.36,0.238624,591232,341298
1489.52,0.243095,587853,335872
1492.68,0.246853,583875,330725
1496.89,0.248668,578062,326067
1500.03,0.249979,574159,322889
1503.18,0.250254,570285,320507
1506.32,0.248751,565444,318888
1509.45,0.247669,560571,316929
1512.58,0.246269,555821,315258
1515.71,0.244326,550344,313551
1519.87,0.240770,543983,312475
1522.99,0.238529,538764,311078
1526.1,0.235783,533692,310104
1529.21,0.232664,527902,308951
1532.32,0.229668,521886,307544
1535.42,0.226838,515888,305997
1538.51,0.222838,509987,305296
1541.6,0.220097,503936,303584
1545.72,0.216072,494694,300791
1548.8,0.212326,488378,299523
1551.88,0.210062,481832,297053
1554.95,0.207614,474989,294489
1558.02,0.205641,467818,291364
1561.08,0.204573,460730,287656
1564.15,0.204044,454170,283906
1568.22,0.202986,444181,278339
1571.27,0.202239,436947,274277
1574.32,0.200600,429598,270684
1577.36,0.198952,422039,266932
1580.4,0.198094,414375,262603
1583.43,0.196896,406354,258231
1586.46,0.194509,398475,254620
1590.49,0.191792,388982,250114
1593.51,0.189369,380708,246163
1596.53,0.188103,372727,241706
1599.54,0.185647,365060,238077
1602.55,0.183680,357543,234233
1605.55,0.181339,349495,230198
1608.55,0.179259,341154,225783
1612.54,0.177354,330877,219944
1615.53,0.174433,322904,216093
1618.51,0.173224,315116,211469
1621.49,0.172559,307217,206484
1624.47,0.171377,299481,201833
1627.44,0.170607,292112,197216
1630.41,0.168617,284245,192786
1634.36,0.167157,274079,186517
1637.32,0.167115,266916,181660
1640.27,0.165932,259612,177171
1643.22,0.164480,251804,172418
1646.16,0.163654,244348,167631
1649.1,0.163484,236703,162450
1652.04,0.162001,228171,157130
1655.95,0.159688,215408,149133
1658.88,0.157002,204937,142764
1661.8,0.153328,193395,135868
1664.72,0.146098,179728,128386
1667.63,0.137943,163642,119111
1670.54,0.127185,146312,109168
1673.44,0.114671,128451,98643
1677.31,0.103259,105080,82844
1680.21,0.095634,88906,71334
1683.1,0.095576,75033,60211
1685.99,0.099628,63520,50499
1688.87,0.102722,53714,42400
1691.75,0.110711,45653,35380
1694.62,0.113675,39137,30124
1697.49,0.117359,33776,25778
1701.31,0.133348,28175,20726