File: samples/wool/wool-000811/Column 1_050537_20150331_115350.csv
Method:,Column 1,,
Host Date-Time:,31/3/15 @ 11:53:50,,
Header Version:,1,,
System Temp (C):,31.76,,
Detector Temp (C):,30.17,,
Humidity (%):,3.51,,
Lamp PD:,3826,,
Shift Vector Coefficients:,-10.5391,0.0761263,-0.000134223,,
Pixel to Wavelength Coefficients:,1775.68,-0.916766,-0.000235065,,
Serial Number:,5510004,,
Scan Config Name:,Column 1,,
Scan Config Type:,Slew,,
Section 1,,
Start wavelength (nm):,900,,
End wavelength (nm):,1700,,
Pattern Pixel Width (nm):,   7.03,,,,
Exposure (ms):,  0.635,,,,
Digital Resolution:,228,,
Num Repeats:,6,,
PGA Gain:,64,,
Total Measurement Time in sec:,  2.676,,
Wavelength (nm),Absorbance (AU),Reference Signal (unitless),Sample Signal (unitless)
901.51,0.043448,108485,98157
905.376,0.049755,121306,108175
909.237,0.051803,131909,117077
913.095,0.051947,143299,127144
916.948,0.051020,156982,139582
922.079,0.050990,179937,160004
925.923,0.051825,200504,177950
929.762,0.053000,222660,197080
933.597,0.052950,244426,216370
937.427,0.052609,263972,233856
941.254,0.053797,281845,249008
945.076,0.053866,297271,262595
950.165,0.053311,315605,279147
953.978,0.053838,328029,289784
957.786,0.054427,340470,300367
961.59,0.054817,352317,310539
965.389,0.055189,363056,319731
969.185,0.055115,373162,328687
972.976,0.056119,382632,336250
976.763,0.056176,391202,343736
981.806,0.057439,400190,350612
985.583,0.057877,406088,355421
989.355,0.058159,410162,358754
993.124,0.058517,412868,360823
996.888,0.059621,414263,361123
1000.65,0.060345,415476,361577
1004.4,0.061841,415479,360336
1009.41,0.063000,414358,358406
1013.15,0.063309,412923,356911
1016.89,0.063907,411526,355214
1020.63,0.063933,409066,353070
1024.36,0.064250,406777,350838
1028.09,0.063358,404427,349528
1031.82,0.064030,401911,346817
1036.78,0.062243,398410,345213
1040.49,0.061925,396204,343553
1044.2,0.061872,394236,341888
1047.91,0.060262,392042,341248
1051.61,0.059740,389823,339725
1055.31,0.059441,388234,338573
1059,0.058616,387599,338662
1063.92,0.057529,386688,338713
1067.61,0.056911,386598,339116
1071.29,0.056154,387377,340392
1074.96,0.055568,388536,341872
1078.63,0.054640,389855,343766
1082.3,0.053985,391215,345486
1085.96,0.053081,393215,347976
1090.84,0.051963,396270,351583
1094.49,0.051576,398760,354108
1098.14,0.051705,400987,355980
1101.79,0.050666,403477,359048
1105.43,0.051092,406116,361042
1109.06,0.050103,407701,363278
1112.7,0.050226,409859,365097
1117.53,0.050275,412494,367403
1121.15,0.052008,414909,368082
1124.77,0.052050,416559,369510
1128.38,0.053779,418532,369785
1131.99,0.055344,419956,369709
1135.6,0.057379,421946,369724
1139.2,0.059454,423881,369649
1143.99,0.062304,426786,369748
1147.58,0.062904,428617,370822
1151.17,0.064731,431169,371464
1154.75,0.066122,433579,372346
1158.33,0.068066,436264,372978
1161.91,0.071147,439132,372776
1165.48,0.073859,442389,373203
1169.04,0.076451,446101,374095
1173.79,0.080583,451929,375394
1177.34,0.083633,456026,376146
1180.9,0.086069,461306,378373
1184.44,0.087905,467657,381964
1187.99,0.088687,473969,386423
1191.52,0.088477,479856,391412
1195.06,0.087896,487372,398075
1199.76,0.085930,497347,408065
1203.29,0.084837,504311,414822
1206.81,0.084005,511507,421548
1210.33,0.082205,519078,429564
1213.84,0.081705,527163,436757
1217.35,0.080299,534208,444029
1220.85,0.078997,540472,450584
1225.51,0.078053,549929,459466
1229.01,0.077125,556888,466276
1232.5,0.076210,562180,471700
1235.98,0.075855,567975,476952
1239.46,0.074319,574815,484405
1242.94,0.073546,582782,491994
1246.41,0.072574,591476,500453
1251.03,0.071915,604016,511839
1254.5,0.072090,612289,518641
1257.96,0.072695,619125,523701
1261.41,0.073139,624551,527751
1264.86,0.073592,629900,531716
1268.31,0.074385,634345,534491
1271.75,0.075359,638574,536849
1276.33,0.075611,642499,539835
1279.76,0.075155,645905,543268
1283.19,0.074734,648307,545816
1286.61,0.074309,650446,548154
1290.03,0.073839,652132,550170
1293.44,0.072964,653907,552779
1296.85,0.073124,655963,554313
1301.39,0.073010,657349,555630
1304.8,0.072787,657558,556093
1308.19,0.073605,658515,555854
1311.58,0.073437,658804,556313
1314.97,0.074573,659011,555034
1318.36,0.075125,658272,553708
1321.73,0.075244,658022,553345
1326.23,0.075985,657870,552275
1329.6,0.077275,656482,549475
1332.97,0.078500,654926,546628
1336.33,0.079885,653727,543890
1339.69,0.081935,652497,540311
1343.04,0.083951,649913,535678
1346.39,0.086511,647671,530693
1349.73,0.088674,645338,526154
1354.18,0.092269,641175,518451
1357.52,0.095053,638376,512889
1360.85,0.097088,635805,508436
1364.17,0.099591,633413,503612
1367.49,0.102278,631026,498620
1370.81,0.104988,628050,493181
1374.12,0.107693,625034,487765
1378.54,0.111885,620272,479399
1381.84,0.115929,616892,472368
1385.14,0.120321,613613,465129
1388.43,0.125882,611526,457649
1391.72,0.131859,610663,450757
1395.01,0.138024,610634,444383
1398.29,0.144300,611700,438772
1402.66,0.153310,614051,431414
1405.93,0.160065,616268,426289
1409.2,0.166778,617795,420791
1412.46,0.172824,618872,415697
1415.72,0.178586,619795,410830
1418.98,0.182940,620495,407191
1422.23,0.187200,621087,403601
1426.56,0.192370,621375,399010
1429.8,0.195717,621616,396100
1433.04,0.198761,622129,393658
1436.27,0.201056,621526,391204
1439.5,0.203004,621113,389194
1442.72,0.205819,620921,386560
1445.94,0.208943,620270,383387
1450.23,0.212355,618860,379522
1453.44,0.215377,617697,376182
1456.64,0.218156,616264,372916
1459.85,0.220686,614413,369636
1463.04,0.223645,612307,365868
1466.24,0.226571,610032,362061
1469.43,0.229451,607345,358084
1473.67,0.234333,603789,352008
1476.85,0.239568,601175,346284
1480.02,0.244369,597737,340519
1483.19,0.250551,594479,333876
1486.36,0.256837,591232,327281
1489.52,0.261991,587853,321572
1492.68,0.265217,583875,317032
1496.89,0.267458,578062,312260
1500.03,0.268307,574159,309546
1503.18,0.269493,570285,306619
1506.32,0.269158,565444,304251
1509.45,0.267555,560571,302744
1512.58,0.266317,555821,301036
1515.71,0.263808,550344,299796
1519.87,0.260594,543983,298532
1522.99,0.258004,538764,297437
1526.1,0.255081,533692,296626
1529.21,0.251900,527902,295565
1532.32,0.248226,521886,294679
1535.42,0.245931,515888,292836
1538.51,0.242417,509987,291838
1541.6,0.238899,503936,290721
1545.72,0.234171,494694,288513
1548.8,0.231315,488378,286709
1551.88,0.227825,481832,285148
1554.95,0.225355,474989,282702
1558.02,0.223113,467818,279875
1561.08,0.222309,460730,276145
1564.15,0.221118,454170,272961
1568.22,0.220454,444181,267366
1571.27,0.219851,436947,263377
1574.32,0.218589,429598,259701
1577.36,0.216970,422039,256084
1580.4,0.215321,414375,252390
1583.43,0.213382,406354,248612
1586.46,0.210627,398475,245343
1590.49,0.208961,388982,240419
1593.51,0.206308,380708,236747
1596.53,0.204492,372727,232755
1599.54,0.201565,365060,229509
1602.55,0.199037,357543,226095
1605.55,0.196992,349495,222049
1608.55,0.195074,341154,217709
1612.54,0.192114,330877,212595
1615.53,0.189947,322904,208510
1618.51,0.187696,315116,204538
1621.49,0.186789,307217,199828
1624.47,0.184240,299481,195943
1627.44,0.183941,292112,191253
1630.41,0.181703,284245,187064
1634.36,0.180711,274079,180786
1637.32,0.180117,266916,176302
1640.27,0.179357,259612,171778
1643.22,0.177785,251804,167216
1646.16,0.176704,244348,162669
1649.1,0.175783,236703,157914
1652.04,0.174843,228171,152552
1655.95,0.174577,215408,144107
1658.88,0.172371,204937,137800
1661.8,0.171294,193395,130362
1664.72,0.169550,179728,121637
1667.63,0.164553,163642,112032
1670.54,0.160714,146312,101057
1673.44,0.158884,128451,89095
1677.31,0.156849,105080,73227
1680.21,0.156736,88906,61972
1683.1,0.162544,75033,51607
1685.99,0.167085,63520,43234
1688.87,0.172737,53714,36087
1691.75,0.175369,45653,30486
1694.62,0.179338,39137,25897
1697.49,0.176522,33776,22495
1701.31,0.181380,28175,18556