File: samples/wool/wool-000811/Column 1_050588_20150331_121756.csv
Method:,Column 1,,
Host Date-Time:,31/3/15 @ 12:17:56,,
Header Version:,1,,
System Temp (C):,33.8,,
Detector Temp (C):,34.57,,
Humidity (%):,1.86,,
Lamp PD:,3819,,
Shift Vector Coefficients:,-10.5391,0.0761263,-0.000134223,,
Pixel to Wavelength Coefficients:,1775.68,-0.916766,-0.000235065,,
Serial Number:,5510004,,
Scan Config Name:,Column 1,,
Scan Config Type:,Slew,,
Section 1,,
Start wavelength (nm):,900,,
End wavelength (nm):,1700,,
Pattern Pixel Width (nm):,   7.03,,,,
Exposure (ms):,  0.635,,,,
Digital Resolution:,228,,
Num Repeats:,6,,
PGA Gain:,64,,
Total Measurement Time in sec:,  2.672,,
Wavelength (nm),Absorbance (AU),Reference Signal (unitless),Sample Signal (unitless)
901.51,0.069872,108485,92363
905.376,0.076339,121306,101752
909.237,0.078665,131909,110055
913.095,0.077457,143299,119891
916.948,0.077466,156982,131336
922.079,0.080227,179937,149587
925.923,0.081547,200504,166179
929.762,0.082749,222660,184032
933.597,0.082121,244426,202314
937.427,0.081612,263972,218749
941.254,0.080924,281845,233930
945.076,0.079897,297271,247318
950.165,0.079008,315605,263109
953.978,0.078393,328029,273854
957.786,0.078608,340470,284100
961.59,0.078863,352317,293813
965.389,0.079673,363056,302204
969.185,0.079219,373162,310941
972.976,0.078682,382632,319227
976.763,0.079327,391202,325892
981.806,0.080178,400190,332727
985.583,0.080171,406088,337636
989.355,0.081465,410162,340009
993.124,0.081560,412868,342177
996.888,0.082517,414263,342578
1000.65,0.082875,415476,343298
1004.4,0.083735,415479,342621
1009.41,0.085994,414358,339924
1013.15,0.085672,412923,338998
1016.89,0.086372,411526,337307
1020.63,0.085591,409066,335894
1024.36,0.086425,406777,333374
1028.09,0.085451,404427,332192
1031.82,0.085862,401911,329813
1036.78,0.085712,398410,327053
1040.49,0.085501,396204,325400
1044.2,0.085103,394236,324081
1047.91,0.085233,392042,322181
1051.61,0.083608,389823,321558
1055.31,0.084101,388234,319884
1059,0.083749,387599,319620
1063.92,0.083000,386688,319419
1067.61,0.082550,386598,319676
1071.29,0.082093,387377,320657
1074.96,0.081191,388536,322285
1078.63,0.080734,389855,323720
1082.3,0.079707,391215,325618
1085.96,0.080182,393215,326925
1090.84,0.077991,396270,331131
1094.49,0.077938,398760,333253
1098.14,0.077502,400987,335450
1101.79,0.077247,403477,337732
1105.43,0.076493,406116,340531
1109.06,0.075756,407701,342441
1112.7,0.075878,409859,344157
1117.53,0.074822,412494,347213
1121.15,0.076124,414909,348200
1124.77,0.076202,416559,349522
1128.38,0.077034,418532,350505
1131.99,0.077486,419956,351332
1135.6,0.079025,421946,351748
1139.2,0.080477,423881,352182
1143.99,0.083120,426786,352444
1147.58,0.083569,428617,353590
1151.17,0.084534,431169,354906
1154.75,0.085322,433579,356243
1158.33,0.086725,436264,357293
1161.91,0.089332,439132,357489
1165.48,0.090926,442389,358821
1169.04,0.093189,446101,359952
1173.79,0.096222,451929,362116
1177.34,0.098614,456026,363392
1180.9,0.100497,461306,366009
1184.44,0.102246,467657,369557
1187.99,0.103635,473969,373349
1191.52,0.103171,479856,378390
1195.06,0.103070,487372,384406
1199.76,0.102652,497347,392652
1203.29,0.101941,504311,398802
1206.81,0.101528,511507,404877
1210.33,0.100737,519078,411619
1213.84,0.100358,527163,418395
1217.35,0.099570,534208,424757
1220.85,0.099260,540472,430044
1225.51,0.097930,549929,438911
1229.01,0.097735,556888,444665
1232.5,0.096972,562180,449680
1235.98,0.097000,567975,454286
1239.46,0.095615,574815,461225
1242.94,0.094837,582782,468456
1246.41,0.094383,591476,475942
1251.03,0.094205,604016,486232
1254.5,0.094336,612289,492743
1257.96,0.094807,619125,497704
1261.41,0.095268,624551,501534
1264.86,0.095611,629900,505430
1268.31,0.095924,634345,508630
1271.75,0.096797,638574,510992
1276.33,0.097442,642499,513370
1279.76,0.096885,645905,516754
1283.19,0.096239,648307,519447
1286.61,0.095806,650446,521681
1290.03,0.095670,652132,523197
1293.44,0.095150,653907,525250
1296.85,0.095495,655963,526483
1301.39,0.094962,657349,528243
1304.8,0.094806,657558,528601
1308.19,0.094946,658515,529200
1311.58,0.095084,658804,529264
1314.97,0.095667,659011,528720
1318.36,0.096240,658272,527431
1321.73,0.096703,658022,526669
1326.23,0.097446,657870,525647
1329.6,0.098436,656482,523344
1332.97,0.099562,654926,520751
1336.33,0.100683,653727,518458
1339.69,0.101936,652497,515991
1343.04,0.103510,649913,512089
1346.39,0.105685,647671,507773
1349.73,0.107352,645338,504006
1354.18,0.110572,641175,497055
1357.52,0.112537,638376,492651
1360.85,0.114363,635805,488608
1364.17,0.116727,633413,484128
1367.49,0.118630,631026,480195
1370.81,0.120925,628050,475411
1374.12,0.123580,625034,470244
1378.54,0.125977,620272,464093
1381.84,0.129388,616892,457953
1385.14,0.132733,613613,452024
1388.43,0.136951,611526,446133
1391.72,0.141061,610663,441307
1395.01,0.145933,610634,436363
1398.29,0.150723,611700,432330
1402.66,0.157454,614051,427317
1405.93,0.163050,616268,423370
1409.2,0.168414,617795,419209
1412.46,0.173735,618872,414826
1415.72,0.177561,619795,411801
1418.98,0.181068,620495,408950
1422.23,0.184490,621087,406128
1426.56,0.188899,621375,402212
1429.8,0.191658,621616,399820
1433.04,0.193456,622129,398496
1436.27,0.196501,621526,395329
1439.5,0.198433,621113,393312
1442.72,0.200596,620921,391237
1445.94,0.202507,620270,389111
1450.23,0.206078,618860,385048
1453.44,0.209304,617697,381480
1456.64,0.211809,616264,378406
1459.85,0.214732,614413,374739
1463.04,0.217312,612307,371242
1466.24,0.219827,610032,367727
1469.43,0.223464,607345,363054
1473.67,0.229221,603789,356176
1476.85,0.234066,601175,350699
1480.02,0.239857,597737,344075
1483.19,0.245418,594479,337846
1486.36,0.251029,591232,331687
1489.52,0.254721,587853,327000
1492.68,0.257777,583875,322510
1496.89,0.260213,578062,317513
1500.03,0.260931,574159,314848
1503.18,0.260754,570285,312851
1506.32,0.260152,565444,310626
1509.45,0.258484,560571,309134
1512.58,0.257194,555821,307426
1515.71,0.255080,550344,305882
1519.87,0.252313,543983,304279
1522.99,0.248778,538764,303823
1526.1,0.246842,533692,302307
1529.21,0.244543,527902,300615
1532.32,0.241305,521886,299413
1535.42,0.238777,515888,297700
1538.51,0.235555,509987,296486
1541.6,0.233050,503936,294663
1545.72,0.228529,494694,292286
1548.8,0.226078,488378,290187
1551.88,0.223859,481832,287764
1554.95,0.221738,474989,285066
1558.02,0.219980,467818,281901
1561.08,0.219441,460730,277975
1564.15,0.217992,454170,274933
1568.22,0.216718,444181,269676
1571.27,0.215991,436947,265728
1574.32,0.216131,429598,261175
1577.36,0.214727,422039,257410
1580.4,0.214071,414375,253118
1583.43,0.211498,406354,249693
1586.46,0.209770,398475,245828
1590.49,0.207939,388982,240985
1593.51,0.205979,380708,236926
1596.53,0.203906,372727,233069
1599.54,0.202432,365060,229051
1602.55,0.200326,357543,225425
1605.55,0.198481,349495,221289
1608.55,0.195815,341154,217338
1612.54,0.194539,330877,211411
1615.53,0.192181,322904,207440
1618.51,0.191062,315116,202959
1621.49,0.189092,307217,198771
1624.47,0.189850,299481,193428
1627.44,0.188176,292112,189397
1630.41,0.187522,284245,184574
1634.36,0.186023,274079,178588
1637.32,0.184268,266916,174625
1640.27,0.184948,259612,169581
1643.22,0.182774,251804,165306
1646.16,0.181736,244348,160795
1649.1,0.182711,236703,155415
1652.04,0.180510,228171,150574
1655.95,0.176555,215408,143452
1658.88,0.173176,204937,137545
1661.8,0.167387,193395,131540
1664.72,0.160218,179728,124279
1667.63,0.147994,163642,116386
1670.54,0.133944,146312,107482
1673.44,0.118550,128451,97766
1677.31,0.099231,105080,83616
1680.21,0.087648,88906,72658
1683.1,0.081853,75033,62144
1685.99,0.083041,63520,52465
1688.87,0.087455,53714,43917
1691.75,0.088087,45653,37272
1694.62,0.095216,39137,31432
1697.49,0.100392,33776,26805
1701.31,0.104353,28175,22157