File: samples/wool/wool-000811/Column 1_050538_20150331_115412.csv
Method:,Column 1,,
Host Date-Time:,31/3/15 @ 11:54:12,,
Header Version:,1,,
System Temp (C):,31.92,,
Detector Temp (C):,30.27,,
Humidity (%):,3.36,,
Lamp PD:,3826,,
Shift Vector Coefficients:,-10.5391,0.0761263,-0.000134223,,
Pixel to Wavelength Coefficients:,1775.68,-0.916766,-0.000235065,,
Serial Number:,5510004,,
Scan Config Name:,Column 1,,
Scan Config Type:,Slew,,
Section 1,,
Start wavelength (nm):,900,,
End wavelength (nm):,1700,,
Pattern Pixel Width (nm):,   7.03,,,,
Exposure (ms):,  0.635,,,,
Digital Resolution:,228,,
Num Repeats:,6,,
PGA Gain:,64,,
Total Measurement Time in sec:,  2.671,,
Wavelength (nm),Absorbance (AU),Reference Signal (unitless),Sample Signal (unitless)
901.51,0.043090,108485,98238
905.376,0.048437,121306,108504
909.237,0.050518,131909,117424
913.095,0.050634,143299,127529
916.948,0.050958,156982,139602
922.079,0.051229,179937,159916
925.923,0.050918,200504,178322
929.762,0.051337,222660,197836
933.597,0.052036,244426,216826
937.427,0.052778,263972,233765
941.254,0.053161,281845,249373
945.076,0.052288,297271,263551
950.165,0.053047,315605,279317
953.978,0.052514,328029,290669
957.786,0.052816,340470,301483
961.59,0.053545,352317,311450
965.389,0.054070,363056,320556
969.185,0.055000,373162,328774
972.976,0.055545,382632,336695
976.763,0.055939,391202,343924
981.806,0.056609,400190,351283
985.583,0.057398,406088,355813
989.355,0.057728,410162,359110
993.124,0.058027,412868,361230
996.888,0.058966,414263,361668
1000.65,0.059690,415476,362123
1004.4,0.060907,415479,361112
1009.41,0.062027,414358,359210
1013.15,0.062735,412923,357383
1016.89,0.063046,411526,355919
1020.63,0.063048,409066,353790
1024.36,0.062911,406777,351921
1028.09,0.062582,404427,350153
1031.82,0.061849,401911,348563
1036.78,0.061716,398410,345632
1040.49,0.061220,396204,344111
1044.2,0.060833,394236,342707
1047.91,0.060394,392042,341145
1051.61,0.059280,389823,340085
1055.31,0.058692,388234,339158
1059,0.058018,387599,339129
1063.92,0.056227,386688,339730
1067.61,0.055629,386598,340119
1071.29,0.055601,387377,340826
1074.96,0.054116,388536,343017
1078.63,0.053858,389855,344386
1082.3,0.052881,391215,346365
1085.96,0.052065,393215,348791
1090.84,0.051652,396270,351835
1094.49,0.050868,398760,354686
1098.14,0.050995,400987,356562
1101.79,0.050937,403477,358824
1105.43,0.051147,406116,360997
1109.06,0.050278,407701,363131
1112.7,0.049733,409859,365512
1117.53,0.049944,412494,367683
1121.15,0.051064,414909,368883
1124.77,0.051499,416559,369979
1128.38,0.053227,418532,370256
1131.99,0.054016,419956,370841
1135.6,0.056445,421946,370520
1139.2,0.058654,423881,370331
1143.99,0.061391,426786,370526
1147.58,0.062717,428617,370982
1151.17,0.064203,431169,371916
1154.75,0.065411,433579,372956
1158.33,0.067253,436264,373677
1161.91,0.069629,439132,374081
1165.48,0.073196,442389,373773
1169.04,0.075856,446101,374608
1173.79,0.080091,451929,375819
1177.34,0.082860,456026,376816
1180.9,0.085540,461306,378834
1184.44,0.087289,467657,382506
1187.99,0.088399,473969,386679
1191.52,0.088002,479856,391840
1195.06,0.087746,487372,398212
1199.76,0.085387,497347,408576
1203.29,0.083844,504311,415771
1206.81,0.082910,511507,422612
1210.33,0.082259,519078,429510
1213.84,0.080865,527163,437603
1217.35,0.079903,534208,444434
1220.85,0.078247,540472,451363
1225.51,0.077461,549929,460093
1229.01,0.076886,556888,466532
1232.5,0.076081,562180,471840
1235.98,0.075248,567975,477619
1239.46,0.073827,574815,484955
1242.94,0.072335,582782,493368
1246.41,0.071732,591476,501424
1251.03,0.071239,604016,512636
1254.5,0.071807,612289,518979
1257.96,0.072006,619125,524533
1261.41,0.072342,624551,528720
1264.86,0.073071,629900,532354
1268.31,0.073651,634345,535395
1271.75,0.074841,638574,537490
1276.33,0.074789,642499,540858
1279.76,0.074340,645905,544288
1283.19,0.073932,648307,546826
1286.61,0.073709,650446,548911
1290.03,0.073148,652132,551046
1293.44,0.072471,653907,553407
1296.85,0.072318,655963,555343
1301.39,0.072414,657349,556394
1304.8,0.072766,657558,556120
1308.19,0.072562,658515,557191
1311.58,0.073063,658804,556792
1314.97,0.073609,659011,556268
1318.36,0.074086,658272,555034
1321.73,0.074510,658022,554281
1326.23,0.075762,657870,552558
1329.6,0.077027,656482,549789
1332.97,0.077826,654926,547477
1336.33,0.079225,653727,544717
1339.69,0.081230,652497,541189
1343.04,0.083061,649913,536777
1346.39,0.086067,647671,531236
1349.73,0.087949,645338,527033
1354.18,0.091954,641175,518827
1357.52,0.094289,638376,513792
1360.85,0.096714,635805,508874
1364.17,0.099197,633413,504069
1367.49,0.101619,631026,499377
1370.81,0.104335,628050,493923
1374.12,0.107275,625034,488235
1378.54,0.111374,620272,479964
1381.84,0.115456,616892,472882
1385.14,0.119645,613613,465854
1388.43,0.125321,611526,458241
1391.72,0.130774,610663,451885
1395.01,0.136618,610634,445824
1398.29,0.143260,611700,439824
1402.66,0.152527,614051,432193
1405.93,0.159399,616268,426944
1409.2,0.165943,617795,421601
1412.46,0.171726,618872,416749
1415.72,0.177128,619795,412211
1418.98,0.181782,620495,408278
1422.23,0.186092,621087,404632
1426.56,0.191297,621375,399997
1429.8,0.194358,621616,397342
1433.04,0.197479,622129,394822
1436.27,0.199971,621526,392183
1439.5,0.201977,621113,390116
1442.72,0.204440,620921,387790
1445.94,0.206768,620270,385312
1450.23,0.211754,618860,380048
1453.44,0.213918,617697,377448
1456.64,0.216910,616264,373987
1459.85,0.219387,614413,370743
1463.04,0.222225,612307,367066
1466.24,0.224891,610032,363464
1469.43,0.227877,607345,359384
1473.67,0.233269,603789,352871
1476.85,0.237801,601175,347696
1480.02,0.243491,597737,341208
1483.19,0.249503,594479,334683
1486.36,0.255519,591232,328276
1489.52,0.260502,587853,322676
1492.68,0.263898,583875,317996
1496.89,0.266124,578062,313221
1500.03,0.268308,574159,309545
1503.18,0.267424,570285,308083
1506.32,0.267610,565444,305337
1509.45,0.266565,560571,303435
1512.58,0.265679,555821,301478
1515.71,0.262641,550344,300603
1519.87,0.259904,543983,299007
1522.99,0.257512,538764,297774
1526.1,0.254657,533692,296916
1529.21,0.251133,527902,296088
1532.32,0.247839,521886,294942
1535.42,0.244693,515888,293672
1538.51,0.241176,509987,292673
1541.6,0.237406,503936,291722
1545.72,0.232999,494694,289293
1548.8,0.229898,488378,287646
1551.88,0.227119,481832,285612
1554.95,0.225256,474989,282766
1558.02,0.223127,467818,279866
1561.08,0.221064,460730,276938
1564.15,0.221008,454170,273030
1568.22,0.219339,444181,268053
1571.27,0.218626,436947,264121
1574.32,0.216865,429598,260734
1577.36,0.216055,422039,256624
1580.4,0.214009,414375,253154
1583.43,0.212201,406354,249289
1586.46,0.210176,398475,245598
1590.49,0.207812,388982,241056
1593.51,0.205529,380708,237172
1596.53,0.202951,372727,233582
1599.54,0.200291,365060,230183
1602.55,0.198661,357543,226291
1605.55,0.195890,349495,222613
1608.55,0.193155,341154,218673
1612.54,0.191228,330877,213029
1615.53,0.188622,322904,209147
1618.51,0.187862,315116,204460
1621.49,0.186493,307217,199964
1624.47,0.184355,299481,195891
1627.44,0.182959,292112,191686
1630.41,0.181654,284245,187085
1634.36,0.180639,274079,180816
1637.32,0.178792,266916,176841
1640.27,0.177533,259612,172501
1643.22,0.176641,251804,167657
1646.16,0.176488,244348,162750
1649.1,0.175335,236703,158077
1652.04,0.174475,228171,152681
1655.95,0.172175,215408,144906
1658.88,0.169961,204937,138567
1661.8,0.169894,193395,130783
1664.72,0.166785,179728,122414
1667.63,0.164084,163642,112153
1670.54,0.159649,146312,101305
1673.44,0.157589,128451,89361
1677.31,0.152206,105080,74014
1680.21,0.151788,88906,62682
1683.1,0.158331,75033,52110
1685.99,0.162081,63520,43735
1688.87,0.164984,53714,36737
1691.75,0.167982,45653,31009
1694.62,0.174220,39137,26204
1697.49,0.177160,33776,22462
1701.31,0.185637,28175,18375