File: samples/wool/wool-000811/Column 1_050551_20150331_120025.csv
Method:,Column 1,,
Host Date-Time:,31/3/15 @ 12:0:25,,
Header Version:,1,,
System Temp (C):,33.31,,
Detector Temp (C):,32.45,,
Humidity (%):,3.67,,
Lamp PD:,3820,,
Shift Vector Coefficients:,-10.5391,0.0761263,-0.000134223,,
Pixel to Wavelength Coefficients:,1775.68,-0.916766,-0.000235065,,
Serial Number:,5510004,,
Scan Config Name:,Column 1,,
Scan Config Type:,Slew,,
Section 1,,
Start wavelength (nm):,900,,
End wavelength (nm):,1700,,
Pattern Pixel Width (nm):,   7.03,,,,
Exposure (ms):,  0.635,,,,
Digital Resolution:,228,,
Num Repeats:,6,,
PGA Gain:,64,,
Total Measurement Time in sec:,  2.734,,
Wavelength (nm),Absorbance (AU),Reference Signal (unitless),Sample Signal (unitless)
901.51,0.034502,108485,100200
905.376,0.038626,121306,110983
909.237,0.039504,131909,120440
913.095,0.042303,143299,129999
916.948,0.042120,156982,142472
922.079,0.043042,179937,162959
925.923,0.044579,200504,180944
929.762,0.045669,222660,200435
933.597,0.047196,244426,219256
937.427,0.045808,263972,237547
941.254,0.045697,281845,253696
945.076,0.045288,297271,267833
950.165,0.045037,315605,284516
953.978,0.044406,328029,296146
957.786,0.045255,340470,306778
961.59,0.045848,352317,317019
965.389,0.046510,363056,326185
969.185,0.045862,373162,335765
972.976,0.046900,382632,343464
976.763,0.046924,391202,351137
981.806,0.048049,400190,358276
985.583,0.048116,406088,363500
989.355,0.049032,410162,366373
993.124,0.050126,412868,367862
996.888,0.050406,414263,368867
1000.65,0.050956,415476,369479
1004.4,0.052422,415479,368237
1009.41,0.053381,414358,366433
1013.15,0.054070,412923,364585
1016.89,0.054890,411526,362666
1020.63,0.054510,409066,360814
1024.36,0.054310,406777,358960
1028.09,0.054494,404427,356735
1031.82,0.054520,401911,354495
1036.78,0.053759,398410,352023
1040.49,0.053078,396204,350623
1044.2,0.053363,394236,348653
1047.91,0.052535,392042,347374
1051.61,0.051878,389823,345931
1055.31,0.051502,388234,344819
1059,0.051318,387599,344401
1063.92,0.050024,386688,344617
1067.61,0.048462,386598,345778
1071.29,0.048893,387377,346131
1074.96,0.048673,388536,347343
1078.63,0.047747,389855,349266
1082.3,0.046626,391215,351390
1085.96,0.046440,393215,353338
1090.84,0.045402,396270,356935
1094.49,0.045439,398760,359147
1098.14,0.044719,400987,361752
1101.79,0.044884,403477,363860
1105.43,0.044605,406116,366476
1109.06,0.044463,407701,368026
1112.7,0.044129,409859,370259
1117.53,0.044395,412494,372411
1121.15,0.044542,414909,374465
1124.77,0.045527,416559,375102
1128.38,0.046439,418532,376088
1131.99,0.047911,419956,376091
1135.6,0.049951,421946,376102
1139.2,0.051660,423881,376343
1143.99,0.054306,426786,376621
1147.58,0.055624,428617,377090
1151.17,0.056859,431169,378258
1154.75,0.058285,433579,379126
1158.33,0.059840,436264,380110
1161.91,0.062220,439132,380518
1165.48,0.065253,442389,380672
1169.04,0.067661,446101,381744
1173.79,0.070608,451929,384116
1177.34,0.073428,456026,385089
1180.9,0.075649,461306,387561
1184.44,0.077020,467657,391658
1187.99,0.078257,473969,395816
1191.52,0.077567,479856,401369
1195.06,0.076979,487372,408208
1199.76,0.076961,497347,416580
1203.29,0.075298,504311,424034
1206.81,0.074735,511507,430642
1210.33,0.074242,519078,437513
1213.84,0.073673,527163,444910
1217.35,0.073054,534208,451499
1220.85,0.071914,540472,457993
1225.51,0.070850,549929,467150
1229.01,0.070291,556888,473671
1232.5,0.069737,562180,478783
1235.98,0.069103,567975,484425
1239.46,0.068076,574815,491419
1242.94,0.067403,582782,499003
1246.41,0.066133,591476,507930
1251.03,0.066020,604016,518834
1254.5,0.066225,612289,525692
1257.96,0.067361,619125,530173
1261.41,0.067420,624551,534747
1264.86,0.067936,629900,538686
1268.31,0.068559,634345,541710
1271.75,0.069443,638574,544212
1276.33,0.069697,642499,547237
1279.76,0.070008,645905,549744
1283.19,0.069353,648307,552621
1286.61,0.068573,650446,555442
1290.03,0.068664,652132,556764
1293.44,0.068200,653907,558877
1296.85,0.067630,655963,561370
1301.39,0.067768,657349,562378
1304.8,0.067893,657558,562394
1308.19,0.068242,658515,562760
1311.58,0.068356,658804,562860
1314.97,0.068836,659011,562415
1318.36,0.069326,658272,561150
1321.73,0.070658,658022,559219
1326.23,0.071190,657870,558406
1329.6,0.071667,656482,556616
1332.97,0.073183,654926,553362
1336.33,0.074522,653727,550648
1339.69,0.076120,652497,547594
1343.04,0.078216,649913,542799
1346.39,0.080297,647671,538341
1349.73,0.083058,645338,533002
1354.18,0.085790,641175,526243
1357.52,0.087808,638376,521517
1360.85,0.090445,635805,516272
1364.17,0.092613,633413,511769
1367.49,0.095044,631026,506995
1370.81,0.097736,628050,501485
1374.12,0.099950,625034,496539
1378.54,0.103629,620272,488600
1381.84,0.107427,616892,481706
1385.14,0.111979,613613,474150
1388.43,0.116425,611526,467724
1391.72,0.122002,610663,461105
1395.01,0.127257,610634,455537
1398.29,0.133153,611700,450179
1402.66,0.141436,614051,443372
1405.93,0.147883,616268,438416
1409.2,0.153931,617795,433424
1412.46,0.159716,618872,428435
1415.72,0.164997,619795,423888
1418.98,0.169542,620495,419949
1422.23,0.173821,621087,416228
1426.56,0.178738,621375,411733
1429.8,0.181317,621616,409454
1433.04,0.184471,622129,406827
1436.27,0.187323,621526,403772
1439.5,0.189527,621113,401461
1442.72,0.192106,620921,398961
1445.94,0.194807,620270,396072
1450.23,0.197932,618860,392338
1453.44,0.200877,617697,388954
1456.64,0.204602,616264,384738
1459.85,0.206113,614413,382250
1463.04,0.209737,612307,377774
1466.24,0.212706,610032,373806
1469.43,0.215792,607345,369525
1473.67,0.221038,603789,362950
1476.85,0.225863,601175,357386
1480.02,0.230891,597737,351252
1483.19,0.236652,594479,344734
1486.36,0.242388,591232,338353
1489.52,0.246832,587853,332994
1492.68,0.250275,583875,328129
1496.89,0.252603,578062,323126
1500.03,0.253266,574159,320454
1503.18,0.252972,570285,318508
1506.32,0.252465,565444,316173
1509.45,0.251199,560571,314363
1512.58,0.249614,555821,312839
1515.71,0.247119,550344,311541
1519.87,0.243661,543983,310402
1522.99,0.241783,538764,308756
1526.1,0.238911,533692,307879
1529.21,0.236154,527902,306478
1532.32,0.232481,521886,305559
1535.42,0.229616,515888,304046
1538.51,0.226340,509987,302844
1541.6,0.223192,503936,301428
1545.72,0.219080,494694,298715
1548.8,0.216144,488378,296901
1551.88,0.213725,481832,294558
1554.95,0.211506,474989,291862
1558.02,0.209400,467818,288853
1561.08,0.207875,460730,285477
1564.15,0.207324,454170,281770
1568.22,0.206468,444181,276116
1571.27,0.204992,436947,272544
1574.32,0.204467,429598,268284
1577.36,0.202746,422039,264610
1580.4,0.201306,414375,260668
1583.43,0.199379,406354,256759
1586.46,0.197142,398475,253081
1590.49,0.195241,388982,248135
1593.51,0.193384,380708,243898
1596.53,0.190536,372727,240356
1599.54,0.188324,365060,236614
1602.55,0.187021,357543,232438
1605.55,0.183736,349495,228931
1608.55,0.181013,341154,224873
1612.54,0.179721,330877,218749
1615.53,0.177219,322904,214711
1618.51,0.175865,315116,210187
1621.49,0.175090,307217,205284
1624.47,0.173664,299481,200773
1627.44,0.171893,292112,196633
1630.41,0.172137,284245,191230
1634.36,0.171122,274079,184822
1637.32,0.168934,266916,180901
1640.27,0.169271,259612,175814
1643.22,0.167526,251804,171213
1646.16,0.166352,244348,166593
1649.1,0.165005,236703,161882
1652.04,0.163846,228171,156464
1655.95,0.162091,215408,148310
1658.88,0.159745,204937,141865
1661.8,0.155350,193395,135237
1664.72,0.151243,179728,126874
1667.63,0.143698,163642,117543
1670.54,0.132649,146312,107803
1673.44,0.122804,128451,96813
1677.31,0.111446,105080,81297
1680.21,0.107953,88906,69339
1683.1,0.109472,75033,58315
1685.99,0.109975,63520,49310
1688.87,0.120728,53714,40678
1691.75,0.121738,45653,34493
1694.62,0.123694,39137,29437
1697.49,0.125728,33776,25286
1701.31,0.141833,28175,20325