File: samples/wool/wool-000811/Column 1_050542_20150331_115555.csv
Method:,Column 1,,
Host Date-Time:,31/3/15 @ 11:55:55,,
Header Version:,1,,
System Temp (C):,32.46,,
Detector Temp (C):,30.78,,
Humidity (%):,2.83,,
Lamp PD:,3824,,
Shift Vector Coefficients:,-10.5391,0.0761263,-0.000134223,,
Pixel to Wavelength Coefficients:,1775.68,-0.916766,-0.000235065,,
Serial Number:,5510004,,
Scan Config Name:,Column 1,,
Scan Config Type:,Slew,,
Section 1,,
Start wavelength (nm):,900,,
End wavelength (nm):,1700,,
Pattern Pixel Width (nm):,   7.03,,,,
Exposure (ms):,  0.635,,,,
Digital Resolution:,228,,
Num Repeats:,6,,
PGA Gain:,64,,
Total Measurement Time in sec:,  2.677,,
Wavelength (nm),Absorbance (AU),Reference Signal (unitless),Sample Signal (unitless)
901.51,0.044179,108485,97992
905.376,0.050519,121306,107985
909.237,0.052412,131909,116913
913.095,0.052764,143299,126905
916.948,0.053601,156982,138755
922.079,0.053060,179937,159243
925.923,0.054039,200504,177045
929.762,0.054165,222660,196552
933.597,0.054720,244426,215490
937.427,0.055305,263972,232409
941.254,0.055480,281845,248045
945.076,0.054545,297271,262185
950.165,0.054927,315605,278110
953.978,0.054285,328029,289486
957.786,0.055681,340470,299501
961.59,0.056067,352317,309647
965.389,0.056318,363056,318901
969.185,0.056114,373162,327932
972.976,0.056604,382632,335875
976.763,0.057446,391202,342732
981.806,0.057920,400190,350224
985.583,0.058886,406088,354596
989.355,0.059470,410162,357672
993.124,0.059963,412868,359624
996.888,0.060806,414263,360139
1000.65,0.061147,415476,360910
1004.4,0.062262,415479,359987
1009.41,0.063930,414358,357640
1013.15,0.064361,412923,356048
1016.89,0.064804,411526,354481
1020.63,0.064677,409066,352465
1024.36,0.064338,406777,350767
1028.09,0.064118,404427,348917
1031.82,0.063629,401911,347137
1036.78,0.063078,398410,344550
1040.49,0.062517,396204,343085
1044.2,0.061772,394236,341967
1047.91,0.061901,392042,339963
1051.61,0.060700,389823,338975
1055.31,0.060107,388234,338054
1059,0.059804,387599,337737
1063.92,0.058499,386688,337957
1067.61,0.056960,386598,339078
1071.29,0.056558,387377,340076
1074.96,0.056243,388536,341341
1078.63,0.055482,389855,343100
1082.3,0.054584,391215,345010
1085.96,0.053077,393215,347979
1090.84,0.052953,396270,350783
1094.49,0.052794,398760,353116
1098.14,0.052020,400987,355722
1101.79,0.051584,403477,358290
1105.43,0.051610,406116,360612
1109.06,0.050658,407701,362814
1112.7,0.051007,409859,364441
1117.53,0.051103,412494,366703
1121.15,0.052665,414909,367526
1124.77,0.052693,416559,368964
1128.38,0.054107,418532,369506
1131.99,0.055883,419956,369250
1135.6,0.058306,421946,368936
1139.2,0.059829,423881,369330
1143.99,0.062381,426786,369683
1147.58,0.063483,428617,370328
1151.17,0.065360,431169,370926
1154.75,0.066365,433579,372137
1158.33,0.068634,436264,372491
1161.91,0.071005,439132,372898
1165.48,0.074019,442389,373066
1169.04,0.076157,446101,374349
1173.79,0.081107,451929,374941
1177.34,0.083641,456026,376139
1180.9,0.086593,461306,377917
1184.44,0.088278,467657,381636
1187.99,0.089382,473969,385805
1191.52,0.088912,479856,391020
1195.06,0.088250,487372,397750
1199.76,0.087014,497347,407048
1203.29,0.085678,504311,414019
1206.81,0.084597,511507,420973
1210.33,0.083193,519078,428588
1213.84,0.081707,527163,436755
1217.35,0.081166,534208,443144
1220.85,0.079849,540472,449701
1225.51,0.078709,549929,458773
1229.01,0.077972,556888,465367
1232.5,0.076724,562180,471141
1235.98,0.075983,567975,476811
1239.46,0.075080,574815,483558
1242.94,0.073947,582782,491540
1246.41,0.072609,591476,500412
1251.03,0.072263,604016,511429
1254.5,0.072461,612289,518198
1257.96,0.072939,619125,523407
1261.41,0.073652,624551,527128
1264.86,0.074013,629900,531201
1268.31,0.074665,634345,534147
1271.75,0.075375,638574,536829
1276.33,0.075709,642499,539714
1279.76,0.075769,645905,542500
1283.19,0.075319,648307,545082
1286.61,0.074848,650446,547474
1290.03,0.074255,652132,549643
1293.44,0.073719,653907,551819
1296.85,0.073360,655963,554012
1301.39,0.072958,657349,555697
1304.8,0.073622,657558,555024
1308.19,0.073327,658515,556210
1311.58,0.073949,658804,555658
1314.97,0.074216,659011,555491
1318.36,0.074856,658272,554050
1321.73,0.075803,658022,552634
1326.23,0.076755,657870,551296
1329.6,0.077230,656482,549532
1332.97,0.078543,654926,546574
1336.33,0.080024,653727,543717
1339.69,0.082077,652497,540134
1343.04,0.083913,649913,535725
1346.39,0.086433,647671,530789
1349.73,0.088562,645338,526290
1354.18,0.091994,641175,518779
1357.52,0.094743,638376,513256
1360.85,0.096929,635805,508622
1364.17,0.099418,633413,503812
1367.49,0.102240,631026,498663
1370.81,0.105111,628050,493041
1374.12,0.107583,625034,487889
1378.54,0.112043,620272,479225
1381.84,0.115421,616892,472920
1385.14,0.120347,613613,465101
1388.43,0.125338,611526,458223
1391.72,0.130442,610663,452230
1395.01,0.136396,610634,446051
1398.29,0.143145,611700,439940
1402.66,0.151405,614051,433311
1405.93,0.158522,616268,427807
1409.2,0.165065,617795,422454
1412.46,0.170840,618872,417600
1415.72,0.175830,619795,413445
1418.98,0.180733,620495,409266
1422.23,0.184909,621087,405736
1426.56,0.189742,621375,401432
1429.8,0.192312,621616,399218
1433.04,0.195492,622129,396633
1436.27,0.198013,621526,393955
1439.5,0.200157,621113,391754
1442.72,0.202992,620921,389085
1445.94,0.205690,620270,386270
1450.23,0.209173,618860,382313
1453.44,0.212616,617697,378582
1456.64,0.214834,616264,375779
1459.85,0.217880,614413,372032
1463.04,0.220514,612307,368515
1466.24,0.223711,610032,364453
1469.43,0.226536,607345,360495
1473.67,0.231661,603789,354180
1476.85,0.237297,601175,348100
1480.02,0.242474,597737,342008
1483.19,0.249199,594479,334917
1486.36,0.255404,591232,328363
1489.52,0.259558,587853,323378
1492.68,0.263377,583875,318378
1496.89,0.266631,578062,312855
1500.03,0.267656,574159,310010
1503.18,0.267819,570285,307803
1506.32,0.266504,565444,306116
1509.45,0.265419,560571,304237
1512.58,0.264596,555821,302231
1515.71,0.262677,550344,300578
1519.87,0.259042,543983,299601
1522.99,0.256460,538764,298496
1526.1,0.254294,533692,297164
1529.21,0.250901,527902,296246
1532.32,0.247926,521886,294883
1535.42,0.244213,515888,293997
1538.51,0.240865,509987,292883
1541.6,0.238057,503936,291285
1545.72,0.232721,494694,289478
1548.8,0.229073,488378,288193
1551.88,0.226088,481832,286291
1554.95,0.224213,474989,283446
1558.02,0.222782,467818,280088
1561.08,0.220252,460730,277456
1564.15,0.219980,454170,273677
1568.22,0.218247,444181,268728
1571.27,0.218476,436947,264212
1574.32,0.216855,429598,260740
1577.36,0.215475,422039,256967
1580.4,0.214129,414375,253084
1583.43,0.212241,406354,249266
1586.46,0.210300,398475,245528
1590.49,0.207385,388982,241293
1593.51,0.205565,380708,237152
1596.53,0.202710,372727,233712
1599.54,0.200714,365060,229959
1602.55,0.198053,357543,226608
1605.55,0.195578,349495,222773
1608.55,0.193557,341154,218471
1612.54,0.190661,330877,213307
1615.53,0.187585,322904,209647
1618.51,0.187520,315116,204621
1621.49,0.186131,307217,200131
1624.47,0.182852,299481,196570
1627.44,0.182223,292112,192011
1630.41,0.181030,284245,187354
1634.36,0.179504,274079,181289
1637.32,0.179458,266916,176570
1640.27,0.178266,259612,172210
1643.22,0.176973,251804,167529
1646.16,0.175621,244348,163075
1649.1,0.174951,236703,158217
1652.04,0.173830,228171,152908
1655.95,0.172292,215408,144867
1658.88,0.170318,204937,138453
1661.8,0.167589,193395,131479
1664.72,0.165343,179728,122821
1667.63,0.160601,163642,113056
1670.54,0.153862,146312,102664
1673.44,0.147326,128451,91498
1677.31,0.141742,105080,75819
1680.21,0.140666,88906,64308
1683.1,0.144252,75033,53827
1685.99,0.149004,63520,45072
1688.87,0.149756,53714,38048
1691.75,0.162872,45653,31376
1694.62,0.169374,39137,26498
1697.49,0.165711,33776,23062
1701.31,0.171888,28175,18966