File: samples/wool/wool-000811/Column 1_050563_20150331_120553.csv
Method:,Column 1,,
Host Date-Time:,31/3/15 @ 12:5:53,,
Header Version:,1,,
System Temp (C):,33.79,,
Detector Temp (C):,33.45,,
Humidity (%):,2,,
Lamp PD:,3819,,
Shift Vector Coefficients:,-10.5391,0.0761263,-0.000134223,,
Pixel to Wavelength Coefficients:,1775.68,-0.916766,-0.000235065,,
Serial Number:,5510004,,
Scan Config Name:,Column 1,,
Scan Config Type:,Slew,,
Section 1,,
Start wavelength (nm):,900,,
End wavelength (nm):,1700,,
Pattern Pixel Width (nm):,   7.03,,,,
Exposure (ms):,  0.635,,,,
Digital Resolution:,228,,
Num Repeats:,6,,
PGA Gain:,64,,
Total Measurement Time in sec:,  2.666,,
Wavelength (nm),Absorbance (AU),Reference Signal (unitless),Sample Signal (unitless)
901.51,0.032513,108485,100660
905.376,0.038939,121306,110903
909.237,0.042881,131909,119507
913.095,0.042958,143299,129803
916.948,0.043075,156982,142159
922.079,0.043672,179937,162723
925.923,0.046043,200504,180335
929.762,0.047479,222660,199601
933.597,0.047041,244426,219334
937.427,0.046800,263972,237005
941.254,0.046946,281845,252967
945.076,0.046570,297271,267044
950.165,0.045763,315605,284041
953.978,0.045280,328029,295551
957.786,0.045986,340470,306262
961.59,0.045818,352317,317041
965.389,0.046112,363056,326484
969.185,0.046987,373162,334896
972.976,0.046975,382632,343405
976.763,0.047334,391202,350806
981.806,0.048045,400190,358279
985.583,0.049198,406088,362595
989.355,0.048929,410162,366460
993.124,0.049719,412868,368207
996.888,0.050006,414263,369207
1000.65,0.051305,415476,369182
1004.4,0.051824,415479,368744
1009.41,0.054118,414358,365812
1013.15,0.054139,412923,364527
1016.89,0.054082,411526,363342
1020.63,0.054864,409066,360520
1024.36,0.054287,406777,358979
1028.09,0.054194,404427,356982
1031.82,0.053688,401911,355175
1036.78,0.053789,398410,351999
1040.49,0.053192,396204,350531
1044.2,0.053221,394236,348767
1047.91,0.052708,392042,347236
1051.61,0.051747,389823,346035
1055.31,0.051869,388234,344528
1059,0.051540,387599,344225
1063.92,0.049917,386688,344702
1067.61,0.049043,386598,345316
1071.29,0.048064,387377,346793
1074.96,0.048230,388536,347697
1078.63,0.047886,389855,349154
1082.3,0.046204,391215,351732
1085.96,0.046081,393215,353630
1090.84,0.045304,396270,357016
1094.49,0.044772,398760,359699
1098.14,0.044855,400987,361639
1101.79,0.044719,403477,363999
1105.43,0.044519,406116,366548
1109.06,0.043720,407701,368656
1112.7,0.043779,409859,370557
1117.53,0.043563,412494,373125
1121.15,0.044831,414909,374216
1124.77,0.045417,416559,375197
1128.38,0.046294,418532,376214
1131.99,0.047987,419956,376025
1135.6,0.049584,421946,376420
1139.2,0.050979,423881,376934
1143.99,0.053528,426786,377296
1147.58,0.055109,428617,377538
1151.17,0.056310,431169,378737
1154.75,0.057380,433579,379917
1158.33,0.059246,436264,380630
1161.91,0.061161,439132,381447
1165.48,0.063476,442389,382233
1169.04,0.066126,446101,383096
1173.79,0.070145,451929,384526
1177.34,0.072532,456026,385885
1180.9,0.074408,461306,388670
1184.44,0.076794,467657,391862
1187.99,0.077338,473969,396654
1191.52,0.077182,479856,401725
1195.06,0.076632,487372,408534
1199.76,0.076245,497347,417267
1203.29,0.074931,504311,424392
1206.81,0.074306,511507,431068
1210.33,0.073707,519078,438052
1213.84,0.072534,527163,446078
1217.35,0.071551,534208,453064
1220.85,0.071770,540472,458145
1225.51,0.070242,549929,467805
1229.01,0.069435,556888,474606
1232.5,0.069003,562180,479593
1235.98,0.068450,567975,485154
1239.46,0.067060,574815,492570
1242.94,0.066721,582782,499787
1246.41,0.065486,591476,508688
1251.03,0.065735,604016,519175
1254.5,0.065635,612289,526407
1257.96,0.066010,619125,531825
1261.41,0.066560,624551,535807
1264.86,0.067342,629900,539423
1268.31,0.067992,634345,542417
1271.75,0.068718,638574,545121
1276.33,0.068853,642499,548302
1279.76,0.068983,645905,551043
1283.19,0.068467,648307,553750
1286.61,0.067947,650446,556243
1290.03,0.067961,652132,557667
1293.44,0.067340,653907,559985
1296.85,0.067122,655963,562027
1301.39,0.066872,657349,563539
1304.8,0.066878,657558,563710
1308.19,0.067048,658515,564310
1311.58,0.067000,658804,564620
1314.97,0.067831,659011,563718
1318.36,0.068300,658272,562478
1321.73,0.068618,658022,561852
1326.23,0.069917,657870,560045
1329.6,0.070473,656482,558149
1332.97,0.071679,654926,555282
1336.33,0.072925,653727,552677
1339.69,0.074405,652497,549761
1343.04,0.076416,649913,545054
1346.39,0.078490,647671,540586
1349.73,0.080752,645338,535840
1354.18,0.083867,641175,528578
1357.52,0.086355,638376,523265
1360.85,0.088301,635805,518827
1364.17,0.090446,633413,514329
1367.49,0.092710,631026,509726
1370.81,0.095436,628050,504148
1374.12,0.097900,625034,498889
1378.54,0.101255,620272,491278
1381.84,0.105080,616892,484316
1385.14,0.108988,613613,477426
1388.43,0.113322,611526,471078
1391.72,0.117965,610663,465411
1395.01,0.122954,610634,460073
1398.29,0.128376,611700,455158
1402.66,0.135959,614051,448999
1405.93,0.141508,616268,444899
1409.2,0.147286,617795,440107
1412.46,0.152903,618872,435209
1415.72,0.157011,619795,431755
1418.98,0.161136,620495,428156
1422.23,0.165414,621087,424364
1426.56,0.169210,621375,420866
1429.8,0.172195,621616,418145
1433.04,0.175132,622129,415670
1436.27,0.177553,621526,412958
1439.5,0.178921,621113,411386
1442.72,0.182241,620921,408127
1445.94,0.184822,620270,405283
1450.23,0.188393,618860,401051
1453.44,0.190852,617697,398037
1456.64,0.193819,616264,394410
1459.85,0.196901,614413,390445
1463.04,0.199750,612307,386562
1466.24,0.203081,610032,382183
1469.43,0.206456,607345,377554
1473.67,0.212256,603789,370364
1476.85,0.218525,601175,363476
1480.02,0.224685,597737,356308
1483.19,0.230878,594479,349348
1486.36,0.237009,591232,342570
1489.52,0.241794,587853,336880
1492.68,0.245347,583875,331874
1496.89,0.247585,578062,326881
1500.03,0.248726,574159,323822
1503.18,0.248737,570285,321629
1506.32,0.248869,565444,318802
1509.45,0.246813,560571,317554
1512.58,0.245387,555821,315899
1515.71,0.242612,550344,314791
1519.87,0.239126,543983,313660
1522.99,0.236875,538764,312265
1526.1,0.234444,533692,311062
1529.21,0.231039,527902,310109
1532.32,0.227842,521886,308840
1535.42,0.223896,515888,308077
1538.51,0.221598,509987,306169
1541.6,0.219206,503936,304207
1545.72,0.213593,494694,302513
1548.8,0.210446,488378,300822
1551.88,0.208221,481832,298315
1554.95,0.205483,474989,295938
1558.02,0.204217,467818,292321
1561.08,0.203222,460730,288552
1564.15,0.202747,454170,284755
1568.22,0.201026,444181,279598
1571.27,0.200090,436947,275638
1574.32,0.199113,429598,271612
1577.36,0.197875,422039,267595
1580.4,0.196362,414375,263652
1583.43,0.194008,406354,259954
1586.46,0.192628,398475,255725
1590.49,0.190792,388982,250690
1593.51,0.188703,380708,246541
1596.53,0.186428,372727,242640
1599.54,0.184197,365060,238873
1602.55,0.181717,357543,235294
1605.55,0.180719,349495,230527
1608.55,0.177965,341154,226457
1612.54,0.175288,330877,220993
1615.53,0.173293,322904,216661
1618.51,0.171770,315116,212178
1621.49,0.171221,307217,207121
1624.47,0.169333,299481,202785
1627.44,0.167852,292112,198471
1630.41,0.167733,284245,193179
1634.36,0.165893,274079,187061
1637.32,0.165000,266916,182547
1640.27,0.162908,259612,178409
1643.22,0.163145,251804,172949
1646.16,0.161468,244348,168477
1649.1,0.161066,236703,163357
1652.04,0.159867,228171,157904
1655.95,0.158107,215408,149677
1658.88,0.155295,204937,143326
1661.8,0.150280,193395,136825
1664.72,0.144343,179728,128906
1667.63,0.134240,163642,120131
1670.54,0.123106,146312,110198
1673.44,0.110055,128451,99697
1677.31,0.096905,105080,84065
1680.21,0.088713,88906,72480
1683.1,0.087056,75033,61404
1685.99,0.087559,63520,51922
1688.87,0.093620,53714,43298
1691.75,0.101782,45653,36115
1694.62,0.104700,39137,30753
1697.49,0.106396,33776,26437
1701.31,0.105138,28175,22117