File: samples/wool/wool-000811/Column 1_050565_20150331_120653.csv
Method:,Column 1,,
Host Date-Time:,31/3/15 @ 12:6:53,,
Header Version:,1,,
System Temp (C):,33.85,,
Detector Temp (C):,33.66,,
Humidity (%):,1.95,,
Lamp PD:,3819,,
Shift Vector Coefficients:,-10.5391,0.0761263,-0.000134223,,
Pixel to Wavelength Coefficients:,1775.68,-0.916766,-0.000235065,,
Serial Number:,5510004,,
Scan Config Name:,Column 1,,
Scan Config Type:,Slew,,
Section 1,,
Start wavelength (nm):,900,,
End wavelength (nm):,1700,,
Pattern Pixel Width (nm):,   7.03,,,,
Exposure (ms):,  0.635,,,,
Digital Resolution:,228,,
Num Repeats:,6,,
PGA Gain:,64,,
Total Measurement Time in sec:,  2.729,,
Wavelength (nm),Absorbance (AU),Reference Signal (unitless),Sample Signal (unitless)
901.51,0.032923,108485,100565
905.376,0.040626,121306,110473
909.237,0.041571,131909,119868
913.095,0.042784,143299,129855
916.948,0.043127,156982,142142
922.079,0.045884,179937,161896
925.923,0.047495,200504,179733
929.762,0.048953,222660,198925
933.597,0.048243,244426,218728
937.427,0.047802,263972,236459
941.254,0.047005,281845,252933
945.076,0.046223,297271,267257
950.165,0.046182,315605,283767
953.978,0.045447,328029,295437
957.786,0.045790,340470,306400
961.59,0.046190,352317,316770
965.389,0.046408,363056,326261
969.185,0.046717,373162,335105
972.976,0.046623,382632,343683
976.763,0.047381,391202,350768
981.806,0.048507,400190,357898
985.583,0.049274,406088,362532
989.355,0.049416,410162,366049
993.124,0.049646,412868,368269
996.888,0.050458,414263,368823
1000.65,0.051267,415476,369215
1004.4,0.052201,415479,368424
1009.41,0.053841,414358,366045
1013.15,0.054735,412923,364027
1016.89,0.054752,411526,362782
1020.63,0.054825,409066,360552
1024.36,0.054696,406777,358641
1028.09,0.054184,404427,356990
1031.82,0.053832,401911,355057
1036.78,0.053265,398410,352424
1040.49,0.053430,396204,350339
1044.2,0.053344,394236,348668
1047.91,0.052245,392042,347606
1051.61,0.052107,389823,345749
1055.31,0.051889,388234,344512
1059,0.051066,387599,344601
1063.92,0.050004,386688,344633
1067.61,0.048798,386598,345511
1071.29,0.048872,387377,346148
1074.96,0.048028,388536,347859
1078.63,0.047379,389855,349562
1082.3,0.046925,391215,351148
1085.96,0.046527,393215,353267
1090.84,0.045372,396270,356960
1094.49,0.045266,398760,359290
1098.14,0.044682,400987,361783
1101.79,0.044087,403477,364529
1105.43,0.044808,406116,366304
1109.06,0.043837,407701,368557
1112.7,0.043720,409859,370608
1117.53,0.043630,412494,373068
1121.15,0.044667,414909,374357
1124.77,0.045656,416559,374991
1128.38,0.046648,418532,375907
1131.99,0.047395,419956,376538
1135.6,0.049800,421946,376233
1139.2,0.051504,423881,376478
1143.99,0.053941,426786,376937
1147.58,0.054956,428617,377671
1151.17,0.056075,431169,378942
1154.75,0.057112,433579,380151
1158.33,0.059208,436264,380664
1161.91,0.061306,439132,381320
1165.48,0.063769,442389,381975
1169.04,0.066687,446101,382601
1173.79,0.070209,451929,384469
1177.34,0.072336,456026,386059
1180.9,0.074406,461306,388672
1184.44,0.076182,467657,392415
1187.99,0.077167,473969,396810
1191.52,0.077091,479856,401809
1195.06,0.077168,487372,408030
1199.76,0.076089,497347,417417
1203.29,0.074874,504311,424448
1206.81,0.074223,511507,431150
1210.33,0.073411,519078,438351
1213.84,0.072706,527163,445902
1217.35,0.071911,534208,452688
1220.85,0.071118,540472,458834
1225.51,0.070563,549929,467459
1229.01,0.069380,556888,474666
1232.5,0.068971,562180,479628
1235.98,0.068525,567975,485070
1239.46,0.067281,574815,492320
1242.94,0.066559,582782,499974
1246.41,0.066070,591476,508004
1251.03,0.065343,604016,519644
1254.5,0.065560,612289,526498
1257.96,0.066117,619125,531694
1261.41,0.066762,624551,535557
1264.86,0.067501,629900,539226
1268.31,0.068129,634345,542246
1271.75,0.069104,638574,544637
1276.33,0.069109,642499,547979
1279.76,0.069122,645905,550867
1283.19,0.068494,648307,553716
1286.61,0.067979,650446,556201
1290.03,0.067729,652132,557965
1293.44,0.067277,653907,560066
1296.85,0.066853,655963,562376
1301.39,0.066745,657349,563704
1304.8,0.066784,657558,563833
1308.19,0.067277,658515,564012
1311.58,0.067232,658804,564318
1314.97,0.067722,659011,563859
1318.36,0.067927,658272,562961
1321.73,0.068285,658022,562283
1326.23,0.069635,657870,560409
1329.6,0.070328,656482,558335
1332.97,0.071289,654926,555780
1336.33,0.072912,653727,552694
1339.69,0.074261,652497,549943
1343.04,0.076251,649913,545261
1346.39,0.078431,647671,540659
1349.73,0.080417,645338,536254
1354.18,0.083526,641175,528994
1357.52,0.086127,638376,523540
1360.85,0.087997,635805,519191
1364.17,0.090205,633413,514615
1367.49,0.092505,631026,509967
1370.81,0.095616,628050,503939
1374.12,0.097680,625034,499142
1378.54,0.100908,620272,491670
1381.84,0.104348,616892,485133
1385.14,0.108721,613613,477720
1388.43,0.112887,611526,471550
1391.72,0.117715,610663,465679
1395.01,0.122424,610634,460635
1398.29,0.127535,611700,456041
1402.66,0.134915,614051,450080
1405.93,0.140938,616268,445483
1409.2,0.146652,617795,440750
1412.46,0.151641,618872,436475
1415.72,0.156448,619795,432315
1418.98,0.160543,620495,428741
1422.23,0.163929,621087,425817
1426.56,0.168057,621375,421985
1429.8,0.171472,621616,418842
1433.04,0.173567,622129,417170
1436.27,0.175966,621526,414470
1439.5,0.178542,621113,411745
1442.72,0.181005,620921,409290
1445.94,0.183702,620270,406330
1450.23,0.187242,618860,402115
1453.44,0.190145,617697,398686
1456.64,0.193482,616264,394716
1459.85,0.195981,614413,391273
1463.04,0.198961,612307,387265
1466.24,0.202040,610032,383100
1469.43,0.205910,607345,378029
1473.67,0.211729,603789,370814
1476.85,0.217581,601175,364267
1480.02,0.224033,597737,356843
1483.19,0.230266,594479,349841
1486.36,0.236013,591232,343356
1489.52,0.241160,587853,337372
1492.68,0.244967,583875,332164
1496.89,0.247888,578062,326653
1500.03,0.247476,574159,324755
1503.18,0.248573,570285,321750
1506.32,0.247487,565444,319818
1509.45,0.246594,560571,317714
1512.58,0.244344,555821,316658
1515.71,0.241821,550344,315365
1519.87,0.238263,543983,314284
1522.99,0.236300,538764,312679
1526.1,0.233202,533692,311953
1529.21,0.230629,527902,310402
1532.32,0.227319,521886,309212
1535.42,0.224376,515888,307737
1538.51,0.220861,509987,306689
1541.6,0.217906,503936,305119
1545.72,0.212984,494694,302937
1548.8,0.210291,488378,300930
1551.88,0.207618,481832,298729
1554.95,0.205588,474989,295866
1558.02,0.203132,467818,293052
1561.08,0.202759,460730,288860
1564.15,0.202002,454170,285244
1568.22,0.200137,444181,280171
1571.27,0.199916,436947,275748
1574.32,0.199347,429598,271466
1577.36,0.197437,422039,267865
1580.4,0.196005,414375,263869
1583.43,0.194080,406354,259911
1586.46,0.192402,398475,255858
1590.49,0.190564,388982,250822
1593.51,0.188090,380708,246889
1596.53,0.185113,372727,243376
1599.54,0.183334,365060,239348
1602.55,0.180989,357543,235689
1605.55,0.178982,349495,231451
1608.55,0.176796,341154,227067
1612.54,0.174948,330877,221166
1615.53,0.172638,322904,216988
1618.51,0.171228,315116,212443
1621.49,0.170888,307217,207280
1624.47,0.168420,299481,203212
1627.44,0.168224,292112,198301
1630.41,0.167555,284245,193258
1634.36,0.164671,274079,187588
1637.32,0.164522,266916,182748
1640.27,0.163588,259612,178130
1643.22,0.162467,251804,173219
1646.16,0.162041,244348,168255
1649.1,0.160938,236703,163405
1652.04,0.159005,228171,158218
1655.95,0.156447,215408,150250
1658.88,0.152962,204937,144098
1661.8,0.149623,193395,137032
1664.72,0.144171,179728,128957
1667.63,0.132792,163642,120532
1670.54,0.120611,146312,110833
1673.44,0.109359,128451,99857
1677.31,0.095317,105080,84373
1680.21,0.085257,88906,73059
1683.1,0.083225,75033,61948
1685.99,0.087693,63520,51906
1688.87,0.090661,53714,43594
1691.75,0.094614,45653,36716
1694.62,0.097877,39137,31240
1697.49,0.101171,33776,26757
1701.31,0.116175,28175,21562