File: samples/wool/wool-000811/Column 1_050566_20150331_120730.csv
Method:,Column 1,,
Host Date-Time:,31/3/15 @ 12:7:30,,
Header Version:,1,,
System Temp (C):,33.92,,
Detector Temp (C):,33.81,,
Humidity (%):,1.86,,
Lamp PD:,3818,,
Shift Vector Coefficients:,-10.5391,0.0761263,-0.000134223,,
Pixel to Wavelength Coefficients:,1775.68,-0.916766,-0.000235065,,
Serial Number:,5510004,,
Scan Config Name:,Column 1,,
Scan Config Type:,Slew,,
Section 1,,
Start wavelength (nm):,900,,
End wavelength (nm):,1700,,
Pattern Pixel Width (nm):,   7.03,,,,
Exposure (ms):,  0.635,,,,
Digital Resolution:,228,,
Num Repeats:,6,,
PGA Gain:,64,,
Total Measurement Time in sec:,  2.671,,
Wavelength (nm),Absorbance (AU),Reference Signal (unitless),Sample Signal (unitless)
901.51,0.035478,108485,99975
905.376,0.041307,121306,110300
909.237,0.042198,131909,119695
913.095,0.044638,143299,129302
916.948,0.045081,156982,141504
922.079,0.047869,179937,161158
925.923,0.047882,200504,179573
929.762,0.048427,222660,199166
933.597,0.048533,244426,218582
937.427,0.048589,263972,236031
941.254,0.048255,281845,252206
945.076,0.047693,297271,266354
950.165,0.047008,315605,283228
953.978,0.046233,328029,294903
957.786,0.047201,340470,305406
961.59,0.047145,352317,316074
965.389,0.046996,363056,325820
969.185,0.047748,373162,334310
972.976,0.048008,382632,342589
976.763,0.047890,391202,350357
981.806,0.049281,400190,357261
985.583,0.049368,406088,362453
989.355,0.050112,410162,365463
993.124,0.050828,412868,367268
996.888,0.051251,414263,368150
1000.65,0.052138,415476,368475
1004.4,0.053687,415479,367166
1009.41,0.054444,414358,365537
1013.15,0.054956,412923,363842
1016.89,0.055625,411526,362053
1020.63,0.055614,409066,359898
1024.36,0.055476,406777,357998
1028.09,0.055140,404427,356205
1031.82,0.055177,401911,353959
1036.78,0.054306,398410,351580
1040.49,0.054026,396204,349859
1044.2,0.054161,394236,348013
1047.91,0.053522,392042,346586
1051.61,0.052809,389823,345190
1055.31,0.052665,388234,343897
1059,0.051635,387599,344150
1063.92,0.050624,386688,344141
1067.61,0.049866,386598,344662
1071.29,0.049368,387377,345753
1074.96,0.049123,388536,346983
1078.63,0.048827,389855,348398
1082.3,0.047833,391215,350415
1085.96,0.047017,393215,352869
1090.84,0.046366,396270,356144
1094.49,0.046105,398760,358597
1098.14,0.045707,400987,360930
1101.79,0.045148,403477,363639
1105.43,0.045587,406116,365648
1109.06,0.044894,407701,367661
1112.7,0.043979,409859,370387
1117.53,0.044749,412494,372108
1121.15,0.045715,414909,373455
1124.77,0.046011,416559,374684
1128.38,0.046926,418532,375667
1131.99,0.048467,419956,375610
1135.6,0.050807,421946,375362
1139.2,0.051882,423881,376151
1143.99,0.054637,426786,376334
1147.58,0.055774,428617,376960
1151.17,0.057182,431169,377977
1154.75,0.058022,433579,379355
1158.33,0.060157,436264,379833
1161.91,0.061874,439132,380821
1165.48,0.064072,442389,381709
1169.04,0.066675,446101,382612
1173.79,0.070624,451929,384102
1177.34,0.073762,456026,384793
1180.9,0.075313,461306,387861
1184.44,0.076577,467657,392058
1187.99,0.078084,473969,395973
1191.52,0.078087,479856,400889
1195.06,0.077209,487372,407992
1199.76,0.077053,497347,416492
1203.29,0.075260,504311,424071
1206.81,0.074932,511507,430447
1210.33,0.074121,519078,437635
1213.84,0.074531,527163,444032
1217.35,0.072464,534208,452112
1220.85,0.071501,540472,458429
1225.51,0.070657,549929,467358
1229.01,0.070448,556888,473500
1232.5,0.069525,562180,479016
1235.98,0.069049,567975,484485
1239.46,0.067818,574815,491711
1242.94,0.066618,582782,499906
1246.41,0.066677,591476,507295
1251.03,0.066007,604016,518850
1254.5,0.066503,612289,525356
1257.96,0.066619,619125,531079
1261.41,0.067215,624551,534999
1264.86,0.067968,629900,538646
1268.31,0.068258,634345,542085
1271.75,0.069533,638574,544100
1276.33,0.069547,642499,547426
1279.76,0.069568,645905,550301
1283.19,0.069107,648307,552934
1286.61,0.068675,650446,555311
1290.03,0.068294,652132,557239
1293.44,0.067485,653907,559797
1296.85,0.067843,655963,561095
1301.39,0.067322,657349,562955
1304.8,0.067109,657558,563411
1308.19,0.067567,658515,563636
1311.58,0.067724,658804,563679
1314.97,0.068292,659011,563119
1318.36,0.068606,658272,562081
1321.73,0.068838,658022,561568
1326.23,0.070188,657870,559696
1329.6,0.070893,656482,557609
1332.97,0.071971,654926,554908
1336.33,0.072921,653727,552682
1339.69,0.075050,652497,548945
1343.04,0.076788,649913,544587
1346.39,0.078674,647671,540357
1349.73,0.080763,645338,535827
1354.18,0.084028,641175,528383
1357.52,0.086489,638376,523103
1360.85,0.088293,635805,518837
1364.17,0.091017,633413,513653
1367.49,0.092815,631026,509603
1370.81,0.095654,628050,503895
1374.12,0.097598,625034,499236
1378.54,0.101480,620272,491023
1381.84,0.105077,616892,484320
1385.14,0.108852,613613,477576
1388.43,0.113107,611526,471311
1391.72,0.117263,610663,466164
1395.01,0.122596,610634,460453
1398.29,0.127975,611700,455579
1402.66,0.134894,614051,450101
1405.93,0.141178,616268,445237
1409.2,0.146529,617795,440875
1412.46,0.151417,618872,436701
1415.72,0.156430,619795,432333
1418.98,0.160259,620495,429022
1422.23,0.164030,621087,425718
1426.56,0.168033,621375,422008
1429.8,0.170767,621616,419522
1433.04,0.173974,622129,416780
1436.27,0.176240,621526,414209
1439.5,0.178216,621113,412054
1442.72,0.181095,620921,409205
1445.94,0.183270,620270,406734
1450.23,0.187089,618860,402257
1453.44,0.189793,617697,399009
1456.64,0.192658,616264,395466
1459.85,0.196012,614413,391245
1463.04,0.198366,612307,387796
1466.24,0.201546,610032,383536
1469.43,0.206111,607345,377854
1473.67,0.212167,603789,370440
1476.85,0.217542,601175,364300
1480.02,0.223070,597737,357635
1483.19,0.230106,594479,349970
1486.36,0.236152,591232,343246
1489.52,0.241270,587853,337286
1492.68,0.245110,583875,332055
1496.89,0.247629,578062,326848
1500.03,0.248341,574159,324109
1503.18,0.248393,570285,321884
1506.32,0.247584,565444,319746
1509.45,0.246258,560571,317960
1512.58,0.244313,555821,316681
1515.71,0.242235,550344,315064
1519.87,0.238920,543983,313809
1522.99,0.236175,538764,312769
1526.1,0.233651,533692,311630
1529.21,0.230739,527902,310323
1532.32,0.227333,521886,309202
1535.42,0.224415,515888,307709
1538.51,0.221540,509987,306210
1541.6,0.217553,503936,305367
1545.72,0.213245,494694,302755
1548.8,0.210637,488378,300690
1551.88,0.208528,481832,298104
1554.95,0.206154,474989,295481
1558.02,0.204157,467818,292361
1561.08,0.203286,460730,288510
1564.15,0.202107,454170,285175
1568.22,0.201306,444181,279418
1571.27,0.201049,436947,275030
1574.32,0.199660,429598,271270
1577.36,0.197116,422039,268063
1580.4,0.195678,414375,264068
1583.43,0.194533,406354,259640
1586.46,0.193224,398475,255374
1590.49,0.191349,388982,250369
1593.51,0.188418,380708,246703
1596.53,0.185983,372727,242889
1599.54,0.184854,365060,238512
1602.55,0.182388,357543,234931
1605.55,0.179132,349495,231371
1608.55,0.177683,341154,226604
1612.54,0.174905,330877,221188
1615.53,0.173519,322904,216548
1618.51,0.171969,315116,212081
1621.49,0.171309,307217,207079
1624.47,0.169453,299481,202729
1627.44,0.168347,292112,198245
1630.41,0.167911,284245,193100
1634.36,0.165953,274079,187035
1637.32,0.165274,266916,182432
1640.27,0.164290,259612,177842
1643.22,0.163524,251804,172798
1646.16,0.162415,244348,168110
1649.1,0.161186,236703,163312
1652.04,0.159986,228171,157861
1655.95,0.157901,215408,149748
1658.88,0.154236,204937,143676
1661.8,0.150677,193395,136700
1664.72,0.143249,179728,129231
1667.63,0.132940,163642,120491
1670.54,0.120607,146312,110834
1673.44,0.109655,128451,99789
1677.31,0.092433,105080,84935
1680.21,0.087110,88906,72748
1683.1,0.084264,75033,61800
1685.99,0.084966,63520,52233
1688.87,0.090362,53714,43624
1691.75,0.091538,45653,36977
1694.62,0.099520,39137,31122
1697.49,0.097566,33776,26980
1701.31,0.117001,28175,21521