File: samples/wool/wool-000811/Column 1_050600_20150331_122338.csv
Method:,Column 1,,
Host Date-Time:,31/3/15 @ 12:23:38,,
Header Version:,1,,
System Temp (C):,33.97,,
Detector Temp (C):,34.79,,
Humidity (%):,1.76,,
Lamp PD:,3818,,
Shift Vector Coefficients:,-10.5391,0.0761263,-0.000134223,,
Pixel to Wavelength Coefficients:,1775.68,-0.916766,-0.000235065,,
Serial Number:,5510004,,
Scan Config Name:,Column 1,,
Scan Config Type:,Slew,,
Section 1,,
Start wavelength (nm):,900,,
End wavelength (nm):,1700,,
Pattern Pixel Width (nm):,   7.03,,,,
Exposure (ms):,  0.635,,,,
Digital Resolution:,228,,
Num Repeats:,6,,
PGA Gain:,64,,
Total Measurement Time in sec:,  2.668,,
Wavelength (nm),Absorbance (AU),Reference Signal (unitless),Sample Signal (unitless)
901.51,0.068876,108485,92575
905.376,0.075167,121306,102027
909.237,0.076115,131909,110703
913.095,0.077891,143299,119771
916.948,0.077407,156982,131354
922.079,0.079519,179937,149831
925.923,0.081667,200504,166133
929.762,0.083136,222660,183868
933.597,0.082532,244426,202123
937.427,0.080486,263972,219317
941.254,0.080679,281845,234062
945.076,0.079074,297271,247787
950.165,0.078513,315605,263409
953.978,0.077631,328029,274335
957.786,0.078012,340470,284490
961.59,0.077891,352317,294471
965.389,0.078000,363056,303371
969.185,0.078133,373162,311720
972.976,0.078188,382632,319590
976.763,0.079030,391202,326115
981.806,0.079250,400190,333439
985.583,0.080031,406088,337745
989.355,0.080583,410162,340700
993.124,0.080258,412868,343205
996.888,0.081169,414263,343643
1000.65,0.081637,415476,344278
1004.4,0.083293,415479,342970
1009.41,0.084583,414358,341030
1013.15,0.084995,412923,339527
1016.89,0.085447,411526,338026
1020.63,0.085242,409066,336164
1024.36,0.085401,406777,334161
1028.09,0.085028,404427,332516
1031.82,0.085036,401911,330441
1036.78,0.084037,398410,328317
1040.49,0.084010,396204,326519
1044.2,0.084445,394236,324572
1047.91,0.083746,392042,323286
1051.61,0.083511,389823,321630
1055.31,0.083385,388234,320412
1059,0.083306,387599,319946
1063.92,0.081885,386688,320240
1067.61,0.081780,386598,320243
1071.29,0.081138,387377,321363
1074.96,0.080135,388536,323070
1078.63,0.080046,389855,324233
1082.3,0.079480,391215,325788
1085.96,0.078718,393215,328029
1090.84,0.077061,396270,331841
1094.49,0.077043,398760,333940
1098.14,0.076029,400987,336590
1101.79,0.075869,403477,338805
1105.43,0.075261,406116,341499
1109.06,0.074609,407701,343347
1112.7,0.074643,409859,345137
1117.53,0.073686,412494,348122
1121.15,0.074447,414909,349547
1124.77,0.074939,416559,350540
1128.38,0.075705,418532,351580
1131.99,0.076392,419956,352218
1135.6,0.078410,421946,352247
1139.2,0.078995,423881,353386
1143.99,0.081870,426786,353460
1147.58,0.082366,428617,354571
1151.17,0.083272,431169,355939
1154.75,0.084382,433579,357015
1158.33,0.085727,436264,358115
1161.91,0.087314,439132,359154
1165.48,0.089083,442389,360347
1169.04,0.091728,446101,361165
1173.79,0.095876,451929,362405
1177.34,0.096837,456026,364882
1180.9,0.099434,461306,366906
1184.44,0.100981,467657,370635
1187.99,0.102167,473969,374613
1191.52,0.102574,479856,378911
1195.06,0.101969,487372,385382
1199.76,0.101050,497347,394103
1203.29,0.100530,504311,400100
1206.81,0.099987,511507,406317
1210.33,0.099239,519078,413041
1213.84,0.099283,527163,419432
1217.35,0.098006,534208,426289
1220.85,0.097645,540472,431646
1225.51,0.097158,549929,439692
1229.01,0.095994,556888,446451
1232.5,0.095512,562180,451194
1235.98,0.095382,567975,455981
1239.46,0.094130,574815,462805
1242.94,0.093611,582782,469781
1246.41,0.092387,591476,478134
1251.03,0.092347,604016,488316
1254.5,0.092669,612289,494638
1257.96,0.093521,619125,499180
1261.41,0.093508,624551,503570
1264.86,0.094124,629900,507163
1268.31,0.094581,634345,510205
1271.75,0.095027,638574,513079
1276.33,0.095857,642499,515247
1279.76,0.095059,645905,518931
1283.19,0.094730,648307,521255
1286.61,0.094299,650446,523495
1290.03,0.093836,652132,525411
1293.44,0.093499,653907,527250
1296.85,0.093524,655963,528878
1301.39,0.093230,657349,530354
1304.8,0.093217,657558,530539
1308.19,0.093470,658515,531001
1311.58,0.093417,658804,531299
1314.97,0.093965,659011,530796
1318.36,0.094162,658272,529960
1321.73,0.094328,658022,529557
1326.23,0.095777,657870,527671
1329.6,0.096264,656482,525967
1332.97,0.097256,654926,523523
1336.33,0.098252,653727,521368
1339.69,0.099811,652497,518522
1343.04,0.101190,649913,514832
1346.39,0.103019,647671,510899
1349.73,0.105224,645338,506481
1354.18,0.108001,641175,500006
1357.52,0.109527,638376,496078
1360.85,0.112138,635805,491118
1364.17,0.113999,633413,487178
1367.49,0.116254,631026,482829
1370.81,0.118516,628050,478055
1374.12,0.120654,625034,473423
1378.54,0.123321,620272,466940
1381.84,0.126276,616892,461247
1385.14,0.129396,613613,455511
1388.43,0.133133,611526,450072
1391.72,0.137822,610663,444610
1395.01,0.141811,610634,440524
1398.29,0.146137,611700,436920
1402.66,0.152710,614051,432011
1405.93,0.157824,616268,428495
1409.2,0.162490,617795,424966
1412.46,0.166721,618872,421580
1415.72,0.171409,619795,417676
1418.98,0.174664,620495,415025
1422.23,0.177831,621087,412403
1426.56,0.181671,621375,408962
1429.8,0.184716,621616,406262
1433.04,0.187197,622129,404281
1436.27,0.189172,621526,402057
1439.5,0.191775,621113,399389
1442.72,0.193919,620921,397299
1445.94,0.196076,620270,394916
1450.23,0.200071,618860,390410
1453.44,0.202490,617697,387512
1456.64,0.205116,616264,384283
1459.85,0.207935,614413,380650
1463.04,0.210683,612307,376952
1466.24,0.213661,610032,372985
1469.43,0.217505,607345,368070
1473.67,0.223750,603789,360691
1476.85,0.228859,601175,354929
1480.02,0.234612,597737,348256
1483.19,0.241483,594479,340921
1486.36,0.246523,591232,335147
1489.52,0.251743,587853,329250
1492.68,0.255279,583875,324370
1496.89,0.256701,578062,320091
1500.03,0.257420,574159,317404
1503.18,0.257455,570285,315237
1506.32,0.256761,565444,313061
1509.45,0.254806,560571,311763
1512.58,0.253755,555821,309870
1515.71,0.251352,550344,308519
1519.87,0.248366,543983,307057
1522.99,0.245715,538764,305973
1526.1,0.242833,533692,305111
1529.21,0.240179,527902,303651
1532.32,0.237720,521886,301895
1535.42,0.235324,515888,300076
1538.51,0.231836,509987,299036
1541.6,0.229337,503936,297193
1545.72,0.225097,494694,294605
1548.8,0.221795,488378,293063
1551.88,0.220417,481832,290054
1554.95,0.217407,474989,287923
1558.02,0.216089,467818,284438
1561.08,0.215244,460730,280674
1564.15,0.214654,454170,277054
1568.22,0.213373,444181,271761
1571.27,0.212197,436947,268060
1574.32,0.212371,429598,263446
1577.36,0.210344,422039,260021
1580.4,0.209901,414375,255560
1583.43,0.207999,406354,251713
1586.46,0.206961,398475,247423
1590.49,0.204874,388982,242692
1593.51,0.202707,380708,238718
1596.53,0.200353,372727,234984
1599.54,0.198613,365060,231074
1602.55,0.197846,357543,226716
1605.55,0.195364,349495,222883
1608.55,0.193159,341154,218671
1612.54,0.190767,330877,213255
1615.53,0.188971,322904,208979
1618.51,0.188347,315116,204232
1621.49,0.186602,307217,199914
1624.47,0.185787,299481,195246
1627.44,0.185023,292112,190777
1630.41,0.184220,284245,185983
1634.36,0.182536,274079,180028
1637.32,0.182167,266916,175472
1640.27,0.181931,259612,170763
1643.22,0.179695,251804,166482
1646.16,0.180609,244348,161213
1649.1,0.179043,236703,156733
1652.04,0.177725,228171,151543
1655.95,0.173758,215408,144379
1658.88,0.170111,204937,138519
1661.8,0.164967,193395,132275
1664.72,0.158029,179728,124907
1667.63,0.145167,163642,117146
1670.54,0.130050,146312,108450
1673.44,0.115041,128451,98559
1677.31,0.096771,105080,84091
1680.21,0.083952,88906,73279
1683.1,0.076588,75033,62902
1685.99,0.081207,63520,52687
1688.87,0.080509,53714,44625
1691.75,0.090482,45653,37067
1694.62,0.088103,39137,31951
1697.49,0.086897,33776,27651
1701.31,0.096679,28175,22552