File: samples/wool/wool-000811/Column 1_050549_20150331_115931.csv
Method:,Column 1,,
Host Date-Time:,31/3/15 @ 11:59:31,,
Header Version:,1,,
System Temp (C):,33.3,,
Detector Temp (C):,32.09,,
Humidity (%):,2.25,,
Lamp PD:,3822,,
Shift Vector Coefficients:,-10.5391,0.0761263,-0.000134223,,
Pixel to Wavelength Coefficients:,1775.68,-0.916766,-0.000235065,,
Serial Number:,5510004,,
Scan Config Name:,Column 1,,
Scan Config Type:,Slew,,
Section 1,,
Start wavelength (nm):,900,,
End wavelength (nm):,1700,,
Pattern Pixel Width (nm):,   7.03,,,,
Exposure (ms):,  0.635,,,,
Digital Resolution:,228,,
Num Repeats:,6,,
PGA Gain:,64,,
Total Measurement Time in sec:,  2.675,,
Wavelength (nm),Absorbance (AU),Reference Signal (unitless),Sample Signal (unitless)
901.51,0.047306,108485,97289
905.376,0.051401,121306,107766
909.237,0.054247,131909,116420
913.095,0.053665,143299,126642
916.948,0.054507,156982,138466
922.079,0.054667,179937,158655
925.923,0.054326,200504,176928
929.762,0.056149,222660,195656
933.597,0.056759,244426,214481
937.427,0.055988,263972,232044
941.254,0.056035,281845,247728
945.076,0.055646,297271,261521
950.165,0.055354,315605,277837
953.978,0.054708,328029,289204
957.786,0.055404,340470,299692
961.59,0.056029,352317,309674
965.389,0.056073,363056,319081
969.185,0.056266,373162,327817
972.976,0.056875,382632,335665
976.763,0.057569,391202,342635
981.806,0.058265,400190,349946
985.583,0.058937,406088,354555
989.355,0.059088,410162,357987
993.124,0.059691,412868,359849
996.888,0.060524,414263,360373
1000.65,0.060947,415476,361076
1004.4,0.061905,415479,360283
1009.41,0.063701,414358,357828
1013.15,0.063443,412923,356801
1016.89,0.064065,411526,355085
1020.63,0.064256,409066,352807
1024.36,0.064121,406777,350942
1028.09,0.063317,404427,349561
1031.82,0.063390,401911,347328
1036.78,0.063121,398410,344516
1040.49,0.062236,396204,343307
1044.2,0.061589,394236,342111
1047.91,0.061370,392042,340379
1051.61,0.060217,389823,339352
1055.31,0.060016,388234,338125
1059,0.058923,387599,338423
1063.92,0.058307,386688,338107
1067.61,0.056831,386598,339179
1071.29,0.055847,387377,340633
1074.96,0.055428,388536,341982
1078.63,0.054258,389855,344069
1082.3,0.053258,391215,346065
1085.96,0.052513,393215,348431
1090.84,0.052327,396270,351289
1094.49,0.051678,398760,354025
1098.14,0.051684,400987,355997
1101.79,0.051072,403477,358713
1105.43,0.051202,406116,360951
1109.06,0.050615,407701,362850
1112.7,0.050681,409859,364715
1117.53,0.050808,412494,366952
1121.15,0.051593,414909,368434
1124.77,0.052661,416559,368991
1128.38,0.053638,418532,369905
1131.99,0.055152,419956,369872
1135.6,0.057119,421946,369946
1139.2,0.058945,423881,370083
1143.99,0.061896,426786,370096
1147.58,0.063241,428617,370534
1151.17,0.064628,431169,371552
1154.75,0.065384,433579,372979
1158.33,0.067419,436264,373534
1161.91,0.070361,439132,373451
1165.48,0.073368,442389,373625
1169.04,0.076260,446101,374260
1173.79,0.079987,451929,375909
1177.34,0.082876,456026,376802
1180.9,0.085753,461306,378648
1184.44,0.087461,467657,382355
1187.99,0.088651,473969,386455
1191.52,0.088264,479856,391604
1195.06,0.087554,487372,398388
1199.76,0.085687,497347,408294
1203.29,0.084207,504311,415424
1206.81,0.083545,511507,421994
1210.33,0.081795,519078,429969
1213.84,0.080686,527163,437783
1217.35,0.080274,534208,444055
1220.85,0.078633,540472,450962
1225.51,0.077235,549929,460333
1229.01,0.077304,556888,466084
1232.5,0.076218,562180,471691
1235.98,0.075091,567975,477791
1239.46,0.073562,574815,485251
1242.94,0.073013,582782,492598
1246.41,0.072123,591476,500973
1251.03,0.071616,604016,512191
1254.5,0.071379,612289,519490
1257.96,0.072387,619125,524073
1261.41,0.072740,624551,528236
1264.86,0.073263,629900,532119
1268.31,0.073822,634345,535184
1271.75,0.074734,638574,537622
1276.33,0.074865,642499,540763
1279.76,0.074670,645905,543874
1283.19,0.074133,648307,546572
1286.61,0.074080,650446,548443
1290.03,0.073686,652132,550363
1293.44,0.072775,653907,553020
1296.85,0.073073,655963,554378
1301.39,0.072574,657349,556189
1304.8,0.072341,657558,556664
1308.19,0.073211,658515,556359
1311.58,0.072803,658804,557126
1314.97,0.073403,659011,556532
1318.36,0.073827,658272,555365
1321.73,0.074025,658022,554901
1326.23,0.075526,657870,552859
1329.6,0.076306,656482,550702
1332.97,0.077298,654926,548144
1336.33,0.078806,653727,545244
1339.69,0.080671,652497,541885
1343.04,0.082392,649913,537605
1346.39,0.084513,647671,533140
1349.73,0.087059,645338,528115
1354.18,0.090751,641175,520266
1357.52,0.093262,638376,515009
1360.85,0.095652,635805,510120
1364.17,0.098159,633413,505275
1367.49,0.100746,631026,500381
1370.81,0.103627,628050,494729
1374.12,0.105865,625034,489822
1378.54,0.109714,620272,481801
1381.84,0.113722,616892,474774
1385.14,0.118676,613613,466894
1388.43,0.122902,611526,460800
1391.72,0.128696,610663,454052
1395.01,0.134266,610634,448244
1398.29,0.139755,611700,443388
1402.66,0.148092,614051,436629
1405.93,0.153942,616268,432342
1409.2,0.160622,617795,426798
1412.46,0.165879,618872,422398
1415.72,0.170717,619795,418342
1418.98,0.175602,620495,414130
1422.23,0.179745,621087,410589
1426.56,0.184638,621375,406177
1429.8,0.187409,621616,403751
1433.04,0.189984,622129,401695
1436.27,0.192456,621526,399028
1439.5,0.194826,621113,396593
1442.72,0.197139,620921,394364
1445.94,0.199394,620270,391910
1450.23,0.203895,618860,386988
1453.44,0.206499,617697,383952
1456.64,0.209589,616264,380345
1459.85,0.212459,614413,376705
1463.04,0.214769,612307,373422
1466.24,0.218344,610032,368985
1469.43,0.221435,607345,364754
1473.67,0.227463,603789,357620
1476.85,0.232973,601175,351583
1480.02,0.238925,597737,344814
1483.19,0.245202,594479,338014
1486.36,0.252032,591232,330922
1489.52,0.256754,587853,325473
1492.68,0.260504,583875,320491
1496.89,0.262813,578062,315618
1500.03,0.264940,574159,311955
1503.18,0.265468,570285,309474
1506.32,0.264413,565444,307593
1509.45,0.263030,560571,305915
1512.58,0.261476,555821,304410
1515.71,0.259408,550344,302849
1519.87,0.256063,543983,301663
1522.99,0.252929,538764,300933
1526.1,0.251101,533692,299357
1529.21,0.247410,527902,298637
1532.32,0.244752,521886,297046
1535.42,0.240781,515888,296329
1538.51,0.237363,509987,295254
1541.6,0.234154,503936,293915
1545.72,0.229318,494694,291755
1548.8,0.226754,488378,289736
1551.88,0.223369,481832,288089
1554.95,0.221322,474989,285339
1558.02,0.219588,467818,282156
1561.08,0.217901,460730,278962
1564.15,0.217696,454170,275120
1568.22,0.216590,444181,269755
1571.27,0.215213,436947,266205
1574.32,0.214837,429598,261954
1577.36,0.213388,422039,258205
1580.4,0.211465,414375,254641
1583.43,0.209539,406354,250822
1586.46,0.207128,398475,247328
1590.49,0.205005,388982,242619
1593.51,0.202814,380708,238659
1596.53,0.200817,372727,234733
1599.54,0.197896,365060,231456
1602.55,0.195515,357543,227936
1605.55,0.193263,349495,223964
1608.55,0.191221,341154,219649
1612.54,0.188766,330877,214240
1615.53,0.186732,322904,210059
1618.51,0.184780,315116,205916
1621.49,0.182535,307217,201795
1624.47,0.182139,299481,196893
1627.44,0.179225,292112,193341
1630.41,0.179006,284245,188229
1634.36,0.176813,274079,182416
1637.32,0.176423,266916,177808
1640.27,0.175023,259612,173501
1643.22,0.173991,251804,168683
1646.16,0.173984,244348,163691
1649.1,0.171789,236703,159373
1652.04,0.170726,228171,154005
1655.95,0.168285,215408,146210
1658.88,0.166228,204937,139763
1661.8,0.163012,193395,132872
1664.72,0.160057,179728,124325
1667.63,0.150975,163642,115590
1670.54,0.143326,146312,105185
1673.44,0.133434,128451,94472
1677.31,0.124674,105080,78858
1680.21,0.121491,88906,67211
1683.1,0.121761,75033,56688
1685.99,0.124930,63520,47641
1688.87,0.129910,53714,39827
1691.75,0.133259,45653,33590
1694.62,0.136130,39137,28606
1697.49,0.144201,33776,24233
1701.31,0.142346,28175,20301