File: samples/wool/wool-000811/Column 1_050604_20150331_122538.csv
Method:,Column 1,,
Host Date-Time:,31/3/15 @ 12:25:38,,
Header Version:,1,,
System Temp (C):,33.95,,
Detector Temp (C):,34.82,,
Humidity (%):,1.76,,
Lamp PD:,3818,,
Shift Vector Coefficients:,-10.5391,0.0761263,-0.000134223,,
Pixel to Wavelength Coefficients:,1775.68,-0.916766,-0.000235065,,
Serial Number:,5510004,,
Scan Config Name:,Column 1,,
Scan Config Type:,Slew,,
Section 1,,
Start wavelength (nm):,900,,
End wavelength (nm):,1700,,
Pattern Pixel Width (nm):,   7.03,,,,
Exposure (ms):,  0.635,,,,
Digital Resolution:,228,,
Num Repeats:,6,,
PGA Gain:,64,,
Total Measurement Time in sec:,  2.672,,
Wavelength (nm),Absorbance (AU),Reference Signal (unitless),Sample Signal (unitless)
901.51,0.067798,108485,92805
905.376,0.074648,121306,102149
909.237,0.075982,131909,110737
913.095,0.079348,143299,119370
916.948,0.079006,156982,130871
922.079,0.080907,179937,149353
925.923,0.081855,200504,166061
929.762,0.081891,222660,184396
933.597,0.081566,244426,202573
937.427,0.080220,263972,219451
941.254,0.080405,281845,234210
945.076,0.079104,297271,247770
950.165,0.077793,315605,263846
953.978,0.077322,328029,274530
957.786,0.078304,340470,284299
961.59,0.077047,352317,295044
965.389,0.077742,363056,303551
969.185,0.078031,373162,311793
972.976,0.077830,382632,319854
976.763,0.078366,391202,326614
981.806,0.079012,400190,333622
985.583,0.079385,406088,338248
989.355,0.079492,410162,341557
993.124,0.079585,412868,343737
996.888,0.080932,414263,343830
1000.65,0.081623,415476,344289
1004.4,0.082878,415479,343298
1009.41,0.083810,414358,341638
1013.15,0.084248,412923,340111
1016.89,0.084936,411526,338424
1020.63,0.084633,409066,336636
1024.36,0.084828,406777,334602
1028.09,0.084228,404427,333129
1031.82,0.084769,401911,330644
1036.78,0.084192,398410,328200
1040.49,0.084013,396204,326517
1044.2,0.083486,394236,325290
1047.91,0.083464,392042,323496
1051.61,0.083063,389823,321962
1055.31,0.083068,388234,320646
1059,0.082476,387599,320558
1063.92,0.080944,386688,320935
1067.61,0.081094,386598,320749
1071.29,0.079886,387377,322291
1074.96,0.080039,388536,323141
1078.63,0.079276,389855,324808
1082.3,0.077880,391215,326991
1085.96,0.077698,393215,328800
1090.84,0.076572,396270,332215
1094.49,0.076106,398760,334661
1098.14,0.075725,400987,336826
1101.79,0.075133,403477,339380
1105.43,0.074856,406116,341817
1109.06,0.073985,407701,343840
1112.7,0.073699,409859,345888
1117.53,0.073757,412494,348065
1121.15,0.073931,414909,349963
1124.77,0.074325,416559,351036
1128.38,0.074888,418532,352242
1131.99,0.076057,419956,352490
1135.6,0.078103,421946,352496
1139.2,0.078882,423881,353478
1143.99,0.080805,426786,354328
1147.58,0.081407,428617,355355
1151.17,0.082851,431169,356284
1154.75,0.083690,433579,357584
1158.33,0.084879,436264,358815
1161.91,0.086597,439132,359748
1165.48,0.088665,442389,360694
1169.04,0.091274,446101,361542
1173.79,0.094651,451929,363429
1177.34,0.096446,456026,365211
1180.9,0.098729,461306,367502
1184.44,0.099966,467657,371502
1187.99,0.101625,473969,375081
1191.52,0.100848,479856,380420
1195.06,0.101367,487372,385917
1199.76,0.100200,497347,394875
1203.29,0.099190,504311,401336
1206.81,0.099394,511507,406872
1210.33,0.098575,519078,413673
1213.84,0.098695,527163,420001
1217.35,0.097704,534208,426586
1220.85,0.097559,540472,431732
1225.51,0.096094,549929,440771
1229.01,0.095852,556888,446597
1232.5,0.095334,562180,451379
1235.98,0.095030,567975,456351
1239.46,0.093347,574815,463640
1242.94,0.092384,582782,471110
1246.41,0.091860,591476,478715
1251.03,0.092501,604016,488143
1254.5,0.091714,612289,495727
1257.96,0.092160,619125,500747
1261.41,0.093045,624551,504107
1264.86,0.093725,629900,507629
1268.31,0.094045,634345,510835
1271.75,0.094740,638574,513418
1276.33,0.094785,642499,516520
1279.76,0.094861,645905,519168
1283.19,0.094282,648307,521793
1286.61,0.093546,650446,524403
1290.03,0.093332,652132,526022
1293.44,0.093092,653907,527745
1296.85,0.092788,655963,529775
1301.39,0.092535,657349,531203
1304.8,0.092396,657558,531543
1308.19,0.092581,658515,532090
1311.58,0.092672,658804,532211
1314.97,0.093059,659011,531904
1318.36,0.093649,658272,530587
1321.73,0.093877,658022,530107
1326.23,0.094404,657870,529342
1329.6,0.095157,656482,527310
1332.97,0.096006,654926,525033
1336.33,0.097738,653727,521986
1339.69,0.098480,652497,520114
1343.04,0.100046,649913,516189
1346.39,0.102385,647671,511646
1349.73,0.104237,645338,507634
1354.18,0.107303,641175,500811
1357.52,0.109362,638376,496266
1360.85,0.110897,635805,492524
1364.17,0.113304,633413,487959
1367.49,0.115227,631026,483972
1370.81,0.117569,628050,479099
1374.12,0.119745,625034,474415
1378.54,0.122297,620272,468042
1381.84,0.125323,616892,462260
1385.14,0.128477,613613,456476
1388.43,0.132337,611526,450898
1391.72,0.135886,610663,446597
1395.01,0.140804,610634,441547
1398.29,0.145123,611700,437941
1402.66,0.151346,614051,433370
1405.93,0.156546,616268,429758
1409.2,0.161016,617795,426411
1412.46,0.165379,618872,422885
1415.72,0.169426,619795,419587
1418.98,0.172437,620495,417159
1422.23,0.176409,621087,413755
1426.56,0.180183,621375,410365
1429.8,0.182575,621616,408270
1433.04,0.184933,622129,406394
1436.27,0.187449,621526,403655
1439.5,0.189745,621113,401260
1442.72,0.192135,620921,398934
1445.94,0.194321,620270,396515
1450.23,0.197714,618860,392535
1453.44,0.200377,617697,389402
1456.64,0.203491,616264,385723
1459.85,0.205517,614413,382775
1463.04,0.209071,612307,378354
1466.24,0.212057,610032,374365
1469.43,0.216001,607345,369347
1473.67,0.222030,603789,362122
1476.85,0.227389,601175,356133
1480.02,0.233543,597737,349114
1483.19,0.240060,594479,342040
1486.36,0.245578,591232,335877
1489.52,0.250702,587853,330040
1492.68,0.254117,583875,325239
1496.89,0.255896,578062,320685
1500.03,0.256309,574159,318217
1503.18,0.256133,570285,316198
1506.32,0.254867,565444,314429
1509.45,0.253536,560571,312676
1512.58,0.252711,555821,310616
1515.71,0.250318,550344,309255
1519.87,0.247245,543983,307851
1522.99,0.244695,538764,306693
1526.1,0.242813,533692,305125
1529.21,0.239534,527902,304102
1532.32,0.236580,521886,302688
1535.42,0.233787,515888,301140
1538.51,0.230533,509987,299934
1541.6,0.228034,503936,298086
1545.72,0.223352,494694,295791
1548.8,0.221339,488378,293371
1551.88,0.218959,481832,291029
1554.95,0.216732,474989,288371
1558.02,0.215284,467818,284966
1561.08,0.214389,460730,281227
1564.15,0.214112,454170,277400
1568.22,0.212431,444181,272351
1571.27,0.211955,436947,268209
1574.32,0.210839,429598,264377
1577.36,0.209857,422039,260313
1580.4,0.208523,414375,256372
1583.43,0.207516,406354,251993
1586.46,0.205946,398475,248002
1590.49,0.203666,388982,243368
1593.51,0.201747,380708,239246
1596.53,0.199000,372727,235717
1599.54,0.198405,365060,231185
1602.55,0.195708,357543,227835
1605.55,0.193932,349495,223619
1608.55,0.191870,341154,219321
1612.54,0.190045,330877,213610
1615.53,0.188589,322904,209163
1618.51,0.187762,315116,204507
1621.49,0.187232,307217,199624
1624.47,0.185838,299481,195223
1627.44,0.184264,292112,191111
1630.41,0.183874,284245,186131
1634.36,0.182131,274079,180196
1637.32,0.182907,266916,175173
1640.27,0.181911,259612,170771
1643.22,0.179408,251804,166592
1646.16,0.180186,244348,161370
1649.1,0.178196,236703,157039
1652.04,0.177249,228171,151709
1655.95,0.174339,215408,144186
1658.88,0.168449,204937,139050
1661.8,0.164876,193395,132303
1664.72,0.155626,179728,125600
1667.63,0.145049,163642,117178
1670.54,0.129714,146312,108534
1673.44,0.114702,128451,98636
1677.31,0.094412,105080,84549
1680.21,0.083963,88906,73277
1683.1,0.077002,75033,62842
1685.99,0.076436,63520,53269
1688.87,0.074987,53714,45196
1691.75,0.085809,45653,37468
1694.62,0.094222,39137,31504
1697.49,0.092859,33776,27274
1701.31,0.104686,28175,22140