File: samples/wool/wool-000811/Column 1_050582_20150331_121514.csv
Method:,Column 1,,
Host Date-Time:,31/3/15 @ 12:15:14,,
Header Version:,1,,
System Temp (C):,33.74,,
Detector Temp (C):,34.54,,
Humidity (%):,1.95,,
Lamp PD:,3819,,
Shift Vector Coefficients:,-10.5391,0.0761263,-0.000134223,,
Pixel to Wavelength Coefficients:,1775.68,-0.916766,-0.000235065,,
Serial Number:,5510004,,
Scan Config Name:,Column 1,,
Scan Config Type:,Slew,,
Section 1,,
Start wavelength (nm):,900,,
End wavelength (nm):,1700,,
Pattern Pixel Width (nm):,   7.03,,,,
Exposure (ms):,  0.635,,,,
Digital Resolution:,228,,
Num Repeats:,6,,
PGA Gain:,64,,
Total Measurement Time in sec:,  2.674,,
Wavelength (nm),Absorbance (AU),Reference Signal (unitless),Sample Signal (unitless)
901.51,0.071766,108485,91961
905.376,0.075938,121306,101846
909.237,0.078969,131909,109978
913.095,0.078657,143299,119560
916.948,0.082020,156982,129966
922.079,0.082197,179937,148910
925.923,0.082339,200504,165876
929.762,0.084373,222660,183345
933.597,0.083480,244426,201682
937.427,0.082649,263972,218227
941.254,0.082174,281845,233258
945.076,0.080617,297271,246908
950.165,0.080683,315605,262096
953.978,0.079928,328029,272888
957.786,0.080718,340470,282723
961.59,0.080907,352317,292433
965.389,0.080236,363056,301813
969.185,0.080243,373162,310209
972.976,0.081213,382632,317372
976.763,0.080828,391202,324768
981.806,0.081263,400190,331897
985.583,0.082157,406088,336096
989.355,0.082752,410162,339003
993.124,0.083192,412868,340894
996.888,0.083885,414263,341500
1000.65,0.084298,415476,342175
1004.4,0.084870,415479,341727
1009.41,0.086430,414358,339583
1013.15,0.087181,412923,337822
1016.89,0.087636,411526,336327
1020.63,0.087525,409066,334402
1024.36,0.087522,406777,332533
1028.09,0.087340,404427,330750
1031.82,0.086964,401911,328977
1036.78,0.086619,398410,326371
1040.49,0.086632,396204,324554
1044.2,0.086571,394236,322987
1047.91,0.086634,392042,321143
1051.61,0.085898,389823,319867
1055.31,0.085904,388234,318559
1059,0.084040,387599,319406
1063.92,0.084369,386688,318414
1067.61,0.083658,386598,318861
1071.29,0.083327,387377,319747
1074.96,0.083186,388536,320808
1078.63,0.083169,389855,321910
1082.3,0.081866,391215,324003
1085.96,0.080836,393215,326433
1090.84,0.080245,396270,329417
1094.49,0.079164,398760,332313
1098.14,0.079002,400987,334294
1101.79,0.078772,403477,336548
1105.43,0.077946,406116,339394
1109.06,0.077344,407701,341191
1112.7,0.076738,409859,343476
1117.53,0.077068,412494,345422
1121.15,0.077805,414909,346855
1124.77,0.077590,416559,348407
1128.38,0.078451,418532,349364
1131.99,0.079169,419956,349973
1135.6,0.080887,421946,350243
1139.2,0.082609,423881,350457
1143.99,0.084378,426786,351425
1147.58,0.085419,428617,352087
1151.17,0.086510,431169,353295
1154.75,0.087102,433579,354786
1158.33,0.089131,436264,355319
1161.91,0.090999,439132,356120
1165.48,0.093236,442389,356918
1169.04,0.094432,446101,358923
1173.79,0.098288,451929,360398
1177.34,0.099719,456026,362469
1180.9,0.102331,461306,364467
1184.44,0.103929,467657,368128
1187.99,0.105320,473969,371903
1191.52,0.104713,479856,377049
1195.06,0.104842,487372,382841
1199.76,0.104139,497347,391310
1203.29,0.103283,504311,397572
1206.81,0.103243,511507,403282
1210.33,0.101790,519078,410622
1213.84,0.101860,527163,416951
1217.35,0.101411,534208,422960
1220.85,0.100651,540472,428669
1225.51,0.099703,549929,437123
1229.01,0.099634,556888,442725
1232.5,0.099152,562180,447428
1235.98,0.098227,567975,453004
1239.46,0.097223,574815,459521
1242.94,0.096310,582782,466870
1246.41,0.095625,591476,474583
1251.03,0.095712,604016,484548
1254.5,0.095669,612289,491233
1257.96,0.096240,619125,496065
1261.41,0.097136,624551,499381
1264.86,0.097193,629900,503592
1268.31,0.097560,634345,506717
1271.75,0.098223,638574,509317
1276.33,0.098669,642499,511922
1279.76,0.098269,645905,515110
1283.19,0.097986,648307,517362
1286.61,0.097806,650446,519284
1290.03,0.097297,652132,521241
1293.44,0.096545,653907,523565
1296.85,0.096917,655963,524762
1301.39,0.096254,657349,526674
1304.8,0.096452,657558,526602
1308.19,0.096771,658515,526981
1311.58,0.096540,658804,527492
1314.97,0.098056,659011,525819
1318.36,0.097990,658272,525310
1321.73,0.098270,658022,524772
1326.23,0.099086,657870,523666
1329.6,0.100534,656482,520822
1332.97,0.101037,654926,518986
1336.33,0.102304,653727,516526
1339.69,0.103321,652497,514349
1343.04,0.105431,649913,509829
1346.39,0.107797,647671,505309
1349.73,0.109399,645338,501635
1354.18,0.112452,641175,494908
1357.52,0.114944,638376,489928
1360.85,0.116262,635805,486477
1364.17,0.118089,633413,482612
1367.49,0.120894,631026,477698
1370.81,0.122673,628050,473501
1374.12,0.125093,625034,468609
1378.54,0.128167,620272,461759
1381.84,0.131727,616892,455493
1385.14,0.135604,613613,449046
1388.43,0.139070,611526,443961
1391.72,0.144592,610663,437733
1395.01,0.149462,610634,432832
1398.29,0.154083,611700,428998
1402.66,0.161538,614051,423318
1405.93,0.167216,616268,419328
1409.2,0.172689,617795,415103
1412.46,0.177934,618872,410834
1415.72,0.182276,619795,407354
1418.98,0.186232,620495,404116
1422.23,0.190015,621087,400994
1426.56,0.194047,621375,397472
1429.8,0.197035,621616,394900
1433.04,0.199886,622129,392640
1436.27,0.201825,621526,390512
1439.5,0.204074,621113,388237
1442.72,0.206593,620921,385872
1445.94,0.208606,620270,383685
1450.23,0.211840,618860,379973
1453.44,0.214337,617697,377084
1456.64,0.216958,616264,373946
1459.85,0.220164,614413,370081
1463.04,0.222277,612307,367022
1466.24,0.225021,610032,363355
1469.43,0.228237,607345,359086
1473.67,0.234018,603789,352263
1476.85,0.238471,601175,347160
1480.02,0.244250,597737,340612
1483.19,0.249346,594479,334804
1486.36,0.254364,591232,329150
1489.52,0.257948,587853,324579
1492.68,0.261644,583875,319651
1496.89,0.263529,578062,315098
1500.03,0.264211,574159,312479
1503.18,0.263892,570285,310599
1506.32,0.262839,565444,308710
1509.45,0.261917,560571,306700
1512.58,0.260191,555821,305312
1515.71,0.257829,550344,303952
1519.87,0.254902,543983,302471
1522.99,0.252519,538764,301217
1526.1,0.249977,533692,300133
1529.21,0.247237,527902,298756
1532.32,0.244715,521886,297071
1535.42,0.241735,515888,295679
1538.51,0.238949,509987,294178
1541.6,0.236018,503936,292656
1545.72,0.232258,494694,289787
1548.8,0.229849,488378,287678
1551.88,0.225724,481832,286531
1554.95,0.225206,474989,282799
1558.02,0.222863,467818,280036
1561.08,0.221967,460730,276363
1564.15,0.221146,454170,272943
1568.22,0.219685,444181,267840
1571.27,0.218882,436947,263965
1574.32,0.218527,429598,259738
1577.36,0.217822,422039,255582
1580.4,0.215919,414375,252043
1583.43,0.214243,406354,248120
1586.46,0.213369,398475,243799
1590.49,0.211266,388982,239146
1593.51,0.209824,380708,234838
1596.53,0.206787,372727,231528
1599.54,0.205385,365060,227499
1602.55,0.202604,357543,224246
1605.55,0.200661,349495,220181
1608.55,0.199070,341154,215715
1612.54,0.196850,330877,210289
1615.53,0.195160,322904,206022
1618.51,0.194085,315116,201551
1621.49,0.193910,307217,196578
1624.47,0.191932,299481,192503
1627.44,0.190967,292112,188184
1630.41,0.189789,284245,183613
1634.36,0.188259,274079,177671
1637.32,0.187932,266916,173158
1640.27,0.188501,259612,168199
1643.22,0.186251,251804,163988
1646.16,0.184799,244348,159665
1649.1,0.185365,236703,154468
1652.04,0.184108,228171,149332
1655.95,0.179538,215408,142470
1658.88,0.174944,204937,136986
1661.8,0.171728,193395,130232
1664.72,0.164231,179728,123136
1667.63,0.151196,163642,115531
1670.54,0.137894,146312,106509
1673.44,0.121205,128451,97170
1677.31,0.103364,105080,82824
1680.21,0.093903,88906,71619
1683.1,0.089240,75033,61096
1685.99,0.084982,63520,52231
1688.87,0.089517,53714,43709
1691.75,0.099491,45653,36306
1694.62,0.105647,39137,30686
1697.49,0.102048,33776,26703
1701.31,0.115631,28175,21589