File: samples/wool/wool-000811/Column 1_050620_20150331_123308.csv
Method:,Column 1,,
Host Date-Time:,31/3/15 @ 12:33:8,,
Header Version:,1,,
System Temp (C):,34.14,,
Detector Temp (C):,35.01,,
Humidity (%):,1.61,,
Lamp PD:,3818,,
Shift Vector Coefficients:,-10.5391,0.0761263,-0.000134223,,
Pixel to Wavelength Coefficients:,1775.68,-0.916766,-0.000235065,,
Serial Number:,5510004,,
Scan Config Name:,Column 1,,
Scan Config Type:,Slew,,
Section 1,,
Start wavelength (nm):,900,,
End wavelength (nm):,1700,,
Pattern Pixel Width (nm):,   7.03,,,,
Exposure (ms):,  0.635,,,,
Digital Resolution:,228,,
Num Repeats:,6,,
PGA Gain:,64,,
Total Measurement Time in sec:,  2.726,,
Wavelength (nm),Absorbance (AU),Reference Signal (unitless),Sample Signal (unitless)
901.51,0.069322,108485,92480
905.376,0.073192,121306,102492
909.237,0.077203,131909,110426
913.095,0.077478,143299,119885
916.948,0.079790,156982,130635
922.079,0.080238,179937,149583
925.923,0.082120,200504,165960
929.762,0.082808,222660,184007
933.597,0.082794,244426,202001
937.427,0.080957,263972,219079
941.254,0.080394,281845,234216
945.076,0.078729,297271,247984
950.165,0.078556,315605,263383
953.978,0.077655,328029,274320
957.786,0.077562,340470,284785
961.59,0.077692,352317,294606
965.389,0.077896,363056,303443
969.185,0.077897,373162,311889
972.976,0.078054,382632,319689
976.763,0.078554,391202,326473
981.806,0.078730,400190,333838
985.583,0.080043,406088,337736
989.355,0.080260,410162,340954
993.124,0.080427,412868,343071
996.888,0.080793,414263,343940
1000.65,0.082162,415476,343862
1004.4,0.082400,415479,343676
1009.41,0.083879,414358,341583
1013.15,0.084749,412923,339719
1016.89,0.084387,411526,338852
1020.63,0.084705,409066,336580
1024.36,0.084941,406777,334515
1028.09,0.084555,404427,332878
1031.82,0.084840,401911,330590
1036.78,0.084148,398410,328233
1040.49,0.083392,396204,326984
1044.2,0.084056,394236,324863
1047.91,0.083594,392042,323399
1051.61,0.083325,389823,321768
1055.31,0.082315,388234,321202
1059,0.082135,387599,320810
1063.92,0.081454,386688,320558
1067.61,0.080783,386598,320979
1071.29,0.080258,387377,322015
1074.96,0.080176,388536,323039
1078.63,0.079579,389855,324582
1082.3,0.078253,391215,326710
1085.96,0.077741,393215,328768
1090.84,0.076657,396270,332150
1094.49,0.076125,398760,334647
1098.14,0.075765,400987,336795
1101.79,0.075378,403477,339188
1105.43,0.074501,406116,342097
1109.06,0.074062,407701,343779
1112.7,0.073910,409859,345720
1117.53,0.073352,412494,348390
1121.15,0.073447,414909,350353
1124.77,0.074147,416559,351180
1128.38,0.075309,418532,351900
1131.99,0.075888,419956,352627
1135.6,0.077648,421946,352865
1139.2,0.078621,423881,353690
1143.99,0.080279,426786,354757
1147.58,0.081640,428617,355164
1151.17,0.082340,431169,356704
1154.75,0.083041,433579,358119
1158.33,0.084933,436264,358770
1161.91,0.086272,439132,360017
1165.48,0.088490,442389,360840
1169.04,0.090412,446101,362261
1173.79,0.094228,451929,363783
1177.34,0.096156,456026,365455
1180.9,0.098036,461306,368089
1184.44,0.099571,467657,371840
1187.99,0.101095,473969,375539
1191.52,0.100713,479856,380538
1195.06,0.101070,487372,386181
1199.76,0.100071,497347,394992
1203.29,0.099451,504311,401095
1206.81,0.098978,511507,407262
1210.33,0.098342,519078,413895
1213.84,0.097676,527163,420987
1217.35,0.097047,534208,427232
1220.85,0.096672,540472,432615
1225.51,0.096913,549929,439940
1229.01,0.095452,556888,447009
1232.5,0.094480,562180,452268
1235.98,0.093893,567975,457548
1239.46,0.092998,574815,464013
1242.94,0.091911,582782,471623
1246.41,0.091359,591476,479268
1251.03,0.091471,604016,489303
1254.5,0.091953,612289,495454
1257.96,0.092130,619125,500781
1261.41,0.092611,624551,504611
1264.86,0.093213,629900,508228
1268.31,0.093343,634345,511661
1271.75,0.094191,638574,514068
1276.33,0.094466,642499,516900
1279.76,0.094278,645905,519865
1283.19,0.093699,648307,522495
1286.61,0.093788,650446,524111
1290.03,0.092954,652132,526479
1293.44,0.092520,653907,528440
1296.85,0.092191,655963,530504
1301.39,0.091584,657349,532368
1304.8,0.091856,657558,532204
1308.19,0.092297,658515,532437
1311.58,0.092089,658804,532927
1314.97,0.092730,659011,532308
1318.36,0.092930,658272,531466
1321.73,0.093026,658022,531147
1326.23,0.094036,657870,529791
1329.6,0.094480,656482,528132
1332.97,0.095264,654926,525930
1336.33,0.096661,653727,523281
1339.69,0.097817,652497,520908
1343.04,0.099565,649913,516761
1346.39,0.101412,647671,512794
1349.73,0.103215,645338,508829
1354.18,0.106357,641175,501903
1357.52,0.108407,638376,497358
1360.85,0.110385,635805,493104
1364.17,0.111822,633413,489627
1367.49,0.114228,631026,485087
1370.81,0.116092,628050,480731
1374.12,0.118327,625034,475967
1378.54,0.121087,620272,469348
1381.84,0.124010,616892,463659
1385.14,0.127074,613613,457953
1388.43,0.130551,611526,452756
1391.72,0.134302,610663,448229
1395.01,0.138189,610634,444214
1398.29,0.142092,611700,441008
1402.66,0.148590,614051,436128
1405.93,0.153335,616268,432947
1409.2,0.157507,617795,429870
1412.46,0.161871,618872,426314
1415.72,0.165932,619795,422976
1418.98,0.168849,620495,420619
1422.23,0.172523,621087,417474
1426.56,0.176340,621375,414013
1429.8,0.178425,621616,412190
1433.04,0.180983,622129,410107
1436.27,0.183127,621526,407692
1439.5,0.185234,621113,405449
1442.72,0.187949,620921,402798
1445.94,0.190042,620270,400441
1450.23,0.193346,618860,396503
1453.44,0.196050,617697,393301
1456.64,0.199440,616264,389338
1459.85,0.201773,614413,386089
1463.04,0.204934,612307,381975
1466.24,0.208703,610032,377268
1469.43,0.212949,607345,371952
1473.67,0.218813,603789,364815
1476.85,0.225040,601175,358064
1480.02,0.230565,597737,351516
1483.19,0.237617,594479,343969
1486.36,0.244440,591232,336758
1489.52,0.249269,587853,331131
1492.68,0.252316,583875,326591
1496.89,0.254174,578062,321959
1500.03,0.254516,574159,319533
1503.18,0.254909,570285,317090
1506.32,0.253573,565444,315367
1509.45,0.251903,560571,313854
1512.58,0.250953,555821,311876
1515.71,0.248208,550344,310761
1519.87,0.244814,543983,309579
1522.99,0.242439,538764,308290
1526.1,0.240719,533692,306600
1529.21,0.237754,527902,305351
1532.32,0.234515,521886,304131
1535.42,0.231425,515888,302782
1538.51,0.228949,509987,301030
1541.6,0.225579,503936,299776
1545.72,0.222078,494694,296660
1548.8,0.218852,488378,295056
1551.88,0.216736,481832,292523
1554.95,0.215110,474989,289450
1558.02,0.212798,467818,286602
1561.08,0.212640,460730,282362
1564.15,0.212145,454170,278659
1568.22,0.210793,444181,273380
1571.27,0.210476,436947,269124
1574.32,0.209264,429598,265337
1577.36,0.207478,422039,261743
1580.4,0.207564,414375,256939
1583.43,0.205987,406354,252882
1586.46,0.204026,398475,249101
1590.49,0.202593,388982,243970
1593.51,0.200124,380708,240142
1596.53,0.198497,372727,235990
1599.54,0.196614,365060,232140
1602.55,0.194644,357543,228394
1605.55,0.192076,349495,224577
1608.55,0.190862,341154,219831
1612.54,0.188819,330877,214214
1615.53,0.187956,322904,209468
1618.51,0.186037,315116,205321
1621.49,0.185337,307217,200497
1624.47,0.183566,299481,196247
1627.44,0.182950,292112,191690
1630.41,0.182509,284245,186717
1634.36,0.181158,274079,180600
1637.32,0.180029,266916,176338
1640.27,0.179585,259612,171688
1643.22,0.178429,251804,166968
1646.16,0.177003,244348,162557
1649.1,0.176053,236703,157816
1652.04,0.176554,228171,151952
1655.95,0.171891,215408,145001
1658.88,0.168731,204937,138960
1661.8,0.162166,193395,133131
1664.72,0.156003,179728,125491
1667.63,0.142989,163642,117735
1670.54,0.127304,146312,109138
1673.44,0.110374,128451,99624
1677.31,0.091851,105080,85049
1680.21,0.077475,88906,74380
1683.1,0.069717,75033,63905
1685.99,0.076240,63520,53293
1688.87,0.079586,53714,44720
1691.75,0.078658,45653,38090
1694.62,0.084853,39137,32191
1697.49,0.085502,33776,27740
1701.31,0.100256,28175,22367