File: samples/wool/wool-000811/Column 1_050542_20150331_115606.csv
Method:,Column 1,,
Host Date-Time:,31/3/15 @ 11:56:6,,
Header Version:,1,,
System Temp (C):,32.56,,
Detector Temp (C):,30.91,,
Humidity (%):,2.83,,
Lamp PD:,3824,,
Shift Vector Coefficients:,-10.5391,0.0761263,-0.000134223,,
Pixel to Wavelength Coefficients:,1775.68,-0.916766,-0.000235065,,
Serial Number:,5510004,,
Scan Config Name:,Column 1,,
Scan Config Type:,Slew,,
Section 1,,
Start wavelength (nm):,900,,
End wavelength (nm):,1700,,
Pattern Pixel Width (nm):,   7.03,,,,
Exposure (ms):,  0.635,,,,
Digital Resolution:,228,,
Num Repeats:,6,,
PGA Gain:,64,,
Total Measurement Time in sec:,  2.732,,
Wavelength (nm),Absorbance (AU),Reference Signal (unitless),Sample Signal (unitless)
901.51,0.043913,108485,98052
905.376,0.050796,121306,107916
909.237,0.051284,131909,117217
913.095,0.051251,143299,127348
916.948,0.051537,156982,139416
922.079,0.051642,179937,159764
925.923,0.052399,200504,177715
929.762,0.053566,222660,196823
933.597,0.054176,244426,215760
937.427,0.053366,263972,233449
941.254,0.054847,281845,248407
945.076,0.054652,297271,262120
950.165,0.054632,315605,278299
953.978,0.054180,328029,289556
957.786,0.054578,340470,300262
961.59,0.055293,352317,310199
965.389,0.055217,363056,319710
969.185,0.055947,373162,328058
972.976,0.056534,382632,335929
976.763,0.056589,391202,343409
981.806,0.057655,400190,350438
985.583,0.058114,406088,355227
989.355,0.058637,410162,358359
993.124,0.059301,412868,360172
996.888,0.060165,414263,360671
1000.65,0.060653,415476,361321
1004.4,0.061817,415479,360356
1009.41,0.063484,414358,358007
1013.15,0.064246,412923,356142
1016.89,0.064323,411526,354874
1020.63,0.063805,409066,353174
1024.36,0.064192,406777,350885
1028.09,0.063295,404427,349579
1031.82,0.063124,401911,347541
1036.78,0.062907,398410,344686
1040.49,0.061734,396204,343704
1044.2,0.061459,394236,342214
1047.91,0.061426,392042,340335
1051.61,0.060524,389823,339112
1055.31,0.059906,388234,338211
1059,0.059325,387599,338110
1063.92,0.057938,386688,338394
1067.61,0.056243,386598,339638
1071.29,0.056659,387377,339997
1074.96,0.056100,388536,341453
1078.63,0.054971,389855,343504
1082.3,0.053373,391215,345973
1085.96,0.052755,393215,348237
1090.84,0.052267,396270,351337
1094.49,0.051751,398760,353965
1098.14,0.051523,400987,356129
1101.79,0.052106,403477,357860
1105.43,0.051576,406116,360640
1109.06,0.050762,407701,362727
1112.7,0.050432,409859,364924
1117.53,0.050652,412494,367084
1121.15,0.051416,414909,368584
1124.77,0.052364,416559,369243
1128.38,0.053482,418532,370038
1131.99,0.054972,419956,370026
1135.6,0.057191,421946,369884
1139.2,0.059072,423881,369975
1143.99,0.062032,426786,369980
1147.58,0.063134,428617,370626
1151.17,0.064442,431169,371711
1154.75,0.066098,433579,372366
1158.33,0.068236,436264,372832
1161.91,0.070489,439132,373341
1165.48,0.073554,442389,373465
1169.04,0.076923,446101,373689
1173.79,0.080268,451929,375666
1177.34,0.083295,456026,376439
1180.9,0.085893,461306,378526
1184.44,0.087871,467657,381994
1187.99,0.088647,473969,386459
1191.52,0.087961,479856,391877
1195.06,0.087507,487372,398431
1199.76,0.085835,497347,408154
1203.29,0.084911,504311,414751
1206.81,0.083741,511507,421804
1210.33,0.082483,519078,429289
1213.84,0.081608,527163,436855
1217.35,0.080246,534208,444083
1220.85,0.079306,540472,450264
1225.51,0.077992,549929,459531
1229.01,0.077143,556888,466256
1232.5,0.076222,562180,471686
1235.98,0.075490,567975,477352
1239.46,0.074454,574815,484255
1242.94,0.073257,582782,492322
1246.41,0.072400,591476,500653
1251.03,0.071780,604016,511998
1254.5,0.071802,612289,518985
1257.96,0.072576,619125,523844
1261.41,0.073023,624551,527892
1264.86,0.073804,629900,531456
1268.31,0.074170,634345,534756
1271.75,0.074770,638574,537578
1276.33,0.075515,642499,539955
1279.76,0.075081,645905,543360
1283.19,0.074408,648307,546226
1286.61,0.074063,650446,548464
1290.03,0.073931,652132,550053
1293.44,0.073469,653907,552137
1296.85,0.073207,655963,554207
1301.39,0.072807,657349,555890
1304.8,0.072907,657558,555939
1308.19,0.073154,658515,556431
1311.58,0.073300,658804,556488
1314.97,0.074241,659011,555459
1318.36,0.074633,658272,554335
1321.73,0.074786,658022,553929
1326.23,0.076041,657870,552204
1329.6,0.076943,656482,549895
1332.97,0.077914,654926,547367
1336.33,0.079671,653727,544159
1339.69,0.081593,652497,540736
1343.04,0.083191,649913,536617
1346.39,0.086095,647671,531202
1349.73,0.088400,645338,526486
1354.18,0.091818,641175,518990
1357.52,0.094364,638376,513704
1360.85,0.096786,635805,508789
1364.17,0.099349,633413,503893
1367.49,0.102170,631026,498744
1370.81,0.104865,628050,493321
1374.12,0.107022,625034,488519
1378.54,0.111160,620272,480200
1381.84,0.114808,616892,473588
1385.14,0.119976,613613,465499
1388.43,0.125128,611526,458445
1391.72,0.130561,610663,452106
1395.01,0.136361,610634,446087
1398.29,0.142440,611700,440655
1402.66,0.150316,614051,434399
1405.93,0.157836,616268,428483
1409.2,0.164305,617795,423194
1412.46,0.170282,618872,418137
1415.72,0.174949,619795,414285
1418.98,0.179552,620495,410380
1422.23,0.184102,621087,406491
1426.56,0.188682,621375,402413
1429.8,0.192016,621616,399490
1433.04,0.194752,622129,397309
1436.27,0.197648,621526,394286
1439.5,0.199834,621113,392046
1442.72,0.202289,620921,389715
1445.94,0.204602,620270,387239
1450.23,0.208832,618860,382614
1453.44,0.211509,617697,379548
1456.64,0.214579,616264,376000
1459.85,0.217643,614413,372235
1463.04,0.220123,612307,368847
1466.24,0.222888,610032,365144
1469.43,0.226368,607345,360635
1473.67,0.231640,603789,354197
1476.85,0.236233,601175,348954
1480.02,0.242292,597737,342151
1483.19,0.248284,594479,335624
1486.36,0.253910,591232,329494
1489.52,0.259270,587853,323593
1492.68,0.262750,583875,318838
1496.89,0.265877,578062,313399
1500.03,0.267347,574159,310231
1503.18,0.267630,570285,307937
1506.32,0.266092,565444,306406
1509.45,0.265451,560571,304214
1512.58,0.263923,555821,302700
1515.71,0.261662,550344,301281
1519.87,0.259331,543983,299402
1522.99,0.255992,538764,298818
1526.1,0.253369,533692,297798
1529.21,0.250214,527902,296715
1532.32,0.246538,521886,295827
1535.42,0.244229,515888,293986
1538.51,0.239850,509987,293568
1541.6,0.236527,503936,292313
1545.72,0.233017,494694,289281
1548.8,0.228996,488378,288244
1551.88,0.226612,481832,285946
1554.95,0.223740,474989,283755
1558.02,0.221732,467818,280766
1561.08,0.219855,460730,277710
1564.15,0.219818,454170,273779
1568.22,0.217693,444181,269071
1571.27,0.217185,436947,264999
1574.32,0.216508,429598,260948
1577.36,0.215071,422039,257206
1580.4,0.213392,414375,253514
1583.43,0.211528,406354,249676
1586.46,0.209485,398475,245989
1590.49,0.207399,388982,241285
1593.51,0.204334,380708,237825
1596.53,0.202249,372727,233960
1599.54,0.200018,365060,230328
1602.55,0.197999,357543,226636
1605.55,0.195013,349495,223063
1608.55,0.192084,341154,219213
1612.54,0.190112,330877,213577
1615.53,0.187763,322904,209561
1618.51,0.186230,315116,205230
1621.49,0.184582,307217,200846
1624.47,0.182843,299481,196574
1627.44,0.181941,292112,192136
1630.41,0.180624,284245,187529
1634.36,0.178887,274079,181547
1637.32,0.177734,266916,177272
1640.27,0.177279,259612,172602
1643.22,0.175304,251804,168174
1646.16,0.173639,244348,163821
1649.1,0.173799,236703,158637
1652.04,0.173714,228171,152949
1655.95,0.170784,215408,145371
1658.88,0.168075,204937,139170
1661.8,0.166757,193395,131731
1664.72,0.163536,179728,123333
1667.63,0.158318,163642,113652
1670.54,0.153253,146312,102808
1673.44,0.144917,128451,92007
1677.31,0.141994,105080,75775
1680.21,0.137162,88906,64829
1683.1,0.141029,75033,54228
1685.99,0.145367,63520,45451
1688.87,0.146991,53714,38291
1691.75,0.155434,45653,31918
1694.62,0.152813,39137,27528
1697.49,0.158151,33776,23467
1701.31,0.171911,28175,18965