File: samples/wool/wool-000811/Column 1_050556_20150331_120251.csv
Method:,Column 1,,
Host Date-Time:,31/3/15 @ 12:2:51,,
Header Version:,1,,
System Temp (C):,33.54,,
Detector Temp (C):,32.76,,
Humidity (%):,2.44,,
Lamp PD:,3820,,
Shift Vector Coefficients:,-10.5391,0.0761263,-0.000134223,,
Pixel to Wavelength Coefficients:,1775.68,-0.916766,-0.000235065,,
Serial Number:,5510004,,
Scan Config Name:,Column 1,,
Scan Config Type:,Slew,,
Section 1,,
Start wavelength (nm):,900,,
End wavelength (nm):,1700,,
Pattern Pixel Width (nm):,   7.03,,,,
Exposure (ms):,  0.635,,,,
Digital Resolution:,228,,
Num Repeats:,6,,
PGA Gain:,64,,
Total Measurement Time in sec:,  2.676,,
Wavelength (nm),Absorbance (AU),Reference Signal (unitless),Sample Signal (unitless)
901.51,0.032824,108485,100588
905.376,0.039370,121306,110793
909.237,0.041546,131909,119875
913.095,0.043330,143299,129692
916.948,0.042663,156982,142294
922.079,0.044366,179937,162463
925.923,0.045223,200504,180676
929.762,0.044933,222660,200775
933.597,0.046100,244426,219810
937.427,0.045662,263972,237627
941.254,0.046094,281845,253464
945.076,0.045501,297271,267702
950.165,0.045734,315605,284060
953.978,0.045265,328029,295561
957.786,0.045432,340470,306653
961.59,0.045798,352317,317056
965.389,0.046100,363056,326493
969.185,0.046615,373162,335183
972.976,0.046822,382632,343526
976.763,0.047391,391202,350760
981.806,0.048103,400190,358231
985.583,0.048995,406088,362765
989.355,0.049263,410162,366178
993.124,0.049962,412868,368001
996.888,0.050233,414263,369014
1000.65,0.050778,415476,369631
1004.4,0.053099,415479,367663
1009.41,0.054391,414358,365582
1013.15,0.054133,412923,364532
1016.89,0.054572,411526,362932
1020.63,0.054706,409066,360651
1024.36,0.054587,406777,358731
1028.09,0.054230,404427,356952
1031.82,0.054083,401911,354852
1036.78,0.053817,398410,351976
1040.49,0.053406,396204,350359
1044.2,0.053580,394236,348479
1047.91,0.052648,392042,347284
1051.61,0.051921,389823,345897
1055.31,0.051481,388234,344836
1059,0.050991,387599,344661
1063.92,0.049858,386688,344749
1067.61,0.049405,386598,345028
1071.29,0.048892,387377,346132
1074.96,0.048595,388536,347405
1078.63,0.047853,389855,349181
1082.3,0.046507,391215,351486
1085.96,0.045907,393215,353772
1090.84,0.045826,396270,356587
1094.49,0.045380,398760,359196
1098.14,0.044865,400987,361631
1101.79,0.044585,403477,364111
1105.43,0.044518,406116,366549
1109.06,0.044089,407701,368343
1112.7,0.043626,409859,370688
1117.53,0.044080,412494,372681
1121.15,0.045114,414909,373972
1124.77,0.045277,416559,375318
1128.38,0.046435,418532,376092
1131.99,0.048335,419956,375724
1135.6,0.050017,421946,376045
1139.2,0.052142,423881,375926
1143.99,0.053852,426786,377015
1147.58,0.055407,428617,377279
1151.17,0.056782,431169,378325
1154.75,0.058018,433579,379359
1158.33,0.060293,436264,379714
1161.91,0.061646,439132,381021
1165.48,0.064368,442389,381449
1169.04,0.066770,446101,382528
1173.79,0.070495,451929,384216
1177.34,0.072546,456026,385872
1180.9,0.075165,461306,387993
1184.44,0.077056,467657,391626
1187.99,0.077661,473969,396359
1191.52,0.077781,479856,401171
1195.06,0.077233,487372,407969
1199.76,0.076356,497347,417161
1203.29,0.075362,504311,423971
1206.81,0.074544,511507,430832
1210.33,0.074021,519078,437735
1213.84,0.072942,527163,445659
1217.35,0.072317,534208,452265
1220.85,0.071664,540472,458257
1225.51,0.070763,549929,467244
1229.01,0.070152,556888,473823
1232.5,0.069330,562180,479231
1235.98,0.069019,567975,484518
1239.46,0.068089,574815,491404
1242.94,0.066830,582782,499662
1246.41,0.066205,591476,507846
1251.03,0.065862,604016,519023
1254.5,0.066307,612289,525593
1257.96,0.066640,619125,531053
1261.41,0.067357,624551,534824
1264.86,0.067743,629900,538925
1268.31,0.067986,634345,542425
1271.75,0.069417,638574,544245
1276.33,0.069596,642499,547364
1279.76,0.069431,645905,550475
1283.19,0.068678,648307,553481
1286.61,0.068355,650446,555720
1290.03,0.068002,652132,557614
1293.44,0.067576,653907,559680
1296.85,0.067636,655963,561362
1301.39,0.067589,657349,562610
1304.8,0.067375,657558,563066
1308.19,0.067316,658515,563962
1311.58,0.067787,658804,563598
1314.97,0.068559,659011,562773
1318.36,0.068705,658272,561954
1321.73,0.069370,658022,560881
1326.23,0.070678,657870,559065
1329.6,0.071283,656482,557109
1332.97,0.072364,654926,554407
1336.33,0.073706,653727,551684
1339.69,0.075728,652497,548088
1343.04,0.077200,649913,544071
1346.39,0.079258,647671,539630
1349.73,0.081639,645338,534747
1354.18,0.084785,641175,527462
1357.52,0.087371,638376,522042
1360.85,0.089369,635805,517553
1364.17,0.091887,633413,512625
1367.49,0.094284,631026,507882
1370.81,0.096371,628050,503064
1374.12,0.099418,625034,497148
1378.54,0.102742,620272,489599
1381.84,0.106174,616892,483098
1385.14,0.110179,613613,476119
1388.43,0.115455,611526,468770
1391.72,0.120403,610663,462806
1395.01,0.125224,610634,457675
1398.29,0.130839,611700,452584
1402.66,0.138510,614051,446369
1405.93,0.145249,616268,441083
1409.2,0.150660,617795,436701
1412.46,0.155805,618872,432311
1415.72,0.160274,619795,428523
1418.98,0.165114,620495,424252
1422.23,0.169385,621087,420501
1426.56,0.173618,621375,416616
1429.8,0.176323,621616,414190
1433.04,0.179329,622129,411672
1436.27,0.181541,621526,409184
1439.5,0.183961,621113,406640
1442.72,0.186132,620921,404487
1445.94,0.189021,620270,401384
1450.23,0.192605,618860,397180
1453.44,0.195609,617697,393701
1456.64,0.198478,616264,390201
1459.85,0.200905,614413,386861
1463.04,0.204256,612307,382572
1466.24,0.207361,610032,378435
1469.43,0.210674,607345,373905
1473.67,0.215947,603789,367230
1476.85,0.220751,601175,361618
1480.02,0.226901,597737,354494
1483.19,0.233493,594479,347251
1486.36,0.239034,591232,340976
1489.52,0.244067,587853,335121
1492.68,0.247394,583875,330313
1496.89,0.249522,578062,325426
1500.03,0.250384,574159,322588
1503.18,0.250880,570285,320046
1506.32,0.249688,565444,318201
1509.45,0.248131,560571,316592
1512.58,0.246515,555821,315079
1515.71,0.244272,550344,313590
1519.87,0.240620,543983,312583
1522.99,0.238575,538764,311045
1526.1,0.235474,533692,310325
1529.21,0.233031,527902,308690
1532.32,0.229654,521886,307554
1535.42,0.226762,515888,306051
1538.51,0.223989,509987,304488
1541.6,0.221142,503936,302854
1545.72,0.216546,494694,300463
1548.8,0.212870,488378,299148
1551.88,0.210253,481832,296922
1554.95,0.208506,474989,293885
1558.02,0.206215,467818,290979
1561.08,0.205200,460730,287241
1564.15,0.204252,454170,283770
1568.22,0.202361,444181,278740
1571.27,0.202369,436947,274195
1574.32,0.201118,429598,270361
1577.36,0.199603,422039,266532
1580.4,0.197945,414375,262693
1583.43,0.197132,406354,258091
1586.46,0.194243,398475,254776
1590.49,0.192507,388982,249702
1593.51,0.190670,380708,245427
1596.53,0.188116,372727,241699
1599.54,0.186450,365060,237637
1602.55,0.182958,357543,234623
1605.55,0.181505,349495,230110
1608.55,0.179432,341154,225693
1612.54,0.176540,330877,220357
1615.53,0.174937,322904,215842
1618.51,0.174433,315116,210881
1621.49,0.172290,307217,206612
1624.47,0.171160,299481,201934
1627.44,0.170149,292112,197424
1630.41,0.167850,284245,193127
1634.36,0.167018,274079,186577
1637.32,0.165938,266916,182153
1640.27,0.166084,259612,177109
1643.22,0.164326,251804,172479
1646.16,0.163683,244348,167620
1649.1,0.163487,236703,162449
1652.04,0.162048,228171,157113
1655.95,0.159470,215408,149208
1658.88,0.157126,204937,142723
1661.8,0.152188,193395,136225
1664.72,0.146894,179728,128151
1667.63,0.138925,163642,118842
1670.54,0.128871,146312,108745
1673.44,0.117915,128451,97909
1677.31,0.105777,105080,82365
1680.21,0.099291,88906,70736
1683.1,0.096219,75033,60122
1685.99,0.104279,63520,49961
1688.87,0.107117,53714,41973
1691.75,0.113853,45653,35125
1694.62,0.116931,39137,29899
1697.49,0.115057,33776,25915
1701.31,0.118963,28175,21424