File: samples/wool/wool-000811/Column 1_050577_20150331_121254.csv
Method:,Column 1,,
Host Date-Time:,31/3/15 @ 12:12:54,,
Header Version:,1,,
System Temp (C):,33.83,,
Detector Temp (C):,34.64,,
Humidity (%):,2.15,,
Lamp PD:,3818,,
Shift Vector Coefficients:,-10.5391,0.0761263,-0.000134223,,
Pixel to Wavelength Coefficients:,1775.68,-0.916766,-0.000235065,,
Serial Number:,5510004,,
Scan Config Name:,Column 1,,
Scan Config Type:,Slew,,
Section 1,,
Start wavelength (nm):,900,,
End wavelength (nm):,1700,,
Pattern Pixel Width (nm):,   7.03,,,,
Exposure (ms):,  0.635,,,,
Digital Resolution:,228,,
Num Repeats:,6,,
PGA Gain:,64,,
Total Measurement Time in sec:,  2.741,,
Wavelength (nm),Absorbance (AU),Reference Signal (unitless),Sample Signal (unitless)
901.51,0.071761,108485,91962
905.376,0.076689,121306,101670
909.237,0.078815,131909,110017
913.095,0.080331,143299,119100
916.948,0.081442,156982,130139
922.079,0.083520,179937,148457
925.923,0.083215,200504,165542
929.762,0.085027,222660,183069
933.597,0.084612,244426,201157
937.427,0.083219,263972,217941
941.254,0.083076,281845,232774
945.076,0.081390,297271,246469
950.165,0.081604,315605,261541
953.978,0.080814,328029,272332
957.786,0.081506,340470,282210
961.59,0.081247,352317,292204
965.389,0.081403,363056,301003
969.185,0.081519,373162,309299
972.976,0.081552,382632,317124
976.763,0.082724,391202,323353
981.806,0.082845,400190,330690
985.583,0.083201,406088,335289
989.355,0.083561,410162,338372
993.124,0.083709,412868,340488
996.888,0.084429,414263,341073
1000.65,0.085747,415476,341035
1004.4,0.086214,415479,340671
1009.41,0.087720,414358,338576
1013.15,0.087983,412923,337199
1016.89,0.089194,411526,335122
1020.63,0.088055,409066,333994
1024.36,0.088823,406777,331538
1028.09,0.088808,404427,329634
1031.82,0.087957,401911,328226
1036.78,0.087714,398410,325549
1040.49,0.087314,396204,324045
1044.2,0.088081,394236,321866
1047.91,0.087312,392042,320642
1051.61,0.087111,389823,318975
1055.31,0.086428,388234,318175
1059,0.086411,387599,317667
1063.92,0.085873,386688,317313
1067.61,0.084731,386598,318074
1071.29,0.083883,387377,319338
1074.96,0.083430,388536,320628
1078.63,0.083597,389855,321593
1082.3,0.082432,391215,323581
1085.96,0.082214,393215,325399
1090.84,0.081280,396270,328633
1094.49,0.080564,398760,331244
1098.14,0.079991,400987,333533
1101.79,0.080270,403477,335389
1105.43,0.079226,406116,338395
1109.06,0.078596,407701,340209
1112.7,0.078513,409859,342075
1117.53,0.077862,412494,344791
1121.15,0.078143,414909,346585
1124.77,0.078648,416559,347559
1128.38,0.079707,418532,348355
1131.99,0.080085,419956,349236
1135.6,0.081734,421946,349561
1139.2,0.083156,423881,350016
1143.99,0.085863,426786,350225
1147.58,0.086285,428617,351386
1151.17,0.087036,431169,352867
1154.75,0.088800,433579,353401
1158.33,0.090011,436264,354600
1161.91,0.092583,439132,354823
1165.48,0.094190,442389,356135
1169.04,0.096217,446101,357451
1173.79,0.099509,451929,359386
1177.34,0.101735,456026,360790
1180.9,0.103242,461306,363703
1184.44,0.105157,467657,367088
1187.99,0.106594,473969,370814
1191.52,0.106007,479856,375927
1195.06,0.106031,487372,381794
1199.76,0.105481,497347,390102
1203.29,0.104965,504311,396035
1206.81,0.104831,511507,401810
1210.33,0.103261,519078,409234
1213.84,0.103416,527163,415460
1217.35,0.102837,534208,421574
1220.85,0.102924,540472,426431
1225.51,0.101038,549929,435781
1229.01,0.101028,556888,441306
1232.5,0.099753,562180,446810
1235.98,0.099484,567975,451695
1239.46,0.098756,574815,457902
1242.94,0.097452,582782,465644
1246.41,0.096836,591476,473261
1251.03,0.096736,604016,483406
1254.5,0.096789,612289,489968
1257.96,0.097037,619125,495155
1261.41,0.097657,624551,498782
1264.86,0.098476,629900,502106
1268.31,0.098603,634345,505502
1271.75,0.099683,638574,507608
1276.33,0.099811,642499,510577
1279.76,0.099462,645905,513697
1283.19,0.099460,648307,515609
1286.61,0.099171,650446,517655
1290.03,0.098556,652132,519732
1293.44,0.098432,653907,521295
1296.85,0.098320,655963,523069
1301.39,0.097951,657349,524620
1304.8,0.097774,657558,525001
1308.19,0.098104,658515,525366
1311.58,0.098294,658804,525366
1314.97,0.099025,659011,524647
1318.36,0.099540,658272,523438
1321.73,0.099428,658022,523374
1326.23,0.100718,657870,521701
1329.6,0.101576,656482,519573
1332.97,0.102065,654926,517758
1336.33,0.103784,653727,514769
1339.69,0.105598,652497,511659
1343.04,0.107428,649913,507490
1346.39,0.109048,647671,503856
1349.73,0.111228,645338,499527
1354.18,0.114331,641175,492772
1357.52,0.116364,638376,488329
1360.85,0.118661,635805,483797
1364.17,0.120558,633413,479876
1367.49,0.122428,631026,476014
1370.81,0.124738,628050,471255
1374.12,0.127035,625034,466518
1378.54,0.130680,620272,459095
1381.84,0.134007,616892,453108
1385.14,0.137649,613613,446936
1388.43,0.142148,611526,440826
1391.72,0.146868,610663,435445
1395.01,0.151939,610634,430370
1398.29,0.157616,611700,425522
1402.66,0.165415,614051,419556
1405.93,0.171385,616268,415322
1409.2,0.177062,617795,410944
1412.46,0.183069,618872,406005
1415.72,0.187498,619795,402485
1418.98,0.191707,620495,399054
1422.23,0.196004,621087,395502
1426.56,0.199747,621375,392290
1429.8,0.202849,621616,389649
1433.04,0.205590,622129,387517
1436.27,0.207845,621526,385136
1439.5,0.209552,621113,383370
1442.72,0.212146,620921,380970
1445.94,0.214656,620270,378377
1450.23,0.218018,618860,374606
1453.44,0.220312,617697,371932
1456.64,0.223095,616264,368699
1459.85,0.225147,614413,365859
1463.04,0.227946,612307,362262
1466.24,0.230141,610032,359097
1469.43,0.233667,607345,354624
1473.67,0.238760,603789,348438
1476.85,0.243538,601175,343133
1480.02,0.247759,597737,337871
1483.19,0.254066,594479,331185
1486.36,0.258137,591232,326303
1489.52,0.262051,587853,321527
1492.68,0.265570,583875,316774
1496.89,0.266530,578062,312928
1500.03,0.266882,574159,310563
1503.18,0.266517,570285,308727
1506.32,0.266404,565444,306186
1509.45,0.264694,560571,304745
1512.58,0.263406,555821,303060
1515.71,0.260883,550344,301822
1519.87,0.258822,543983,299753
1522.99,0.255163,538764,299389
1526.1,0.253674,533692,297589
1529.21,0.250990,527902,296185
1532.32,0.248927,521886,294204
1535.42,0.245808,515888,292919
1538.51,0.242684,509987,291659
1541.6,0.240563,503936,289609
1545.72,0.235415,494694,287688
1548.8,0.232869,488378,285685
1551.88,0.230684,481832,283277
1554.95,0.228717,474989,280522
1558.02,0.226351,467818,277796
1561.08,0.224869,460730,274522
1564.15,0.224551,454170,270812
1568.22,0.223471,444181,265515
1571.27,0.223057,436947,261440
1574.32,0.222159,429598,257575
1577.36,0.220397,422039,254071
1580.4,0.220292,414375,249518
1583.43,0.218381,406354,245767
1586.46,0.215881,398475,242393
1590.49,0.214740,388982,237241
1593.51,0.212283,380708,233512
1596.53,0.210152,372727,229741
1599.54,0.207826,365060,226224
1602.55,0.206188,357543,222403
1605.55,0.203608,349495,218692
1608.55,0.201977,341154,214276
1612.54,0.199599,330877,208962
1615.53,0.197837,322904,204756
1618.51,0.195711,315116,200798
1621.49,0.196219,307217,195536
1624.47,0.194893,299481,191195
1627.44,0.193571,292112,187059
1630.41,0.192682,284245,182394
1634.36,0.190482,274079,176764
1637.32,0.189432,266916,172561
1640.27,0.190372,259612,167476
1643.22,0.188630,251804,163092
1646.16,0.187396,244348,158713
1649.1,0.187160,236703,153831
1652.04,0.184757,228171,149109
1655.95,0.181331,215408,141883
1658.88,0.178030,204937,136016
1661.8,0.172669,193395,129950
1664.72,0.167083,179728,122330
1667.63,0.154169,163642,114743
1670.54,0.140450,146312,105884
1673.44,0.124629,128451,96407
1677.31,0.105994,105080,82324
1680.21,0.094164,88906,71576
1683.1,0.087877,75033,61288
1685.99,0.094141,63520,51141
1688.87,0.093549,53714,43305
1691.75,0.097379,45653,36483
1694.62,0.102137,39137,30935
1697.49,0.104560,33776,26549
1701.31,0.115913,28175,21575