File: samples/wool/wool-000811/Column 1_050608_20150331_122737.csv
Method:,Column 1,,
Host Date-Time:,31/3/15 @ 12:27:37,,
Header Version:,1,,
System Temp (C):,34.04,,
Detector Temp (C):,34.88,,
Humidity (%):,1.66,,
Lamp PD:,3818,,
Shift Vector Coefficients:,-10.5391,0.0761263,-0.000134223,,
Pixel to Wavelength Coefficients:,1775.68,-0.916766,-0.000235065,,
Serial Number:,5510004,,
Scan Config Name:,Column 1,,
Scan Config Type:,Slew,,
Section 1,,
Start wavelength (nm):,900,,
End wavelength (nm):,1700,,
Pattern Pixel Width (nm):,   7.03,,,,
Exposure (ms):,  0.635,,,,
Digital Resolution:,228,,
Num Repeats:,6,,
PGA Gain:,64,,
Total Measurement Time in sec:,  2.719,,
Wavelength (nm),Absorbance (AU),Reference Signal (unitless),Sample Signal (unitless)
901.51,0.067555,108485,92857
905.376,0.072815,121306,102581
909.237,0.076657,131909,110565
913.095,0.074727,143299,120647
916.948,0.077506,156982,131324
922.079,0.080070,179937,149641
925.923,0.081207,200504,166309
929.762,0.081768,222660,184448
933.597,0.081236,244426,202727
937.427,0.080406,263972,219357
941.254,0.079779,281845,234548
945.076,0.078375,297271,248186
950.165,0.077800,315605,263842
953.978,0.077232,328029,274587
957.786,0.077376,340470,284907
961.59,0.077713,352317,294592
965.389,0.076979,363056,304085
969.185,0.077325,373162,312300
972.976,0.077960,382632,319758
976.763,0.078203,391202,326737
981.806,0.077700,400190,334631
985.583,0.078774,406088,338724
989.355,0.079577,410162,341490
993.124,0.080064,412868,343358
996.888,0.080334,414263,344304
1000.65,0.081397,415476,344468
1004.4,0.082257,415479,343789
1009.41,0.084145,414358,341374
1013.15,0.084039,412923,340275
1016.89,0.084122,411526,339059
1020.63,0.084176,409066,336990
1024.36,0.084622,406777,334761
1028.09,0.084515,404427,332909
1031.82,0.083350,401911,331726
1036.78,0.083540,398410,328693
1040.49,0.083685,396204,326764
1044.2,0.083674,394236,325149
1047.91,0.082667,392042,324090
1051.61,0.082840,389823,322127
1055.31,0.082479,388234,321081
1059,0.081959,387599,320940
1063.92,0.081777,386688,320320
1067.61,0.080229,386598,321389
1071.29,0.080545,387377,321802
1074.96,0.079494,388536,323547
1078.63,0.079674,389855,324511
1082.3,0.078224,391215,326732
1085.96,0.077536,393215,328923
1090.84,0.076667,396270,332142
1094.49,0.075935,398760,334793
1098.14,0.075543,400987,336967
1101.79,0.074898,403477,339563
1105.43,0.074704,406116,341937
1109.06,0.073747,407701,344029
1112.7,0.073250,409859,346246
1117.53,0.072867,412494,348779
1121.15,0.073627,414909,350208
1124.77,0.073961,416559,351330
1128.38,0.074646,418532,352438
1131.99,0.075328,419956,353082
1135.6,0.077235,421946,353201
1139.2,0.078592,423881,353714
1143.99,0.080397,426786,354661
1147.58,0.080927,428617,355748
1151.17,0.082005,431169,356979
1154.75,0.082715,433579,358388
1158.33,0.084515,436264,359116
1161.91,0.086328,439132,359971
1165.48,0.088333,442389,360970
1169.04,0.090473,446101,362210
1173.79,0.093884,451929,364071
1177.34,0.095561,456026,365956
1180.9,0.098140,461306,368001
1184.44,0.099950,467657,371516
1187.99,0.100735,473969,375850
1191.52,0.101037,479856,380254
1195.06,0.100743,487372,386472
1199.76,0.100337,497347,394750
1203.29,0.099183,504311,401343
1206.81,0.098871,511507,407362
1210.33,0.098312,519078,413924
1213.84,0.098123,527163,420554
1217.35,0.097224,534208,427058
1220.85,0.096356,540472,432930
1225.51,0.095793,549929,441076
1229.01,0.095057,556888,447415
1232.5,0.094680,562180,452059
1235.98,0.094177,567975,457248
1239.46,0.093284,574815,463707
1242.94,0.092317,582782,471182
1246.41,0.091569,591476,479036
1251.03,0.091317,604016,489476
1254.5,0.091523,612289,495945
1257.96,0.092202,619125,500698
1261.41,0.092262,624551,505017
1264.86,0.092730,629900,508794
1268.31,0.093540,634345,511429
1271.75,0.094182,638574,514078
1276.33,0.094332,642499,517060
1279.76,0.094019,645905,520175
1283.19,0.093833,648307,522333
1286.61,0.093332,650446,524662
1290.03,0.093171,652132,526216
1293.44,0.092752,653907,528158
1296.85,0.092387,655963,530264
1301.39,0.091949,657349,531921
1304.8,0.091936,657558,532106
1308.19,0.092214,658515,532539
1311.58,0.092159,658804,532841
1314.97,0.092905,659011,532093
1318.36,0.093206,658272,531128
1321.73,0.093708,658022,530313
1326.23,0.094092,657870,529722
1329.6,0.094614,656482,527969
1332.97,0.095872,654926,525195
1336.33,0.096697,653727,523238
1339.69,0.098401,652497,520208
1343.04,0.099581,649913,516742
1346.39,0.101593,647671,512580
1349.73,0.103803,645338,508141
1354.18,0.106778,641175,501417
1357.52,0.108655,638376,497075
1360.85,0.110344,635805,493151
1364.17,0.112288,633413,489101
1367.49,0.114785,631026,484465
1370.81,0.116721,628050,480035
1374.12,0.118681,625034,475579
1378.54,0.121395,620272,469015
1381.84,0.124158,616892,463501
1385.14,0.127673,613613,457321
1388.43,0.131481,611526,451787
1391.72,0.135487,610663,447007
1395.01,0.139683,610634,442688
1398.29,0.143845,611700,439232
1402.66,0.150049,614051,434666
1405.93,0.155253,616268,431039
1409.2,0.159609,617795,427795
1412.46,0.164282,618872,423954
1415.72,0.167683,619795,421274
1418.98,0.171173,620495,418375
1422.23,0.174743,621087,415345
1426.56,0.178308,621375,412141
1429.8,0.181188,621616,409576
1433.04,0.183692,622129,407557
1436.27,0.185448,621526,405519
1439.5,0.188005,621113,402871
1442.72,0.190057,620921,400848
1445.94,0.192900,620270,397815
1450.23,0.195958,618860,394125
1453.44,0.198912,617697,390718
1456.64,0.201557,616264,387445
1459.85,0.204216,614413,383923
1463.04,0.207267,612307,379929
1466.24,0.210940,610032,375329
1469.43,0.214706,607345,370450
1473.67,0.220865,603789,363095
1476.85,0.226580,601175,356797
1480.02,0.232535,597737,349925
1483.19,0.239025,594479,342856
1486.36,0.244797,591232,336481
1489.52,0.249291,587853,331114
1492.68,0.252425,583875,326509
1496.89,0.254602,578062,321642
1500.03,0.255122,574159,319088
1503.18,0.255540,570285,316630
1506.32,0.254238,565444,314885
1509.45,0.253244,560571,312886
1512.58,0.252260,555821,310939
1515.71,0.249525,550344,309820
1519.87,0.245817,543983,308865
1522.99,0.243621,538764,307452
1526.1,0.241139,533692,306303
1529.21,0.238725,527902,304669
1532.32,0.235562,521886,303399
1535.42,0.232776,515888,301842
1538.51,0.229746,509987,300478
1541.6,0.226977,503936,298812
1545.72,0.222306,494694,296504
1548.8,0.219734,488378,294457
1551.88,0.217257,481832,292172
1554.95,0.215986,474989,288867
1558.02,0.214614,467818,285406
1561.08,0.212528,460730,282435
1564.15,0.212779,454170,278253
1568.22,0.212050,444181,272590
1571.27,0.211156,436947,268703
1574.32,0.209967,429598,264908
1577.36,0.208426,422039,261172
1580.4,0.208086,414375,256630
1583.43,0.205745,406354,253023
1586.46,0.204924,398475,248586
1590.49,0.202492,388982,244027
1593.51,0.200937,380708,239693
1596.53,0.198726,372727,235866
1599.54,0.196790,365060,232046
1602.55,0.195369,357543,228013
1605.55,0.192335,349495,224443
1608.55,0.190783,341154,219871
1612.54,0.190082,330877,213592
1615.53,0.187086,322904,209888
1618.51,0.186084,315116,205299
1621.49,0.185344,307217,200494
1624.47,0.184330,299481,195902
1627.44,0.183222,292112,191570
1630.41,0.182797,284245,186593
1634.36,0.181329,274079,180529
1637.32,0.180961,266916,175960
1640.27,0.180400,259612,171366
1643.22,0.178856,251804,166804
1646.16,0.178309,244348,162069
1649.1,0.177067,236703,157448
1652.04,0.176700,228171,151901
1655.95,0.172958,215408,144645
1658.88,0.169513,204937,138710
1661.8,0.163077,193395,132852
1664.72,0.155737,179728,125568
1667.63,0.143174,163642,117685
1670.54,0.128951,146312,108725
1673.44,0.113607,128451,98885
1677.31,0.091759,105080,85067
1680.21,0.081305,88906,73727
1683.1,0.076622,75033,62897
1685.99,0.076460,63520,53266
1688.87,0.076393,53714,45050
1691.75,0.085010,45653,37537
1694.62,0.089942,39137,31816
1697.49,0.090208,33776,27441
1701.31,0.100237,28175,22368