File: samples/wool/wool-000811/Column 1_050597_20150331_122204.csv
Method:,Column 1,,
Host Date-Time:,31/3/15 @ 12:22:4,,
Header Version:,1,,
System Temp (C):,33.93,,
Detector Temp (C):,34.72,,
Humidity (%):,1.76,,
Lamp PD:,3818,,
Shift Vector Coefficients:,-10.5391,0.0761263,-0.000134223,,
Pixel to Wavelength Coefficients:,1775.68,-0.916766,-0.000235065,,
Serial Number:,5510004,,
Scan Config Name:,Column 1,,
Scan Config Type:,Slew,,
Section 1,,
Start wavelength (nm):,900,,
End wavelength (nm):,1700,,
Pattern Pixel Width (nm):,   7.03,,,,
Exposure (ms):,  0.635,,,,
Digital Resolution:,228,,
Num Repeats:,6,,
PGA Gain:,64,,
Total Measurement Time in sec:,  2.680,,
Wavelength (nm),Absorbance (AU),Reference Signal (unitless),Sample Signal (unitless)
901.51,0.070592,108485,92210
905.376,0.074946,121306,102079
909.237,0.077109,131909,110450
913.095,0.078091,143299,119716
916.948,0.080839,156982,130320
922.079,0.082363,179937,148853
925.923,0.081798,200504,166083
929.762,0.082869,222660,183981
933.597,0.083235,244426,201796
937.427,0.080747,263972,219185
941.254,0.081567,281845,233584
945.076,0.079958,297271,247283
950.165,0.079454,315605,262839
953.978,0.078073,328029,274056
957.786,0.078462,340470,284195
961.59,0.078786,352317,293865
965.389,0.078780,363056,302826
969.185,0.079212,373162,310946
972.976,0.079488,382632,318635
976.763,0.080045,391202,325354
981.806,0.080172,400190,332732
985.583,0.080751,406088,337186
989.355,0.080824,410162,340511
993.124,0.081852,412868,341947
996.888,0.082021,414263,342969
1000.65,0.082832,415476,343332
1004.4,0.083423,415479,342867
1009.41,0.085261,414358,340498
1013.15,0.085965,412923,338769
1016.89,0.085784,411526,337764
1020.63,0.085833,409066,335707
1024.36,0.085896,406777,333780
1028.09,0.085227,404427,332363
1031.82,0.085755,401911,329894
1036.78,0.085966,398410,326862
1040.49,0.084659,396204,326032
1044.2,0.085235,394236,323982
1047.91,0.084644,392042,322618
1051.61,0.084120,389823,321179
1055.31,0.084112,388234,319876
1059,0.084498,387599,319069
1063.92,0.083374,386688,319144
1067.61,0.082457,386598,319744
1071.29,0.082115,387377,320641
1074.96,0.080861,388536,322530
1078.63,0.080841,389855,323640
1082.3,0.079402,391215,325847
1085.96,0.079448,393215,327478
1090.84,0.077999,396270,331125
1094.49,0.077762,398760,333388
1098.14,0.077447,400987,335493
1101.79,0.076369,403477,338415
1105.43,0.076541,406116,340494
1109.06,0.075731,407701,342461
1112.7,0.075289,409859,344624
1117.53,0.074604,412494,347387
1121.15,0.075807,414909,348454
1124.77,0.075747,416559,349888
1128.38,0.076425,418532,350997
1131.99,0.077831,419956,351053
1135.6,0.079072,421946,351710
1139.2,0.080752,423881,351959
1143.99,0.082903,426786,352620
1147.58,0.082760,428617,354250
1151.17,0.083912,431169,355415
1154.75,0.084966,433579,356535
1158.33,0.086634,436264,357368
1161.91,0.088279,439132,358357
1165.48,0.090306,442389,359334
1169.04,0.092713,446101,360346
1173.79,0.095908,451929,362378
1177.34,0.097688,456026,364168
1180.9,0.099419,461306,366919
1184.44,0.101327,467657,370340
1187.99,0.102444,473969,374374
1191.52,0.102442,479856,379026
1195.06,0.102926,487372,384534
1199.76,0.101984,497347,393256
1203.29,0.101398,504311,399301
1206.81,0.101171,511507,405210
1210.33,0.100058,519078,412263
1213.84,0.099496,527163,419227
1217.35,0.099082,534208,425234
1220.85,0.098486,540472,430811
1225.51,0.097457,549929,439389
1229.01,0.097385,556888,445023
1232.5,0.096308,562180,450368
1235.98,0.095998,567975,455335
1239.46,0.094880,574815,462006
1242.94,0.093534,582782,469864
1246.41,0.093484,591476,476928
1251.03,0.093349,604016,487191
1254.5,0.093706,612289,493458
1257.96,0.093693,619125,498982
1261.41,0.094232,624551,502731
1264.86,0.094814,629900,506358
1268.31,0.095085,634345,509613
1271.75,0.096111,638574,511800
1276.33,0.096572,642499,514399
1279.76,0.096223,645905,517542
1283.19,0.095692,648307,520102
1286.61,0.095497,650446,522053
1290.03,0.095094,652132,523892
1293.44,0.094395,653907,526164
1296.85,0.094099,655963,528178
1301.39,0.093883,657349,529557
1304.8,0.093494,657558,530201
1308.19,0.093888,658515,530491
1311.58,0.094050,658804,530526
1314.97,0.094761,659011,529824
1318.36,0.095492,658272,528340
1321.73,0.095627,658022,527975
1326.23,0.096756,657870,526483
1329.6,0.097194,656482,524842
1332.97,0.098025,654926,522597
1336.33,0.099298,653727,520114
1339.69,0.100754,652497,517398
1343.04,0.102573,649913,513195
1346.39,0.103919,647671,509842
1349.73,0.106116,645338,505442
1354.18,0.108955,641175,498909
1357.52,0.111410,638376,493931
1360.85,0.112608,635805,490587
1364.17,0.114942,633413,486122
1367.49,0.117181,631026,481799
1370.81,0.119297,628050,477196
1374.12,0.121707,625034,472277
1378.54,0.124409,620272,465772
1381.84,0.127216,616892,460249
1385.14,0.130317,613613,454546
1388.43,0.134260,611526,448906
1391.72,0.138658,610663,443755
1395.01,0.142977,610634,439343
1398.29,0.147640,611700,435410
1402.66,0.154363,614051,430369
1405.93,0.159609,616268,426737
1409.2,0.164197,617795,423299
1412.46,0.169345,618872,419040
1415.72,0.173367,619795,415797
1418.98,0.176795,620495,412994
1422.23,0.179910,621087,410433
1426.56,0.184055,621375,406723
1429.8,0.187241,621616,403907
1433.04,0.189390,622129,402245
1436.27,0.190919,621526,400443
1439.5,0.193487,621113,397817
1442.72,0.195590,620921,395773
1445.94,0.197667,620270,393472
1450.23,0.201280,618860,389325
1453.44,0.204394,617697,385817
1456.64,0.207157,616264,382481
1459.85,0.210196,614413,378673
1463.04,0.212490,612307,375387
1466.24,0.215973,610032,371005
1469.43,0.219666,607345,366243
1473.67,0.225857,603789,358945
1476.85,0.230694,601175,353433
1480.02,0.236747,597737,346548
1483.19,0.243065,594479,339681
1486.36,0.248507,591232,333619
1489.52,0.252956,587853,328332
1492.68,0.256381,583875,323548
1496.89,0.257984,578062,319147
1500.03,0.258439,574159,316660
1503.18,0.257881,570285,314928
1506.32,0.257363,565444,312627
1509.45,0.256431,560571,310599
1512.58,0.254915,555821,309044
1515.71,0.252745,550344,307531
1519.87,0.249135,543983,306514
1522.99,0.246773,538764,305229
1526.1,0.244220,533692,304138
1529.21,0.241949,527902,302416
1532.32,0.238780,521886,301159
1535.42,0.236608,515888,299190
1538.51,0.233113,509987,298158
1541.6,0.230231,503936,296582
1545.72,0.226379,494694,293736
1548.8,0.222758,488378,292414
1551.88,0.220779,481832,289812
1554.95,0.219227,474989,286719
1558.02,0.217492,467818,283521
1561.08,0.216572,460730,279817
1564.15,0.215688,454170,276395
1568.22,0.214931,444181,270788
1571.27,0.214578,436947,266594
1574.32,0.212795,429598,263189
1577.36,0.212219,422039,258901
1580.4,0.211184,414375,254806
1583.43,0.209596,406354,250789
1586.46,0.208334,398475,246642
1590.49,0.209167,388982,240305
1593.51,0.203348,380708,238366
1596.53,0.202223,372727,233974
1599.54,0.200317,365060,230169
1602.55,0.198392,357543,226431
1605.55,0.197186,349495,221950
1608.55,0.194064,341154,218216
1612.54,0.194046,330877,211651
1615.53,0.190578,322904,208207
1618.51,0.189716,315116,203589
1621.49,0.188974,307217,198825
1624.47,0.187856,299481,194318
1627.44,0.185721,292112,190471
1630.41,0.185942,284245,185247
1634.36,0.183371,274079,179682
1637.32,0.184410,266916,174568
1640.27,0.183054,259612,170322
1643.22,0.182002,251804,165600
1646.16,0.181536,244348,160869
1649.1,0.180606,236703,156170
1652.04,0.178565,228171,151250
1655.95,0.176470,215408,143480
1658.88,0.170927,204937,138259
1661.8,0.166168,193395,131910
1664.72,0.158739,179728,124703
1667.63,0.147505,163642,116517
1670.54,0.132552,146312,107827
1673.44,0.116971,128451,98122
1677.31,0.095899,105080,84260
1680.21,0.087636,88906,72660
1683.1,0.083428,75033,61919
1685.99,0.083264,63520,52438
1688.87,0.085058,53714,44160
1691.75,0.090388,45653,37075
1694.62,0.094015,39137,31519
1697.49,0.091683,33776,27348
1701.31,0.106396,28175,22053