File: samples/wool/wool-000811/Column 1_050549_20150331_115928.csv
Method:,Column 1,,
Host Date-Time:,31/3/15 @ 11:59:28,,
Header Version:,1,,
System Temp (C):,33.24,,
Detector Temp (C):,31.99,,
Humidity (%):,2.25,,
Lamp PD:,3823,,
Shift Vector Coefficients:,-10.5391,0.0761263,-0.000134223,,
Pixel to Wavelength Coefficients:,1775.68,-0.916766,-0.000235065,,
Serial Number:,5510004,,
Scan Config Name:,Column 1,,
Scan Config Type:,Slew,,
Section 1,,
Start wavelength (nm):,900,,
End wavelength (nm):,1700,,
Pattern Pixel Width (nm):,   7.03,,,,
Exposure (ms):,  0.635,,,,
Digital Resolution:,228,,
Num Repeats:,6,,
PGA Gain:,64,,
Total Measurement Time in sec:,  2.675,,
Wavelength (nm),Absorbance (AU),Reference Signal (unitless),Sample Signal (unitless)
901.51,0.043652,108485,98111
905.376,0.051243,121306,107805
909.237,0.052486,131909,116893
913.095,0.054293,143299,126459
916.948,0.053579,156982,138762
922.079,0.055491,179937,158354
925.923,0.055115,200504,176607
929.762,0.056393,222660,195546
933.597,0.056617,244426,214551
937.427,0.056186,263972,231938
941.254,0.055672,281845,247935
945.076,0.054959,297271,261935
950.165,0.055251,315605,277903
953.978,0.055046,328029,288979
957.786,0.054800,340470,300109
961.59,0.055833,352317,309814
965.389,0.056216,363056,318976
969.185,0.055787,373162,328179
972.976,0.056158,382632,336220
976.763,0.056663,391202,343351
981.806,0.057565,400190,350511
985.583,0.058419,406088,354978
989.355,0.058126,410162,358781
993.124,0.059155,412868,360293
996.888,0.059799,414263,360975
1000.65,0.060579,415476,361382
1004.4,0.062127,415479,360099
1009.41,0.063096,414358,358327
1013.15,0.063676,412923,356610
1016.89,0.064317,411526,354879
1020.63,0.064032,409066,352989
1024.36,0.063184,406777,351700
1028.09,0.063272,404427,349597
1031.82,0.063224,401911,347461
1036.78,0.062442,398410,345055
1040.49,0.061386,396204,343980
1044.2,0.061611,394236,342094
1047.91,0.060952,392042,340707
1051.61,0.059892,389823,339606
1055.31,0.059269,388234,338707
1059,0.058469,387599,338777
1063.92,0.057226,386688,338949
1067.61,0.056138,386598,339720
1071.29,0.056364,387377,340228
1074.96,0.055514,388536,341914
1078.63,0.055260,389855,343276
1082.3,0.053863,391215,345583
1085.96,0.053208,393215,347874
1090.84,0.052390,396270,351238
1094.49,0.051737,398760,353977
1098.14,0.050944,400987,356604
1101.79,0.051067,403477,358717
1105.43,0.050943,406116,361166
1109.06,0.050748,407701,362739
1112.7,0.049626,409859,365602
1117.53,0.050422,412494,367279
1121.15,0.051439,414909,368565
1124.77,0.052010,416559,369544
1128.38,0.053189,418532,370288
1131.99,0.055395,419956,369665
1135.6,0.056795,421946,370222
1139.2,0.058389,423881,370557
1143.99,0.061797,426786,370180
1147.58,0.062321,428617,371320
1151.17,0.064488,431169,371672
1154.75,0.066045,433579,372412
1158.33,0.067911,436264,373111
1161.91,0.070278,439132,373523
1165.48,0.073235,442389,373740
1169.04,0.075678,446101,374762
1173.79,0.080093,451929,375818
1177.34,0.083313,456026,376423
1180.9,0.085251,461306,379086
1184.44,0.087113,467657,382661
1187.99,0.088638,473969,386467
1191.52,0.087953,479856,391884
1195.06,0.087201,487372,398712
1199.76,0.085580,497347,408394
1203.29,0.084468,504311,415174
1206.81,0.083444,511507,422092
1210.33,0.082121,519078,429647
1213.84,0.081426,527163,437038
1217.35,0.080204,534208,444126
1220.85,0.078758,540472,450832
1225.51,0.077477,549929,460076
1229.01,0.076484,556888,466965
1232.5,0.075663,562180,472294
1235.98,0.075097,567975,477785
1239.46,0.074013,574815,484747
1242.94,0.072465,582782,493221
1246.41,0.071849,591476,501289
1251.03,0.071192,604016,512692
1254.5,0.071796,612289,518992
1257.96,0.072063,619125,524464
1261.41,0.072626,624551,528375
1264.86,0.073202,629900,532194
1268.31,0.073770,634345,535248
1271.75,0.074548,638574,537853
1276.33,0.074833,642499,540804
1279.76,0.075007,645905,543452
1283.19,0.073874,648307,546898
1286.61,0.073754,650446,548854
1290.03,0.073156,652132,551035
1293.44,0.072929,653907,552824
1296.85,0.072546,655963,555052
1301.39,0.072288,657349,556555
1304.8,0.072376,657558,556619
1308.19,0.072737,658515,556966
1311.58,0.072448,658804,557581
1314.97,0.073193,659011,556800
1318.36,0.073701,658272,555526
1321.73,0.074073,658022,554839
1326.23,0.075138,657870,553353
1329.6,0.076125,656482,550932
1332.97,0.077537,654926,547842
1336.33,0.078567,653727,545543
1339.69,0.080395,652497,542230
1343.04,0.082030,649913,538053
1346.39,0.084535,647671,533113
1349.73,0.087164,645338,527987
1354.18,0.090692,641175,520337
1357.52,0.092789,638376,515570
1360.85,0.095755,635805,509999
1364.17,0.097982,633413,505481
1367.49,0.100588,631026,500564
1370.81,0.103545,628050,494822
1374.12,0.105913,625034,489768
1378.54,0.109689,620272,481829
1381.84,0.113708,616892,474789
1385.14,0.118433,613613,467156
1388.43,0.122997,611526,460700
1391.72,0.129067,610663,453664
1395.01,0.134109,610634,448407
1398.29,0.139622,611700,443523
1402.66,0.147996,614051,436725
1405.93,0.154725,616268,431563
1409.2,0.160540,617795,426879
1412.46,0.165863,618872,422414
1415.72,0.171173,619795,417903
1418.98,0.175640,620495,414093
1422.23,0.179495,621087,410826
1426.56,0.184324,621375,406471
1429.8,0.186909,621616,404216
1433.04,0.189672,622129,401984
1436.27,0.192484,621526,399002
1439.5,0.193958,621113,397386
1442.72,0.197095,620921,394404
1445.94,0.199985,620270,391377
1450.23,0.203677,618860,387182
1453.44,0.206387,617697,384051
1456.64,0.209640,616264,380300
1459.85,0.212083,614413,377031
1463.04,0.214676,612307,373502
1466.24,0.218581,610032,368784
1469.43,0.221519,607345,364684
1473.67,0.226781,603789,358182
1476.85,0.232055,601175,352327
1480.02,0.238758,597737,344947
1483.19,0.245044,594479,338137
1486.36,0.251206,591232,331552
1489.52,0.256626,587853,325569
1492.68,0.260385,583875,320579
1496.89,0.264119,578062,314670
1500.03,0.264584,574159,312211
1503.18,0.265462,570285,309478
1506.32,0.264105,565444,307811
1509.45,0.263503,560571,305582
1512.58,0.262140,555821,303945
1515.71,0.259232,550344,302972
1519.87,0.255914,543983,301767
1522.99,0.252952,538764,300917
1526.1,0.250974,533692,299445
1529.21,0.247737,527902,298412
1532.32,0.244099,521886,297493
1535.42,0.241283,515888,295987
1538.51,0.237583,509987,295105
1541.6,0.234825,503936,293461
1545.72,0.229000,494694,291969
1548.8,0.225821,488378,290359
1551.88,0.223357,481832,288097
1554.95,0.220880,474989,285630
1558.02,0.219506,467818,282209
1561.08,0.217357,460730,279312
1564.15,0.217108,454170,275493
1568.22,0.215764,444181,270269
1571.27,0.215790,436947,265851
1574.32,0.214900,429598,261916
1577.36,0.213092,422039,258381
1580.4,0.211636,414375,254541
1583.43,0.209362,406354,250924
1586.46,0.206884,398475,247467
1590.49,0.205187,388982,242517
1593.51,0.202592,380708,238781
1596.53,0.200645,372727,234826
1599.54,0.198020,365060,231390
1602.55,0.194872,357543,228274
1605.55,0.192525,349495,224345
1608.55,0.189979,341154,220278
1612.54,0.188292,330877,214474
1615.53,0.184882,322904,210956
1618.51,0.184083,315116,206247
1621.49,0.182780,307217,201681
1624.47,0.181412,299481,197223
1627.44,0.179994,292112,192999
1630.41,0.177783,284245,188760
1634.36,0.176699,274079,182464
1637.32,0.176514,266916,177771
1640.27,0.174135,259612,173856
1643.22,0.173461,251804,168889
1646.16,0.173117,244348,164018
1649.1,0.171835,236703,159356
1652.04,0.171033,228171,153896
1655.95,0.168751,215408,146053
1658.88,0.164671,204937,140265
1661.8,0.163493,193395,132725
1664.72,0.159405,179728,124512
1667.63,0.151448,163642,115464
1670.54,0.142625,146312,105355
1673.44,0.132938,128451,94580
1677.31,0.125452,105080,78717
1680.21,0.123408,88906,66915
1683.1,0.118457,75033,57121
1685.99,0.124192,63520,47722
1688.87,0.129518,53714,39863
1691.75,0.137678,45653,33250
1694.62,0.137468,39137,28518
1697.49,0.139761,33776,24482
1701.31,0.154913,28175,19722