File: samples/wool/wool-000811/Column 1_050625_20150331_123540.csv
Method:,Column 1,,
Host Date-Time:,31/3/15 @ 12:35:40,,
Header Version:,1,,
System Temp (C):,34.12,,
Detector Temp (C):,35.05,,
Humidity (%):,1.56,,
Lamp PD:,3818,,
Shift Vector Coefficients:,-10.5391,0.0761263,-0.000134223,,
Pixel to Wavelength Coefficients:,1775.68,-0.916766,-0.000235065,,
Serial Number:,5510004,,
Scan Config Name:,Column 1,,
Scan Config Type:,Slew,,
Section 1,,
Start wavelength (nm):,900,,
End wavelength (nm):,1700,,
Pattern Pixel Width (nm):,   7.03,,,,
Exposure (ms):,  0.635,,,,
Digital Resolution:,228,,
Num Repeats:,6,,
PGA Gain:,64,,
Total Measurement Time in sec:,  2.671,,
Wavelength (nm),Absorbance (AU),Reference Signal (unitless),Sample Signal (unitless)
901.51,0.067564,108485,92855
905.376,0.073260,121306,102476
909.237,0.076409,131909,110628
913.095,0.077848,143299,119783
916.948,0.078602,156982,130993
922.079,0.080726,179937,149415
925.923,0.081382,200504,166242
929.762,0.082303,222660,184221
933.597,0.082248,244426,202255
937.427,0.080937,263972,219089
941.254,0.080253,281845,234292
945.076,0.079642,297271,247463
950.165,0.078147,315605,263631
953.978,0.077216,328029,274597
957.786,0.077303,340470,284955
961.59,0.077747,352317,294569
965.389,0.077432,363056,303768
969.185,0.077281,373162,312332
972.976,0.077359,382632,320201
976.763,0.079016,391202,326126
981.806,0.078658,400190,333894
985.583,0.078937,406088,338597
989.355,0.079831,410162,341291
993.124,0.080388,412868,343102
996.888,0.080530,414263,344149
1000.65,0.081318,415476,344531
1004.4,0.082281,415479,343770
1009.41,0.083672,414358,341746
1013.15,0.084130,412923,340204
1016.89,0.084530,411526,338741
1020.63,0.084212,409066,336962
1024.36,0.084030,406777,335217
1028.09,0.084090,404427,333235
1031.82,0.084335,401911,330975
1036.78,0.083548,398410,328687
1040.49,0.083337,396204,327026
1044.2,0.083486,394236,325290
1047.91,0.082892,392042,323922
1051.61,0.083695,389823,321494
1055.31,0.082870,388234,320792
1059,0.082269,387599,320711
1063.92,0.080927,386688,320947
1067.61,0.080838,386598,320938
1071.29,0.080228,387377,322037
1074.96,0.079459,388536,323573
1078.63,0.079457,389855,324673
1082.3,0.077994,391215,326905
1085.96,0.077693,393215,328804
1090.84,0.076249,396270,332462
1094.49,0.076666,398760,334230
1098.14,0.075396,400987,337081
1101.79,0.074598,403477,339798
1105.43,0.074552,406116,342057
1109.06,0.073845,407701,343951
1112.7,0.072927,409859,346503
1117.53,0.072887,412494,348763
1121.15,0.073519,414909,350295
1124.77,0.073349,416559,351826
1128.38,0.075013,418532,352140
1131.99,0.075622,419956,352843
1135.6,0.076845,421946,353518
1139.2,0.078551,423881,353747
1143.99,0.080182,426786,354836
1147.58,0.080872,428617,355793
1151.17,0.081838,431169,357116
1154.75,0.082545,433579,358528
1158.33,0.083522,436264,359938
1161.91,0.085769,439132,360434
1165.48,0.087773,442389,361436
1169.04,0.089826,446101,362750
1173.79,0.093399,451929,364478
1177.34,0.096080,456026,365519
1180.9,0.097222,461306,368780
1184.44,0.098892,467657,372422
1187.99,0.100906,473969,375702
1191.52,0.100356,479856,380851
1195.06,0.100177,487372,386976
1199.76,0.100020,497347,395039
1203.29,0.099160,504311,401364
1206.81,0.098901,511507,407334
1210.33,0.097886,519078,414330
1213.84,0.097295,527163,421357
1217.35,0.096668,534208,427605
1220.85,0.096267,540472,433018
1225.51,0.095154,549929,441726
1229.01,0.094871,556888,447607
1232.5,0.094245,562180,452512
1235.98,0.093577,567975,457881
1239.46,0.092679,574815,464354
1242.94,0.091821,582782,471721
1246.41,0.091045,591476,479614
1251.03,0.091300,604016,489495
1254.5,0.091049,612289,496487
1257.96,0.091914,619125,501031
1261.41,0.091934,624551,505399
1264.86,0.092413,629900,509165
1268.31,0.093385,634345,511612
1271.75,0.094137,638574,514132
1276.33,0.093989,642499,517468
1279.76,0.093777,645905,520465
1283.19,0.093092,648307,523225
1286.61,0.093193,650446,524830
1290.03,0.092740,652132,526739
1293.44,0.092030,653907,529037
1296.85,0.091875,655963,530890
1301.39,0.091436,657349,532549
1304.8,0.091583,657558,532539
1308.19,0.091557,658515,533346
1311.58,0.091802,658804,533279
1314.97,0.092238,659011,532911
1318.36,0.092473,658272,532025
1321.73,0.092517,658022,531770
1326.23,0.093657,657870,530253
1329.6,0.094104,656482,528590
1332.97,0.095032,654926,526211
1336.33,0.096111,653727,523945
1339.69,0.097502,652497,521287
1343.04,0.098697,649913,517795
1346.39,0.101062,647671,513207
1349.73,0.102359,645338,509833
1354.18,0.105716,641175,502644
1357.52,0.107022,638376,498947
1360.85,0.109298,635805,494340
1364.17,0.111243,633413,490280
1367.49,0.113677,631026,485702
1370.81,0.115929,628050,480912
1374.12,0.117650,625034,476709
1378.54,0.120486,620272,469998
1381.84,0.123360,616892,464354
1385.14,0.126508,613613,458550
1388.43,0.129823,611526,453515
1391.72,0.133514,610663,449043
1395.01,0.137450,610634,444970
1398.29,0.141170,611700,441945
1402.66,0.147443,614051,437282
1405.93,0.152131,616268,434149
1409.2,0.156305,617795,431062
1412.46,0.160523,618872,427640
1415.72,0.164539,619795,424335
1418.98,0.168056,620495,421388
1422.23,0.171220,621087,418728
1426.56,0.174540,621375,415732
1429.8,0.177379,621616,413184
1433.04,0.179331,622129,411670
1436.27,0.182180,621526,408582
1439.5,0.184254,621113,406365
1442.72,0.186909,620921,403764
1445.94,0.188535,620270,401833
1450.23,0.192181,618860,397568
1453.44,0.194835,617697,394403
1456.64,0.198010,616264,390622
1459.85,0.200616,614413,387119
1463.04,0.204002,612307,382796
1466.24,0.207583,610032,378242
1469.43,0.211316,607345,373353
1473.67,0.217927,603789,365560
1476.85,0.224002,601175,358921
1480.02,0.229897,597737,352057
1483.19,0.236637,594479,344746
1486.36,0.243309,591232,337636
1489.52,0.247520,587853,332467
1492.68,0.251317,583875,327343
1496.89,0.253550,578062,322422
1500.03,0.253668,574159,320158
1503.18,0.254054,570285,317715
1506.32,0.253239,565444,315610
1509.45,0.252010,560571,313777
1512.58,0.250295,555821,312349
1515.71,0.248159,550344,310796
1519.87,0.245218,543983,309291
1522.99,0.242322,538764,308373
1526.1,0.239516,533692,307450
1529.21,0.237015,527902,305871
1532.32,0.234033,521886,304469
1535.42,0.230971,515888,303099
1538.51,0.227831,509987,301806
1541.6,0.225373,503936,299918
1545.72,0.221691,494694,296924
1548.8,0.218413,488378,295354
1551.88,0.216102,481832,292950
1554.95,0.213720,474989,290378
1558.02,0.212218,467818,286985
1561.08,0.211853,460730,282874
1564.15,0.211424,454170,279122
1568.22,0.210019,444181,273868
1571.27,0.209279,436947,269867
1574.32,0.209066,429598,265458
1577.36,0.206801,422039,262151
1580.4,0.206844,414375,257365
1583.43,0.203934,406354,254080
1586.46,0.202451,398475,250006
1590.49,0.201212,388982,244747
1593.51,0.199537,380708,240467
1596.53,0.196998,372727,236806
1599.54,0.196177,365060,232374
1602.55,0.193734,357543,228873
1605.55,0.191685,349495,224779
1608.55,0.189739,341154,220400
1612.54,0.188146,330877,214546
1615.53,0.185650,322904,210583
1618.51,0.185116,315116,205757
1621.49,0.184868,307217,200714
1624.47,0.182386,299481,196781
1627.44,0.183045,292112,191648
1630.41,0.182267,284245,186821
1634.36,0.180545,274079,180855
1637.32,0.178384,266916,177007
1640.27,0.179709,259612,171639
1643.22,0.177536,251804,167312
1646.16,0.176667,244348,162683
1649.1,0.175500,236703,158017
1652.04,0.174982,228171,152503
1655.95,0.171247,215408,145216
1658.88,0.167810,204937,139255
1661.8,0.162421,193395,133053
1664.72,0.154431,179728,125946
1667.63,0.142072,163642,117984
1670.54,0.127507,146312,109087
1673.44,0.111421,128451,99384
1677.31,0.089270,105080,85556
1680.21,0.077890,88906,74309
1683.1,0.071365,75033,63663
1685.99,0.072872,63520,53708
1688.87,0.072984,53714,45405
1691.75,0.081495,45653,37842
1694.62,0.078332,39137,32678
1697.49,0.092828,33776,27276
1701.31,0.098164,28175,22475