File: samples/wool/wool-000811/Column 1_050560_20150331_120442.csv
Method:,Column 1,,
Host Date-Time:,31/3/15 @ 12:4:42,,
Header Version:,1,,
System Temp (C):,33.66,,
Detector Temp (C):,33.2,,
Humidity (%):,2.15,,
Lamp PD:,3819,,
Shift Vector Coefficients:,-10.5391,0.0761263,-0.000134223,,
Pixel to Wavelength Coefficients:,1775.68,-0.916766,-0.000235065,,
Serial Number:,5510004,,
Scan Config Name:,Column 1,,
Scan Config Type:,Slew,,
Section 1,,
Start wavelength (nm):,900,,
End wavelength (nm):,1700,,
Pattern Pixel Width (nm):,   7.03,,,,
Exposure (ms):,  0.635,,,,
Digital Resolution:,228,,
Num Repeats:,6,,
PGA Gain:,64,,
Total Measurement Time in sec:,  2.660,,
Wavelength (nm),Absorbance (AU),Reference Signal (unitless),Sample Signal (unitless)
901.51,0.034320,108485,100242
905.376,0.040186,121306,110585
909.237,0.042961,131909,119485
913.095,0.042972,143299,129799
916.948,0.044802,156982,141595
922.079,0.045335,179937,162101
925.923,0.046474,200504,180156
929.762,0.047593,222660,199549
933.597,0.048251,244426,218724
937.427,0.047057,263972,236865
941.254,0.046773,281845,253068
945.076,0.047351,297271,266564
950.165,0.046041,315605,283859
953.978,0.045386,328029,295479
957.786,0.045391,340470,306682
961.59,0.046832,352317,316302
965.389,0.046675,363056,326061
969.185,0.047067,373162,334835
972.976,0.046894,382632,343469
976.763,0.048044,391202,350233
981.806,0.048318,400190,358054
985.583,0.049716,406088,362163
989.355,0.050309,410162,365297
993.124,0.049844,412868,368101
996.888,0.050491,414263,368795
1000.65,0.050995,415476,369446
1004.4,0.052774,415479,367938
1009.41,0.053572,414358,366272
1013.15,0.054620,412923,364124
1016.89,0.054984,411526,362588
1020.63,0.055191,409066,360249
1024.36,0.055127,406777,358286
1028.09,0.054525,404427,356710
1031.82,0.053850,401911,355042
1036.78,0.054031,398410,351803
1040.49,0.053137,396204,350576
1044.2,0.053193,394236,348789
1047.91,0.052764,392042,347191
1051.61,0.051737,389823,346043
1055.31,0.051748,388234,344624
1059,0.051465,387599,344285
1063.92,0.050733,386688,344055
1067.61,0.049879,386598,344652
1071.29,0.049090,387377,345974
1074.96,0.048438,388536,347531
1078.63,0.047738,389855,349273
1082.3,0.047148,391215,350968
1085.96,0.046670,393215,353151
1090.84,0.046025,396270,356423
1094.49,0.045239,398760,359313
1098.14,0.045330,400987,361244
1101.79,0.044323,403477,364331
1105.43,0.044511,406116,366555
1109.06,0.044213,407701,368238
1112.7,0.044520,409859,369926
1117.53,0.043753,412494,372962
1121.15,0.044966,414909,374099
1124.77,0.045281,416559,375315
1128.38,0.046559,418532,375984
1131.99,0.047900,419956,376100
1135.6,0.049660,421946,376354
1139.2,0.051957,423881,376086
1143.99,0.054140,426786,376765
1147.58,0.055459,428617,377234
1151.17,0.056873,431169,378246
1154.75,0.057851,433579,379505
1158.33,0.059834,436264,380115
1161.91,0.061744,439132,380935
1165.48,0.064127,442389,381661
1169.04,0.066753,446101,382543
1173.79,0.070828,451929,383921
1177.34,0.072311,456026,386081
1180.9,0.075153,461306,388004
1184.44,0.077613,467657,391124
1187.99,0.078387,473969,395697
1191.52,0.077904,479856,401058
1195.06,0.077249,487372,407954
1199.76,0.076087,497347,417419
1203.29,0.075098,504311,424229
1206.81,0.075223,511507,430159
1210.33,0.073414,519078,438348
1213.84,0.072803,527163,445802
1217.35,0.071937,534208,452661
1220.85,0.071812,540472,458101
1225.51,0.070374,549929,467663
1229.01,0.070256,556888,473709
1232.5,0.069614,562180,478918
1235.98,0.068635,567975,484947
1239.46,0.067634,574815,491919
1242.94,0.066823,582782,499670
1246.41,0.066302,591476,507733
1251.03,0.066017,604016,518838
1254.5,0.066313,612289,525585
1257.96,0.066619,619125,531079
1261.41,0.067281,624551,534918
1264.86,0.067983,629900,538628
1268.31,0.068375,634345,541939
1271.75,0.069099,638574,544643
1276.33,0.069200,642499,547863
1279.76,0.069512,645905,550373
1283.19,0.068969,648307,553110
1286.61,0.068644,650446,555351
1290.03,0.068406,652132,557095
1293.44,0.067685,653907,559540
1296.85,0.067287,655963,561814
1301.39,0.067402,657349,562852
1304.8,0.067197,657558,563296
1308.19,0.067364,658515,563899
1311.58,0.067647,658804,563779
1314.97,0.068134,659011,563324
1318.36,0.068876,658272,561732
1321.73,0.068878,658022,561517
1326.23,0.070448,657870,559361
1329.6,0.070994,656482,557479
1332.97,0.071965,654926,554916
1336.33,0.073152,653727,552388
1339.69,0.075057,652497,548936
1343.04,0.076863,649913,544493
1346.39,0.078957,647671,540005
1349.73,0.081240,645338,535238
1354.18,0.084705,641175,527560
1357.52,0.086880,638376,522633
1360.85,0.089494,635805,517404
1364.17,0.091499,633413,513083
1367.49,0.093245,631026,509099
1370.81,0.095833,628050,503687
1374.12,0.098428,625034,498282
1378.54,0.102120,620272,490300
1381.84,0.105813,616892,483500
1385.14,0.109734,613613,476607
1388.43,0.114132,611526,470200
1391.72,0.119182,610663,464109
1395.01,0.124093,610634,458868
1398.29,0.129564,611700,453915
1402.66,0.136903,614051,448024
1405.93,0.143211,616268,443158
1409.2,0.148638,617795,438739
1412.46,0.153660,618872,434451
1415.72,0.158709,619795,430070
1418.98,0.163231,620495,426096
1422.23,0.166872,621087,422942
1426.56,0.170618,621375,419504
1429.8,0.174111,621616,416305
1433.04,0.176841,622129,414037
1436.27,0.179304,621526,411297
1439.5,0.181149,621113,409281
1442.72,0.183678,620921,406779
1445.94,0.186179,620270,404019
1450.23,0.190147,618860,399434
1453.44,0.193182,617697,395907
1456.64,0.195988,616264,392445
1459.85,0.198609,614413,388912
1463.04,0.201584,612307,384933
1466.24,0.204823,610032,380653
1469.43,0.208708,607345,375602
1473.67,0.214264,603789,368656
1476.85,0.219803,601175,362408
1480.02,0.225293,597737,355809
1483.19,0.231975,594479,348467
1486.36,0.238419,591232,341459
1489.52,0.243197,587853,335793
1492.68,0.246547,583875,330958
1496.89,0.248214,578062,326408
1500.03,0.249218,574159,323455
1503.18,0.249649,570285,320954
1506.32,0.248647,565444,318965
1509.45,0.247195,560571,317275
1512.58,0.246044,555821,315421
1515.71,0.243384,550344,314232
1519.87,0.240037,543983,313003
1522.99,0.237080,538764,312118
1526.1,0.234490,533692,311029
1529.21,0.232057,527902,309383
1532.32,0.228739,521886,308203
1535.42,0.226006,515888,306584
1538.51,0.222755,509987,305354
1541.6,0.219941,503936,303693
1545.72,0.214512,494694,301873
1548.8,0.211681,488378,299968
1551.88,0.208921,481832,297834
1554.95,0.207802,474989,294362
1558.02,0.205930,467818,291170
1561.08,0.203534,460730,288345
1564.15,0.203870,454170,284020
1568.22,0.201570,444181,279248
1571.27,0.201423,436947,274793
1574.32,0.200513,429598,270738
1577.36,0.199196,422039,266782
1580.4,0.197279,414375,263096
1583.43,0.195685,406354,258952
1586.46,0.194159,398475,254825
1590.49,0.191474,388982,250297
1593.51,0.189780,380708,245930
1596.53,0.186749,372727,242461
1599.54,0.185235,365060,238303
1602.55,0.183673,357543,234237
1605.55,0.181055,349495,230349
1608.55,0.179140,341154,225845
1612.54,0.176563,330877,220345
1615.53,0.174425,322904,216097
1618.51,0.172901,315116,211626
1621.49,0.173371,307217,206098
1624.47,0.171050,299481,201985
1627.44,0.169905,292112,197535
1630.41,0.167859,284245,193123
1634.36,0.166604,274079,186755
1637.32,0.165366,266916,182393
1640.27,0.164948,259612,177573
1643.22,0.164261,251804,172505
1646.16,0.162824,244348,167952
1649.1,0.162669,236703,162755
1652.04,0.162131,228171,157083
1655.95,0.157753,215408,149799
1658.88,0.156378,204937,142969
1661.8,0.152408,193395,136156
1664.72,0.146819,179728,128173
1667.63,0.136887,163642,119401
1670.54,0.125414,146312,109614
1673.44,0.113629,128451,98880
1677.31,0.101961,105080,83092
1680.21,0.093533,88906,71680
1683.1,0.092873,75033,60587
1685.99,0.093971,63520,51161
1688.87,0.099985,53714,42668
1691.75,0.109388,45653,35488
1694.62,0.112955,39137,30174
1697.49,0.117106,33776,25793
1701.31,0.120710,28175,21338