File: samples/wool/wool-000811/Column 1_050616_20150331_123100.csv
Method:,Column 1,,
Host Date-Time:,31/3/15 @ 12:31:0,,
Header Version:,1,,
System Temp (C):,34.1,,
Detector Temp (C):,34.92,,
Humidity (%):,1.66,,
Lamp PD:,3818,,
Shift Vector Coefficients:,-10.5391,0.0761263,-0.000134223,,
Pixel to Wavelength Coefficients:,1775.68,-0.916766,-0.000235065,,
Serial Number:,5510004,,
Scan Config Name:,Column 1,,
Scan Config Type:,Slew,,
Section 1,,
Start wavelength (nm):,900,,
End wavelength (nm):,1700,,
Pattern Pixel Width (nm):,   7.03,,,,
Exposure (ms):,  0.635,,,,
Digital Resolution:,228,,
Num Repeats:,6,,
PGA Gain:,64,,
Total Measurement Time in sec:,  2.731,,
Wavelength (nm),Absorbance (AU),Reference Signal (unitless),Sample Signal (unitless)
901.51,0.069129,108485,92521
905.376,0.074678,121306,102142
909.237,0.077675,131909,110306
913.095,0.077055,143299,120002
916.948,0.078589,156982,130997
922.079,0.080561,179937,149472
925.923,0.082371,200504,165864
929.762,0.082063,222660,184323
933.597,0.082036,244426,202354
937.427,0.081566,263972,218772
941.254,0.080144,281845,234351
945.076,0.079806,297271,247370
950.165,0.078972,315605,263131
953.978,0.077555,328029,274383
957.786,0.077887,340470,284572
961.59,0.077238,352317,294914
965.389,0.077324,363056,303843
969.185,0.077214,373162,312380
972.976,0.077653,382632,319984
976.763,0.078419,391202,326574
981.806,0.078370,400190,334115
985.583,0.079475,406088,338178
989.355,0.079761,410162,341346
993.124,0.080734,412868,342829
996.888,0.080983,414263,343790
1000.65,0.081493,415476,344392
1004.4,0.082572,415479,343540
1009.41,0.083187,414358,342128
1013.15,0.084816,412923,339667
1016.89,0.085029,411526,338352
1020.63,0.084981,409066,336366
1024.36,0.084786,406777,334634
1028.09,0.084636,404427,332816
1031.82,0.084289,401911,331010
1036.78,0.084239,398410,328164
1040.49,0.084109,396204,326445
1044.2,0.084164,394236,324782
1047.91,0.083076,392042,323785
1051.61,0.082843,389823,322125
1055.31,0.082686,388234,320928
1059,0.082008,387599,320904
1063.92,0.081942,386688,320198
1067.61,0.080913,386598,320883
1071.29,0.080019,387377,322192
1074.96,0.079491,388536,323549
1078.63,0.079061,389855,324969
1082.3,0.078716,391215,326362
1085.96,0.077595,393215,328878
1090.84,0.076683,396270,332130
1094.49,0.075625,398760,335032
1098.14,0.075453,400987,337037
1101.79,0.075133,403477,339380
1105.43,0.074859,406116,341815
1109.06,0.074491,407701,343440
1112.7,0.073228,409859,346263
1117.53,0.072991,412494,348680
1121.15,0.073867,414909,350014
1124.77,0.073857,416559,351414
1128.38,0.074560,418532,352508
1131.99,0.076050,419956,352496
1135.6,0.077485,421946,352998
1139.2,0.078029,423881,354173
1143.99,0.080553,426786,354533
1147.58,0.081372,428617,355384
1151.17,0.082522,431169,356554
1154.75,0.083077,433579,358089
1158.33,0.084331,436264,359268
1161.91,0.085986,439132,360254
1165.48,0.088001,442389,361246
1169.04,0.090299,446101,362355
1173.79,0.094144,451929,363853
1177.34,0.095567,456026,365951
1180.9,0.098331,461306,367839
1184.44,0.100191,467657,371310
1187.99,0.100942,473969,375671
1191.52,0.100965,479856,380317
1195.06,0.100910,487372,386323
1199.76,0.100228,497347,394849
1203.29,0.099776,504311,400795
1206.81,0.098945,511507,407293
1210.33,0.098721,519078,413534
1213.84,0.097766,527163,420900
1217.35,0.097260,534208,427022
1220.85,0.096531,540472,432755
1225.51,0.095484,549929,441390
1229.01,0.095320,556888,447144
1232.5,0.094630,562180,452111
1235.98,0.093863,567975,457579
1239.46,0.093189,574815,463809
1242.94,0.092380,582782,471114
1246.41,0.091924,591476,478645
1251.03,0.091250,604016,489552
1254.5,0.091545,612289,495920
1257.96,0.092041,619125,500884
1261.41,0.092355,624551,504909
1264.86,0.092994,629900,508484
1268.31,0.093521,634345,511452
1271.75,0.094609,638574,513573
1276.33,0.094337,642499,517053
1279.76,0.094294,645905,519846
1283.19,0.093651,648307,522552
1286.61,0.093453,650446,524516
1290.03,0.092942,652132,526494
1293.44,0.092805,653907,528094
1296.85,0.092645,655963,529949
1301.39,0.091981,657349,531882
1304.8,0.092112,657558,531890
1308.19,0.092661,658515,531992
1311.58,0.092213,658804,532774
1314.97,0.092390,659011,532724
1318.36,0.093117,658272,531237
1321.73,0.093116,658022,531036
1326.23,0.094373,657870,529379
1329.6,0.094936,656482,527578
1332.97,0.095220,654926,525984
1336.33,0.096688,653727,523249
1339.69,0.098247,652497,520393
1343.04,0.099324,649913,517048
1346.39,0.101562,647671,512616
1349.73,0.103189,645338,508860
1354.18,0.106239,641175,502039
1357.52,0.108004,638376,497820
1360.85,0.110443,635805,493039
1364.17,0.111913,633413,489524
1367.49,0.114615,631026,484654
1370.81,0.116458,628050,480326
1374.12,0.118482,625034,475797
1378.54,0.121370,620272,469042
1381.84,0.124348,616892,463299
1385.14,0.127199,613613,457821
1388.43,0.130835,611526,452460
1391.72,0.134485,610663,448040
1395.01,0.138567,610634,443827
1398.29,0.142855,611700,440234
1402.66,0.148633,614051,436085
1405.93,0.154040,616268,432245
1409.2,0.158373,617795,429014
1412.46,0.162888,618872,425317
1415.72,0.166203,619795,422712
1418.98,0.169815,620495,419685
1422.23,0.173549,621087,416489
1426.56,0.177162,621375,413230
1429.8,0.179473,621616,411196
1433.04,0.182435,622129,408738
1436.27,0.183856,621526,407008
1439.5,0.185571,621113,405135
1442.72,0.188428,620921,402354
1445.94,0.191169,620270,399403
1450.23,0.194689,618860,395279
1453.44,0.196939,617697,392497
1456.64,0.200479,616264,388408
1459.85,0.203084,614413,384925
1463.04,0.205759,612307,381250
1466.24,0.209017,610032,376995
1469.43,0.213047,607345,371868
1473.67,0.219774,603789,364008
1476.85,0.225472,601175,357708
1480.02,0.231826,597737,350497
1483.19,0.238320,594479,343413
1486.36,0.243957,591232,337133
1489.52,0.248929,587853,331390
1492.68,0.252245,583875,326644
1496.89,0.254575,578062,321662
1500.03,0.255254,574159,318991
1503.18,0.254725,570285,317225
1506.32,0.254468,565444,314718
1509.45,0.252889,560571,313142
1512.58,0.250691,555821,312064
1515.71,0.248645,550344,310448
1519.87,0.247605,543983,307596
1522.99,0.242928,538764,307943
1526.1,0.240658,533692,306643
1529.21,0.237369,527902,305622
1532.32,0.234839,521886,303904
1535.42,0.232002,515888,302380
1538.51,0.229137,509987,300900
1541.6,0.227155,503936,298690
1545.72,0.221756,494694,296880
1548.8,0.219984,488378,294288
1551.88,0.217146,481832,292247
1554.95,0.215089,474989,289464
1558.02,0.213889,467818,285883
1561.08,0.212883,460730,282204
1564.15,0.211549,454170,279042
1568.22,0.210517,444181,273554
1571.27,0.210609,436947,269042
1574.32,0.209834,429598,264989
1577.36,0.208740,422039,260983
1580.4,0.206777,414375,257405
1583.43,0.205849,406354,252962
1586.46,0.204064,398475,249079
1590.49,0.202602,388982,243965
1593.51,0.200241,380708,240077
1596.53,0.198663,372727,235900
1599.54,0.196225,365060,232348
1602.55,0.194326,357543,228561
1605.55,0.192759,349495,224224
1608.55,0.190840,341154,219842
1612.54,0.189314,330877,213970
1615.53,0.187436,322904,209719
1618.51,0.186316,315116,205189
1621.49,0.184878,307217,200709
1624.47,0.183411,299481,196317
1627.44,0.182445,292112,191913
1630.41,0.181902,284245,186978
1634.36,0.180680,274079,180799
1637.32,0.179871,266916,176402
1640.27,0.180499,259612,171327
1643.22,0.177517,251804,167319
1646.16,0.177466,244348,162384
1649.1,0.177782,236703,157189
1652.04,0.177874,228171,151491
1655.95,0.172104,215408,144930
1658.88,0.167666,204937,139301
1661.8,0.163614,193395,132688
1664.72,0.155661,179728,125590
1667.63,0.143665,163642,117552
1670.54,0.128156,146312,108924
1673.44,0.112138,128451,99220
1677.31,0.089905,105080,85431
1680.21,0.079564,88906,74023
1683.1,0.074542,75033,63199
1685.99,0.074216,63520,53542
1688.87,0.075516,53714,45141
1691.75,0.084085,45653,37617
1694.62,0.090119,39137,31803
1697.49,0.093481,33776,27235
1701.31,0.096429,28175,22565