File: samples/wool/wool-000811/Column 1_050561_20150331_120502.csv
Method:,Column 1,,
Host Date-Time:,31/3/15 @ 12:5:2,,
Header Version:,1,,
System Temp (C):,33.72,,
Detector Temp (C):,33.27,,
Humidity (%):,2.05,,
Lamp PD:,3819,,
Shift Vector Coefficients:,-10.5391,0.0761263,-0.000134223,,
Pixel to Wavelength Coefficients:,1775.68,-0.916766,-0.000235065,,
Serial Number:,5510004,,
Scan Config Name:,Column 1,,
Scan Config Type:,Slew,,
Section 1,,
Start wavelength (nm):,900,,
End wavelength (nm):,1700,,
Pattern Pixel Width (nm):,   7.03,,,,
Exposure (ms):,  0.635,,,,
Digital Resolution:,228,,
Num Repeats:,6,,
PGA Gain:,64,,
Total Measurement Time in sec:,  2.677,,
Wavelength (nm),Absorbance (AU),Reference Signal (unitless),Sample Signal (unitless)
901.51,0.034714,108485,100151
905.376,0.039927,121306,110651
909.237,0.040128,131909,120267
913.095,0.041412,143299,130266
916.948,0.044287,156982,141763
922.079,0.046641,179937,161614
925.923,0.046308,200504,180225
929.762,0.047382,222660,199646
933.597,0.047916,244426,218893
937.427,0.046806,263972,237002
941.254,0.046958,281845,252960
945.076,0.045788,297271,267525
950.165,0.046084,315605,283831
953.978,0.045809,328029,295191
957.786,0.046074,340470,306200
961.59,0.045770,352317,317076
965.389,0.046552,363056,326153
969.185,0.046777,373162,335058
972.976,0.047015,382632,343373
976.763,0.047293,391202,350839
981.806,0.048240,400190,358118
985.583,0.048528,406088,363155
989.355,0.049202,410162,366230
993.124,0.050091,412868,367892
996.888,0.050655,414263,368656
1000.65,0.051380,415476,369119
1004.4,0.052106,415479,368505
1009.41,0.053672,414358,366188
1013.15,0.053865,412923,364757
1016.89,0.055126,411526,362469
1020.63,0.054652,409066,360696
1024.36,0.054772,406777,358579
1028.09,0.054106,404427,357054
1031.82,0.053801,401911,355082
1036.78,0.053985,398410,351840
1040.49,0.053272,396204,350467
1044.2,0.053237,394236,348754
1047.91,0.052559,392042,347355
1051.61,0.051823,389823,345975
1055.31,0.051412,388234,344891
1059,0.051365,387599,344364
1063.92,0.049966,386688,344663
1067.61,0.049291,386598,345119
1071.29,0.048982,387377,346060
1074.96,0.048129,388536,347778
1078.63,0.048334,389855,348794
1082.3,0.047061,391215,351038
1085.96,0.046699,393215,353127
1090.84,0.045650,396270,356731
1094.49,0.045680,398760,358948
1098.14,0.044578,400987,361870
1101.79,0.044645,403477,364061
1105.43,0.044175,406116,366839
1109.06,0.044027,407701,368396
1112.7,0.043621,409859,370692
1117.53,0.044001,412494,372749
1121.15,0.045290,414909,373820
1124.77,0.045300,416559,375298
1128.38,0.046774,418532,375798
1131.99,0.047985,419956,376027
1135.6,0.049887,421946,376158
1139.2,0.051241,423881,376706
1143.99,0.054445,426786,376500
1147.58,0.054599,428617,377981
1151.17,0.056548,431169,378529
1154.75,0.058077,433579,379307
1158.33,0.059698,436264,380234
1161.91,0.061484,439132,381163
1165.48,0.064276,442389,381530
1169.04,0.066549,446101,382723
1173.79,0.070391,451929,384308
1177.34,0.072535,456026,385882
1180.9,0.074784,461306,388334
1184.44,0.076535,467657,392096
1187.99,0.077112,473969,396861
1191.52,0.077732,479856,401217
1195.06,0.077639,487372,407588
1199.76,0.076418,497347,417101
1203.29,0.075219,504311,424111
1206.81,0.074359,511507,431015
1210.33,0.073540,519078,438220
1213.84,0.072909,527163,445693
1217.35,0.072377,534208,452203
1220.85,0.071178,540472,458770
1225.51,0.070839,549929,467162
1229.01,0.069870,556888,474131
1232.5,0.069118,562180,479466
1235.98,0.068407,567975,485202
1239.46,0.067322,574815,492273
1242.94,0.066297,582782,500275
1246.41,0.066166,591476,507892
1251.03,0.066068,604016,518777
1254.5,0.066392,612289,525490
1257.96,0.066264,619125,531514
1261.41,0.067093,624551,535149
1264.86,0.067474,629900,539259
1268.31,0.068134,634345,542240
1271.75,0.068819,638574,544995
1276.33,0.069338,642499,547690
1279.76,0.069489,645905,550401
1283.19,0.068687,648307,553469
1286.61,0.068151,650446,555982
1290.03,0.068180,652132,557385
1293.44,0.067468,653907,559819
1296.85,0.067300,655963,561797
1301.39,0.066836,657349,563586
1304.8,0.067004,657558,563547
1308.19,0.067610,658515,563580
1311.58,0.067546,658804,563910
1314.97,0.068073,659011,563404
1318.36,0.068410,658272,562335
1321.73,0.068652,658022,561809
1326.23,0.070023,657870,559908
1329.6,0.070663,656482,557904
1332.97,0.071482,654926,555533
1336.33,0.073313,653727,552184
1339.69,0.074847,652497,549201
1343.04,0.076638,649913,544775
1346.39,0.078713,647671,540308
1349.73,0.081059,645338,535462
1354.18,0.084146,641175,528239
1357.52,0.086518,638376,523069
1360.85,0.088754,635805,518286
1364.17,0.091070,633413,513591
1367.49,0.093266,631026,509074
1370.81,0.095799,628050,503727
1374.12,0.098393,625034,498323
1378.54,0.101771,620272,490694
1381.84,0.105041,616892,484360
1385.14,0.109336,613613,477044
1388.43,0.113778,611526,470584
1391.72,0.118739,610663,464582
1395.01,0.123615,610634,459374
1398.29,0.129017,611700,454487
1402.66,0.136322,614051,448624
1405.93,0.142631,616268,443750
1409.2,0.148231,617795,439151
1412.46,0.153648,618872,434463
1415.72,0.158066,619795,430707
1418.98,0.162227,620495,427082
1422.23,0.166272,621087,423526
1426.56,0.170678,621375,419446
1429.8,0.173677,621616,416721
1433.04,0.175904,622129,414932
1436.27,0.178523,621526,412037
1439.5,0.180622,621113,409778
1442.72,0.183532,620921,406916
1445.94,0.185684,620270,404480
1450.23,0.189567,618860,399968
1453.44,0.191911,617697,397068
1456.64,0.194854,616264,393471
1459.85,0.198235,614413,389247
1463.04,0.200972,612307,385476
1466.24,0.204526,610032,380914
1469.43,0.207891,607345,376309
1473.67,0.213152,603789,369601
1476.85,0.218966,601175,363107
1480.02,0.225176,597737,355905
1483.19,0.231731,594479,348663
1486.36,0.237436,591232,342233
1489.52,0.242424,587853,336391
1492.68,0.245910,583875,331444
1496.89,0.249085,578062,325754
1500.03,0.249085,574159,323554
1503.18,0.249256,570285,321245
1506.32,0.248091,565444,319373
1509.45,0.246794,560571,317568
1512.58,0.245407,555821,315884
1515.71,0.242733,550344,314703
1519.87,0.240020,543983,313015
1522.99,0.237522,538764,311800
1526.1,0.234860,533692,310764
1529.21,0.231208,527902,309988
1532.32,0.228130,521886,308635
1535.42,0.225420,515888,306998
1538.51,0.222000,509987,305886
1541.6,0.219408,503936,304066
1545.72,0.214717,494694,301731
1548.8,0.211033,488378,300416
1551.88,0.208687,481832,297995
1554.95,0.206735,474989,295086
1558.02,0.204583,467818,292075
1561.08,0.203594,460730,288305
1564.15,0.202985,454170,284599
1568.22,0.201539,444181,279268
1571.27,0.201071,436947,275016
1574.32,0.199960,429598,271083
1577.36,0.198477,422039,267224
1580.4,0.196420,414375,263617
1583.43,0.195690,406354,258949
1586.46,0.193759,398475,255060
1590.49,0.191621,388982,250212
1593.51,0.189339,380708,246180
1596.53,0.186710,372727,242483
1599.54,0.184663,365060,238617
1602.55,0.181987,357543,235148
1605.55,0.179782,349495,231025
1608.55,0.177771,341154,226558
1612.54,0.175294,330877,220990
1615.53,0.173632,322904,216492
1618.51,0.172633,315116,211757
1621.49,0.171544,307217,206967
1624.47,0.169946,299481,202499
1627.44,0.168122,292112,198348
1630.41,0.167967,284245,193075
1634.36,0.166027,274079,187003
1637.32,0.164624,266916,182705
1640.27,0.165366,259612,177402
1643.22,0.163838,251804,172673
1646.16,0.162979,244348,167892
1649.1,0.161816,236703,163075
1652.04,0.161413,228171,157343
1655.95,0.158499,215408,149542
1658.88,0.155153,204937,143373
1661.8,0.152820,193395,136027
1664.72,0.145017,179728,128706
1667.63,0.135141,163642,119882
1670.54,0.124496,146312,109846
1673.44,0.112699,128451,99092
1677.31,0.097903,105080,83872
1680.21,0.090695,88906,72150
1683.1,0.090649,75033,60898
1685.99,0.091930,63520,51402
1688.87,0.101157,53714,42553
1691.75,0.101637,45653,36127
1694.62,0.111131,39137,30301
1697.49,0.107729,33776,26356
1701.31,0.119227,28175,21411