File: samples/wool/wool-000811/Column 1_050543_20150331_115638.csv
Method:,Column 1,,
Host Date-Time:,31/3/15 @ 11:56:38,,
Header Version:,1,,
System Temp (C):,32.67,,
Detector Temp (C):,31.07,,
Humidity (%):,2.74,,
Lamp PD:,3823,,
Shift Vector Coefficients:,-10.5391,0.0761263,-0.000134223,,
Pixel to Wavelength Coefficients:,1775.68,-0.916766,-0.000235065,,
Serial Number:,5510004,,
Scan Config Name:,Column 1,,
Scan Config Type:,Slew,,
Section 1,,
Start wavelength (nm):,900,,
End wavelength (nm):,1700,,
Pattern Pixel Width (nm):,   7.03,,,,
Exposure (ms):,  0.635,,,,
Digital Resolution:,228,,
Num Repeats:,6,,
PGA Gain:,64,,
Total Measurement Time in sec:,  2.720,,
Wavelength (nm),Absorbance (AU),Reference Signal (unitless),Sample Signal (unitless)
901.51,0.044126,108485,98004
905.376,0.051038,121306,107856
909.237,0.052456,131909,116901
913.095,0.052491,143299,126985
916.948,0.052095,156982,139237
922.079,0.052681,179937,159382
925.923,0.053047,200504,177450
929.762,0.053480,222660,196862
933.597,0.053806,244426,215944
937.427,0.054012,263972,233102
941.254,0.053515,281845,249170
945.076,0.054477,297271,262226
950.165,0.053467,315605,279047
953.978,0.053565,328029,289966
957.786,0.054298,340470,300456
961.59,0.053993,352317,311129
965.389,0.054748,363056,320056
969.185,0.054976,373162,328792
972.976,0.055322,382632,336868
976.763,0.056371,391202,343582
981.806,0.057275,400190,350745
985.583,0.057790,406088,355492
989.355,0.058326,410162,358616
993.124,0.058426,412868,360899
996.888,0.059370,414263,361332
1000.65,0.059917,415476,361934
1004.4,0.061307,415479,360780
1009.41,0.062630,414358,358712
1013.15,0.062542,412923,357542
1016.89,0.063206,411526,355788
1020.63,0.063292,409066,353591
1024.36,0.063177,406777,351706
1028.09,0.062930,404427,349873
1031.82,0.062385,401911,348133
1036.78,0.062195,398410,345251
1040.49,0.061020,396204,344270
1044.2,0.060973,394236,342597
1047.91,0.060069,392042,341400
1051.61,0.059721,389823,339740
1055.31,0.059034,388234,338891
1059,0.058482,387599,338767
1063.92,0.057153,386688,339006
1067.61,0.056297,386598,339596
1071.29,0.055456,387377,340940
1074.96,0.055175,388536,342181
1078.63,0.054820,389855,343624
1082.3,0.052702,391215,346508
1085.96,0.052673,393215,348303
1090.84,0.051630,396270,351853
1094.49,0.050953,398760,354616
1098.14,0.050990,400987,356566
1101.79,0.050323,403477,359332
1105.43,0.050773,406116,361308
1109.06,0.049835,407701,363502
1112.7,0.050242,409859,365084
1117.53,0.050268,412494,367409
1121.15,0.051055,414909,368891
1124.77,0.051563,416559,369925
1128.38,0.052980,418532,370466
1131.99,0.054507,419956,370422
1135.6,0.056648,421946,370347
1139.2,0.058806,423881,370201
1143.99,0.061259,426786,370639
1147.58,0.062334,428617,371309
1151.17,0.064122,431169,371985
1154.75,0.065141,433579,373188
1158.33,0.067501,436264,373464
1161.91,0.070181,439132,373606
1165.48,0.073035,442389,373912
1169.04,0.075573,446101,374852
1173.79,0.080563,451929,375411
1177.34,0.082934,456026,376752
1180.9,0.085408,461306,378949
1184.44,0.087711,467657,382135
1187.99,0.088153,473969,386898
1191.52,0.087578,479856,392223
1195.06,0.086874,487372,399013
1199.76,0.085949,497347,408047
1203.29,0.084281,504311,415353
1206.81,0.083058,511507,422468
1210.33,0.082038,519078,429729
1213.84,0.081173,527163,437292
1217.35,0.079654,534208,444689
1220.85,0.078492,540472,451109
1225.51,0.077461,549929,460093
1229.01,0.076450,556888,467001
1232.5,0.075554,562180,472412
1235.98,0.074915,567975,477985
1239.46,0.073715,574815,485080
1242.94,0.072510,582782,493169
1246.41,0.071749,591476,501404
1251.03,0.071519,604016,512306
1254.5,0.071300,612289,519585
1257.96,0.071777,619125,524809
1261.41,0.072488,624551,528542
1264.86,0.072957,629900,532494
1268.31,0.073786,634345,535229
1271.75,0.074545,638574,537856
1276.33,0.074830,642499,540807
1279.76,0.074808,645905,543702
1283.19,0.074059,648307,546666
1286.61,0.073820,650446,548771
1290.03,0.073129,652132,551070
1293.44,0.072602,653907,553241
1296.85,0.072464,655963,555156
1301.39,0.072209,657349,556656
1304.8,0.072249,657558,556782
1308.19,0.072777,658515,556915
1311.58,0.072763,658804,557177
1314.97,0.073573,659011,556313
1318.36,0.073946,658272,555213
1321.73,0.074409,658022,554410
1326.23,0.075410,657870,553006
1329.6,0.076364,656482,550629
1332.97,0.077442,654926,547962
1336.33,0.078642,653727,545449
1339.69,0.080528,652497,542064
1343.04,0.082631,649913,537309
1346.39,0.084900,647671,532665
1349.73,0.087548,645338,527520
1354.18,0.091221,641175,519703
1357.52,0.093936,638376,514210
1360.85,0.096351,635805,509299
1364.17,0.098425,633413,504966
1367.49,0.101160,631026,499905
1370.81,0.103593,628050,494767
1374.12,0.106536,625034,489066
1378.54,0.110324,620272,481125
1381.84,0.114391,616892,474043
1385.14,0.118957,613613,466592
1388.43,0.124252,611526,459370
1391.72,0.129909,610663,452786
1395.01,0.135257,610634,447223
1398.29,0.141672,611700,441435
1402.66,0.150037,614051,434678
1405.93,0.156855,616268,429452
1409.2,0.163064,617795,424405
1412.46,0.168730,618872,419634
1415.72,0.174240,619795,414962
1418.98,0.179168,620495,410743
1422.23,0.183506,621087,407049
1426.56,0.187890,621375,403147
1429.8,0.190726,621616,400679
1433.04,0.193664,622129,398306
1436.27,0.196201,621526,395602
1439.5,0.198092,621113,393621
1442.72,0.200967,620921,390903
1445.94,0.203070,620270,388607
1450.23,0.207277,618860,383986
1453.44,0.210536,617697,380399
1456.64,0.213307,616264,377103
1459.85,0.216067,614413,373588
1463.04,0.218533,612307,370200
1466.24,0.221968,610032,365919
1469.43,0.225187,607345,361617
1473.67,0.229796,603789,355704
1476.85,0.235319,601175,349689
1480.02,0.240705,597737,343404
1483.19,0.247304,594479,336382
1486.36,0.253644,591232,329696
1489.52,0.258505,587853,324163
1492.68,0.261965,583875,319415
1496.89,0.264923,578062,314088
1500.03,0.265616,574159,311470
1503.18,0.266334,570285,308857
1506.32,0.265158,565444,307066
1509.45,0.265177,560571,304406
1512.58,0.263930,555821,302695
1515.71,0.260765,550344,301904
1519.87,0.257734,543983,300505
1522.99,0.255174,538764,299381
1526.1,0.252114,533692,298660
1529.21,0.248467,527902,297911
1532.32,0.246288,521886,295997
1535.42,0.243038,515888,294793
1538.51,0.239694,509987,293674
1541.6,0.235982,503936,292680
1545.72,0.230984,494694,290638
1548.8,0.227243,488378,289410
1551.88,0.225023,481832,286994
1554.95,0.223249,474989,284076
1558.02,0.221077,467818,281190
1561.08,0.219281,460730,278077
1564.15,0.218698,454170,274486
1568.22,0.217428,444181,269235
1571.27,0.216508,436947,265412
1574.32,0.215557,429598,261520
1577.36,0.214174,422039,257738
1580.4,0.212804,414375,253857
1583.43,0.209998,406354,250557
1586.46,0.209078,398475,246220
1590.49,0.206181,388982,241963
1593.51,0.203678,380708,238185
1596.53,0.201544,372727,234340
1599.54,0.199258,365060,230731
1602.55,0.196188,357543,227583
1605.55,0.194299,349495,223430
1608.55,0.191880,341154,219316
1612.54,0.189293,330877,213980
1615.53,0.187268,322904,209800
1618.51,0.185116,315116,205757
1621.49,0.182961,307217,201597
1624.47,0.182775,299481,196605
1627.44,0.181189,292112,192469
1630.41,0.179965,284245,187814
1634.36,0.177897,274079,181961
1637.32,0.177850,266916,177225
1640.27,0.176176,259612,173041
1643.22,0.174826,251804,168359
1646.16,0.173854,244348,163740
1649.1,0.173017,236703,158923
1652.04,0.172914,228171,153231
1655.95,0.170721,215408,145392
1658.88,0.168062,204937,139174
1661.8,0.165908,193395,131989
1664.72,0.162028,179728,123762
1667.63,0.156442,163642,114144
1670.54,0.149706,146312,103651
1673.44,0.143282,128451,92354
1677.31,0.138103,105080,76457
1680.21,0.137597,88906,64764
1683.1,0.137861,75033,54625
1685.99,0.140909,63520,45920
1688.87,0.151437,53714,37901
1691.75,0.150818,45653,32259
1694.62,0.162367,39137,26929
1697.49,0.156064,33776,23580
1701.31,0.152958,28175,19811