File: samples/wool/wool-000811/Column 1_050618_20150331_123220.csv
Method:,Column 1,,
Host Date-Time:,31/3/15 @ 12:32:20,,
Header Version:,1,,
System Temp (C):,34.14,,
Detector Temp (C):,35.01,,
Humidity (%):,1.66,,
Lamp PD:,3818,,
Shift Vector Coefficients:,-10.5391,0.0761263,-0.000134223,,
Pixel to Wavelength Coefficients:,1775.68,-0.916766,-0.000235065,,
Serial Number:,5510004,,
Scan Config Name:,Column 1,,
Scan Config Type:,Slew,,
Section 1,,
Start wavelength (nm):,900,,
End wavelength (nm):,1700,,
Pattern Pixel Width (nm):,   7.03,,,,
Exposure (ms):,  0.635,,,,
Digital Resolution:,228,,
Num Repeats:,6,,
PGA Gain:,64,,
Total Measurement Time in sec:,  2.727,,
Wavelength (nm),Absorbance (AU),Reference Signal (unitless),Sample Signal (unitless)
901.51,0.069834,108485,92371
905.376,0.073247,121306,102479
909.237,0.075946,131909,110746
913.095,0.077515,143299,119875
916.948,0.078837,156982,130922
922.079,0.080351,179937,149544
925.923,0.082101,200504,165967
929.762,0.082433,222660,184166
933.597,0.082897,244426,201953
937.427,0.079728,263972,219700
941.254,0.079699,281845,234591
945.076,0.078920,297271,247875
950.165,0.077492,315605,264029
953.978,0.077805,328029,274225
957.786,0.077341,340470,284930
961.59,0.077143,352317,294979
965.389,0.077549,363056,303686
969.185,0.076936,373162,312580
972.976,0.078064,382632,319681
976.763,0.077543,391202,327234
981.806,0.078796,400190,333788
985.583,0.079542,406088,338126
989.355,0.079979,410162,341174
993.124,0.079742,412868,343613
996.888,0.080727,414263,343993
1000.65,0.081057,415476,344738
1004.4,0.082663,415479,343468
1009.41,0.083444,414358,341926
1013.15,0.084315,412923,340059
1016.89,0.084336,411526,338892
1020.63,0.083946,409066,337169
1024.36,0.084360,406777,334963
1028.09,0.084165,404427,333177
1031.82,0.083776,401911,331401
1036.78,0.083698,398410,328573
1040.49,0.083639,396204,326798
1044.2,0.083475,394236,325298
1047.91,0.083393,392042,323549
1051.61,0.082338,389823,322500
1055.31,0.082576,388234,321009
1059,0.082112,387599,320827
1063.92,0.081034,386688,320868
1067.61,0.080412,386598,321253
1071.29,0.079603,387377,322501
1074.96,0.079336,388536,323665
1078.63,0.079050,389855,324977
1082.3,0.077951,391215,326937
1085.96,0.077366,393215,329052
1090.84,0.076739,396270,332087
1094.49,0.075560,398760,335082
1098.14,0.075321,400987,337139
1101.79,0.074424,403477,339934
1105.43,0.074614,406116,342008
1109.06,0.073815,407701,343975
1112.7,0.073708,409859,345881
1117.53,0.072820,412494,348817
1121.15,0.073585,414909,350242
1124.77,0.073856,416559,351415
1128.38,0.074571,418532,352499
1131.99,0.075240,419956,353154
1135.6,0.076704,421946,353633
1139.2,0.078172,423881,354056
1143.99,0.080484,426786,354590
1147.58,0.080782,428617,355867
1151.17,0.082215,431169,356806
1154.75,0.082829,433579,358294
1158.33,0.083918,436264,359610
1161.91,0.085936,439132,360296
1165.48,0.087704,442389,361493
1169.04,0.090086,446101,362533
1173.79,0.093727,451929,364203
1177.34,0.096465,456026,365195
1180.9,0.097757,461306,368326
1184.44,0.099682,467657,371745
1187.99,0.100724,473969,375860
1191.52,0.100302,479856,380898
1195.06,0.100410,487372,386768
1199.76,0.099813,497347,395227
1203.29,0.099847,504311,400730
1206.81,0.098872,511507,407361
1210.33,0.098180,519078,414050
1213.84,0.097790,527163,420877
1217.35,0.097539,534208,426748
1220.85,0.096331,540472,432954
1225.51,0.095560,549929,441313
1229.01,0.095279,556888,447187
1232.5,0.094880,562180,451851
1235.98,0.093911,567975,457529
1239.46,0.092948,574815,464066
1242.94,0.091752,582782,471796
1246.41,0.091549,591476,479058
1251.03,0.091461,604016,489314
1254.5,0.091480,612289,495994
1257.96,0.092018,619125,500911
1261.41,0.092463,624551,504783
1264.86,0.092745,629900,508776
1268.31,0.093743,634345,511190
1271.75,0.094238,638574,514012
1276.33,0.094112,642499,517321
1279.76,0.093951,645905,520257
1283.19,0.093582,648307,522635
1286.61,0.093110,650446,524930
1290.03,0.092726,652132,526756
1293.44,0.092528,653907,528431
1296.85,0.092540,655963,530078
1301.39,0.091872,657349,532015
1304.8,0.092253,657558,531718
1308.19,0.091576,658515,533322
1311.58,0.091860,658804,533207
1314.97,0.092700,659011,532344
1318.36,0.093021,658272,531355
1321.73,0.093591,658022,530456
1326.23,0.093571,657870,530358
1329.6,0.094893,656482,527630
1332.97,0.095440,654926,525717
1336.33,0.096217,653727,523817
1339.69,0.097612,652497,521154
1343.04,0.098944,649913,517501
1346.39,0.101163,647671,513087
1349.73,0.103221,645338,508823
1354.18,0.105949,641175,502375
1357.52,0.107975,638376,497853
1360.85,0.109799,635805,493770
1364.17,0.111745,633413,489713
1367.49,0.113738,631026,485634
1370.81,0.116469,628050,480314
1374.12,0.118330,625034,475963
1378.54,0.120836,620272,469620
1381.84,0.124002,616892,463668
1385.14,0.126863,613613,458175
1388.43,0.130137,611526,453187
1391.72,0.134333,610663,448197
1395.01,0.138108,610634,444297
1398.29,0.142424,611700,440671
1402.66,0.148484,614051,436235
1405.93,0.153208,616268,433074
1409.2,0.157939,617795,429443
1412.46,0.161945,618872,426242
1415.72,0.165606,619795,423294
1418.98,0.169264,620495,420218
1422.23,0.172322,621087,417667
1426.56,0.176512,621375,413849
1429.8,0.178683,621616,411945
1433.04,0.180958,622129,410131
1436.27,0.183349,621526,407484
1439.5,0.184713,621113,405936
1442.72,0.187362,620921,403343
1445.94,0.190126,620270,400364
1450.23,0.193268,618860,396574
1453.44,0.196348,617697,393032
1456.64,0.200085,616264,388760
1459.85,0.202493,614413,385449
1463.04,0.205203,612307,381739
1466.24,0.208264,610032,377649
1469.43,0.212597,607345,372253
1473.67,0.219301,603789,364405
1476.85,0.224841,601175,358228
1480.02,0.230910,597737,351237
1483.19,0.237930,594479,343721
1486.36,0.243417,591232,337552
1489.52,0.247938,587853,332147
1492.68,0.252346,583875,326568
1496.89,0.254449,578062,321755
1500.03,0.254601,574159,319471
1503.18,0.253853,570285,317862
1506.32,0.254116,565444,314973
1509.45,0.252334,560571,313543
1512.58,0.250449,555821,312238
1515.71,0.248462,550344,310579
1519.87,0.244981,543983,309460
1522.99,0.242866,538764,307987
1526.1,0.240176,533692,306983
1529.21,0.237720,527902,305375
1532.32,0.234915,521886,303851
1535.42,0.231964,515888,302407
1538.51,0.229379,509987,300732
1541.6,0.225201,503936,300037
1545.72,0.221430,494694,297103
1548.8,0.219025,488378,294938
1551.88,0.216130,481832,292931
1554.95,0.214644,474989,289761
1558.02,0.212352,467818,286896
1561.08,0.211932,460730,282823
1564.15,0.210849,454170,279492
1568.22,0.210515,444181,273555
1571.27,0.210246,436947,269267
1574.32,0.208690,429598,265688
1577.36,0.207771,422039,261566
1580.4,0.206841,414375,257367
1583.43,0.205113,406354,253391
1586.46,0.203830,398475,249213
1590.49,0.202205,388982,244188
1593.51,0.199712,380708,240370
1596.53,0.197446,372727,236562
1599.54,0.195844,365060,232552
1602.55,0.194465,357543,228488
1605.55,0.192428,349495,224395
1608.55,0.191020,341154,219751
1612.54,0.188622,330877,214311
1615.53,0.186939,322904,209959
1618.51,0.185257,315116,205690
1621.49,0.184675,307217,200803
1624.47,0.183292,299481,196371
1627.44,0.182703,292112,191799
1630.41,0.181526,284245,187140
1634.36,0.180236,274079,180984
1637.32,0.180751,266916,176045
1640.27,0.179810,259612,171599
1643.22,0.177769,251804,167222
1646.16,0.178783,244348,161892
1649.1,0.177229,236703,157389
1652.04,0.175809,228171,152213
1655.95,0.172526,215408,144789
1658.88,0.167610,204937,139319
1661.8,0.162744,193395,132954
1664.72,0.154214,179728,126009
1667.63,0.143140,163642,117694
1670.54,0.127834,146312,109005
1673.44,0.111911,128451,99272
1677.31,0.091585,105080,85101
1680.21,0.077049,88906,74453
1683.1,0.071495,75033,63644
1685.99,0.073608,63520,53617
1688.87,0.077928,53714,44891
1691.75,0.080796,45653,37903
1694.62,0.086489,39137,32070
1697.49,0.092589,33776,27291
1701.31,0.095544,28175,22611