File: samples/wool/wool-000811/Column 1_050598_20150331_122244.csv
Method:,Column 1,,
Host Date-Time:,31/3/15 @ 12:22:44,,
Header Version:,1,,
System Temp (C):,33.95,,
Detector Temp (C):,34.74,,
Humidity (%):,1.76,,
Lamp PD:,3818,,
Shift Vector Coefficients:,-10.5391,0.0761263,-0.000134223,,
Pixel to Wavelength Coefficients:,1775.68,-0.916766,-0.000235065,,
Serial Number:,5510004,,
Scan Config Name:,Column 1,,
Scan Config Type:,Slew,,
Section 1,,
Start wavelength (nm):,900,,
End wavelength (nm):,1700,,
Pattern Pixel Width (nm):,   7.03,,,,
Exposure (ms):,  0.635,,,,
Digital Resolution:,228,,
Num Repeats:,6,,
PGA Gain:,64,,
Total Measurement Time in sec:,  2.690,,
Wavelength (nm),Absorbance (AU),Reference Signal (unitless),Sample Signal (unitless)
901.51,0.069331,108485,92478
905.376,0.074950,121306,102078
909.237,0.076830,131909,110521
913.095,0.078821,143299,119515
916.948,0.079083,156982,130848
922.079,0.081652,179937,149097
925.923,0.081497,200504,166198
929.762,0.081771,222660,184447
933.597,0.082300,244426,202231
937.427,0.080545,263972,219287
941.254,0.080303,281845,234265
945.076,0.079481,297271,247555
950.165,0.078825,315605,263220
953.978,0.078576,328029,273739
957.786,0.077519,340470,284813
961.59,0.078393,352317,294131
965.389,0.077947,363056,303408
969.185,0.078331,373162,311578
972.976,0.078459,382632,319391
976.763,0.079603,391202,325685
981.806,0.079100,400190,333554
985.583,0.080318,406088,337522
989.355,0.080419,410162,340829
993.124,0.080948,412868,342660
996.888,0.081499,414263,343382
1000.65,0.082226,415476,343811
1004.4,0.083399,415479,342886
1009.41,0.084986,414358,340714
1013.15,0.084985,412923,339535
1016.89,0.085777,411526,337769
1020.63,0.085980,409066,335593
1024.36,0.085445,406777,334127
1028.09,0.085393,404427,332236
1031.82,0.085358,401911,330196
1036.78,0.084301,398410,328117
1040.49,0.084608,396204,326070
1044.2,0.084485,394236,324542
1047.91,0.084092,392042,323028
1051.61,0.083858,389823,321373
1055.31,0.083118,388234,320609
1059,0.083273,387599,319970
1063.92,0.082199,386688,320009
1067.61,0.081498,386598,320451
1071.29,0.081335,387377,321217
1074.96,0.080464,388536,322825
1078.63,0.080258,389855,324075
1082.3,0.079419,391215,325834
1085.96,0.078350,393215,328307
1090.84,0.077565,396270,331456
1094.49,0.076844,398760,334093
1098.14,0.076988,400987,335848
1101.79,0.075608,403477,339009
1105.43,0.075709,406116,341147
1109.06,0.075533,407701,342617
1112.7,0.074500,409859,345251
1117.53,0.074123,412494,347772
1121.15,0.074787,414909,349274
1124.77,0.074905,416559,350567
1128.38,0.076007,418532,351335
1131.99,0.076949,419956,351767
1135.6,0.078670,421946,352036
1139.2,0.079976,423881,352588
1143.99,0.081882,426786,353450
1147.58,0.082478,428617,354480
1151.17,0.083455,431169,355789
1154.75,0.084561,433579,356868
1158.33,0.086050,436264,357849
1161.91,0.087643,439132,358882
1165.48,0.089338,442389,360136
1169.04,0.091766,446101,361133
1173.79,0.095329,451929,362862
1177.34,0.096993,456026,364751
1180.9,0.099556,461306,366803
1184.44,0.101143,467657,370497
1187.99,0.102063,473969,374703
1191.52,0.102402,479856,379061
1195.06,0.102107,487372,385260
1199.76,0.101537,497347,393661
1203.29,0.100725,504311,399920
1206.81,0.100143,511507,406171
1210.33,0.099904,519078,412409
1213.84,0.099407,527163,419313
1217.35,0.098318,534208,425983
1220.85,0.097871,540472,431422
1225.51,0.096953,549929,439900
1229.01,0.096362,556888,446073
1232.5,0.096044,562180,450642
1235.98,0.095586,567975,455767
1239.46,0.094572,574815,462334
1242.94,0.093648,582782,469741
1246.41,0.092450,591476,478065
1251.03,0.092985,604016,487600
1254.5,0.092985,612289,494278
1257.96,0.093400,619125,499319
1261.41,0.093774,624551,503262
1264.86,0.094675,629900,506520
1268.31,0.094789,634345,509961
1271.75,0.095777,638574,512194
1276.33,0.095612,642499,515538
1279.76,0.095873,645905,517959
1283.19,0.095419,648307,520429
1286.61,0.094917,650446,522750
1290.03,0.094173,652132,525004
1293.44,0.094175,653907,526431
1296.85,0.093517,655963,528886
1301.39,0.093374,657349,530178
1304.8,0.093401,657558,530314
1308.19,0.093899,658515,530477
1311.58,0.093768,658804,530870
1314.97,0.094144,659011,530577
1318.36,0.094713,658272,529289
1321.73,0.094999,658022,528739
1326.23,0.095745,657870,527710
1329.6,0.096640,656482,525512
1332.97,0.097429,654926,523315
1336.33,0.098470,653727,521106
1339.69,0.100145,652497,518124
1343.04,0.101400,649913,514583
1346.39,0.103503,647671,510331
1349.73,0.105467,645338,506198
1354.18,0.108786,641175,499104
1357.52,0.110466,638376,495006
1360.85,0.112316,635805,490917
1364.17,0.114232,633413,486917
1367.49,0.116881,631026,482132
1370.81,0.118734,628050,477815
1374.12,0.121081,625034,472958
1378.54,0.123772,620272,466455
1381.84,0.126758,616892,460735
1385.14,0.129849,613613,455036
1388.43,0.134069,611526,449103
1391.72,0.137728,610663,444707
1395.01,0.142445,610634,439882
1398.29,0.146935,611700,436117
1402.66,0.153209,614051,431515
1405.93,0.158614,616268,427716
1409.2,0.163250,617795,424223
1412.46,0.168127,618872,420217
1415.72,0.171852,619795,417250
1418.98,0.175766,620495,413973
1422.23,0.178859,621087,411428
1426.56,0.183062,621375,407654
1429.8,0.185722,621616,405322
1433.04,0.187808,622129,403713
1436.27,0.190468,621526,400859
1439.5,0.192348,621113,398862
1442.72,0.194402,620921,396857
1445.94,0.197081,620270,394003
1450.23,0.200254,618860,390246
1453.44,0.202943,617697,387108
1456.64,0.205658,616264,383803
1459.85,0.208789,614413,379902
1463.04,0.211590,612307,376166
1466.24,0.214682,610032,372109
1469.43,0.218354,607345,367351
1473.67,0.224878,603789,359755
1476.85,0.229896,601175,354083
1480.02,0.235249,597737,347745
1483.19,0.241722,594479,340733
1486.36,0.247324,591232,334529
1489.52,0.251982,587853,329069
1492.68,0.255698,583875,324057
1496.89,0.258230,578062,318966
1500.03,0.258486,574159,316626
1503.18,0.257870,570285,314936
1506.32,0.256639,565444,313149
1509.45,0.255944,560571,310947
1512.58,0.253924,555821,309750
1515.71,0.252168,550344,307940
1519.87,0.249195,543983,306472
1522.99,0.245832,538764,305891
1526.1,0.243444,533692,304682
1529.21,0.240403,527902,303494
1532.32,0.237938,521886,301743
1535.42,0.235915,515888,299668
1538.51,0.232773,509987,298391
1541.6,0.229603,503936,297011
1545.72,0.225325,494694,294450
1548.8,0.222146,488378,292826
1551.88,0.219696,481832,290536
1554.95,0.218366,474989,287288
1558.02,0.217331,467818,283626
1561.08,0.215786,460730,280324
1564.15,0.214952,454170,276864
1568.22,0.214043,444181,271342
1571.27,0.214015,436947,266940
1574.32,0.212221,429598,263537
1577.36,0.211488,422039,259337
1580.4,0.209272,414375,255930
1583.43,0.208161,406354,251619
1586.46,0.206898,398475,247459
1590.49,0.205422,388982,242386
1593.51,0.202710,380708,238716
1596.53,0.201746,372727,234231
1599.54,0.199573,365060,230564
1602.55,0.197117,357543,227097
1605.55,0.195348,349495,222891
1608.55,0.193400,341154,218550
1612.54,0.191997,330877,212652
1615.53,0.190290,322904,208345
1618.51,0.188215,315116,204294
1621.49,0.188896,307217,198861
1624.47,0.187066,299481,194672
1627.44,0.185253,292112,190676
1630.41,0.184418,284245,185898
1634.36,0.183661,274079,179562
1637.32,0.182707,266916,175254
1640.27,0.182654,259612,170479
1643.22,0.181214,251804,165901
1646.16,0.181008,244348,161065
1649.1,0.178680,236703,156864
1652.04,0.178559,228171,151252
1655.95,0.174529,215408,144123
1658.88,0.170337,204937,138447
1661.8,0.164767,193395,132336
1664.72,0.158882,179728,124662
1667.63,0.145097,163642,117165
1670.54,0.132186,146312,107918
1673.44,0.115954,128451,98352
1677.31,0.096105,105080,84220
1680.21,0.085299,88906,73052
1683.1,0.078969,75033,62558
1685.99,0.080096,63520,52822
1688.87,0.083890,53714,44279
1691.75,0.087028,45653,37363
1694.62,0.090707,39137,31760
1697.49,0.097663,33776,26974
1701.31,0.095736,28175,22601