File: samples/wool/wool-000811/Column 1_050544_20150331_115652.csv
Method:,Column 1,,
Host Date-Time:,31/3/15 @ 11:56:52,,
Header Version:,1,,
System Temp (C):,32.75,,
Detector Temp (C):,31.07,,
Humidity (%):,2.69,,
Lamp PD:,3824,,
Shift Vector Coefficients:,-10.5391,0.0761263,-0.000134223,,
Pixel to Wavelength Coefficients:,1775.68,-0.916766,-0.000235065,,
Serial Number:,5510004,,
Scan Config Name:,Column 1,,
Scan Config Type:,Slew,,
Section 1,,
Start wavelength (nm):,900,,
End wavelength (nm):,1700,,
Pattern Pixel Width (nm):,   7.03,,,,
Exposure (ms):,  0.635,,,,
Digital Resolution:,228,,
Num Repeats:,6,,
PGA Gain:,64,,
Total Measurement Time in sec:,  2.665,,
Wavelength (nm),Absorbance (AU),Reference Signal (unitless),Sample Signal (unitless)
901.51,0.044618,108485,97893
905.376,0.050813,121306,107912
909.237,0.052374,131909,116923
913.095,0.054871,143299,126291
916.948,0.054090,156982,138599
922.079,0.053822,179937,158964
925.923,0.053917,200504,177095
929.762,0.055255,222660,196059
933.597,0.055630,244426,215039
937.427,0.054702,263972,232732
941.254,0.056497,281845,247465
945.076,0.054666,297271,262112
950.165,0.054668,315605,278276
953.978,0.054771,328029,289162
957.786,0.054790,340470,300116
961.59,0.055648,352317,309946
965.389,0.055599,363056,319429
969.185,0.055885,373162,328105
972.976,0.056738,382632,335771
976.763,0.057141,391202,342973
981.806,0.057599,400190,350483
985.583,0.058351,406088,355033
989.355,0.059242,410162,357860
993.124,0.059608,412868,359918
996.888,0.059827,414263,360952
1000.65,0.060685,415476,361294
1004.4,0.062083,415479,360136
1009.41,0.063632,414358,357885
1013.15,0.063769,412923,356533
1016.89,0.064305,411526,354889
1020.63,0.064361,409066,352722
1024.36,0.064540,406777,350604
1028.09,0.063756,404427,349208
1031.82,0.063376,401911,347339
1036.78,0.062569,398410,344954
1040.49,0.062000,396204,343494
1044.2,0.061955,394236,341823
1047.91,0.061759,392042,340074
1051.61,0.060600,389823,339053
1055.31,0.059853,388234,338252
1059,0.058877,387599,338459
1063.92,0.057528,386688,338714
1067.61,0.056625,386598,339340
1071.29,0.056101,387377,340434
1074.96,0.055433,388536,341978
1078.63,0.054519,389855,343862
1082.3,0.054247,391215,345278
1085.96,0.053305,393215,347796
1090.84,0.052392,396270,351236
1094.49,0.052293,398760,353524
1098.14,0.051805,400987,355898
1101.79,0.051823,403477,358093
1105.43,0.052103,406116,360203
1109.06,0.051048,407701,362488
1112.7,0.050475,409859,364888
1117.53,0.050686,412494,367055
1121.15,0.051855,414909,368212
1124.77,0.052676,416559,368978
1128.38,0.053790,418532,369776
1131.99,0.055497,419956,369579
1135.6,0.057274,421946,369814
1139.2,0.059613,423881,369514
1143.99,0.062188,426786,369847
1147.58,0.063158,428617,370605
1151.17,0.064460,431169,371696
1154.75,0.066008,433579,372443
1158.33,0.067788,436264,373217
1161.91,0.070439,439132,373384
1165.48,0.073368,442389,373625
1169.04,0.076495,446101,374057
1173.79,0.081002,451929,375032
1177.34,0.083720,456026,376071
1180.9,0.086051,461306,378389
1184.44,0.088012,467657,381870
1187.99,0.089201,473969,385966
1191.52,0.088358,479856,391519
1195.06,0.087584,487372,398361
1199.76,0.086698,497347,407344
1203.29,0.085562,504311,414130
1206.81,0.083929,511507,421621
1210.33,0.082239,519078,429530
1213.84,0.081414,527163,437050
1217.35,0.080142,534208,444190
1220.85,0.078931,540472,450653
1225.51,0.078070,549929,459448
1229.01,0.077419,556888,465960
1232.5,0.075999,562180,471929
1235.98,0.075594,567975,477238
1239.46,0.074571,574815,484124
1242.94,0.073103,582782,492496
1246.41,0.072775,591476,500221
1251.03,0.072259,604016,511434
1254.5,0.071995,612289,518754
1257.96,0.072253,619125,524234
1261.41,0.072570,624551,528443
1264.86,0.073697,629900,531587
1268.31,0.074414,634345,534455
1271.75,0.074930,638574,537380
1276.33,0.075335,642499,540179
1279.76,0.075213,645905,543195
1283.19,0.074623,648307,545956
1286.61,0.074035,650446,548499
1290.03,0.073714,652132,550328
1293.44,0.073294,653907,552360
1296.85,0.072936,655963,554554
1301.39,0.072877,657349,555801
1304.8,0.073170,657558,555602
1308.19,0.072977,658515,556658
1311.58,0.073200,658804,556617
1314.97,0.073834,659011,555979
1318.36,0.074283,658272,554782
1321.73,0.074964,658022,553703
1326.23,0.076027,657870,552221
1329.6,0.076919,656482,549926
1332.97,0.078149,654926,547070
1336.33,0.079124,653727,544844
1339.69,0.081187,652497,541242
1343.04,0.083389,649913,536372
1346.39,0.085543,647671,531877
1349.73,0.088021,645338,526946
1354.18,0.091368,641175,519528
1357.52,0.093886,638376,514269
1360.85,0.096401,635805,509241
1364.17,0.098881,633413,504436
1367.49,0.101587,631026,499413
1370.81,0.104453,628050,493789
1374.12,0.107199,625034,488320
1378.54,0.111067,620272,480303
1381.84,0.114753,616892,473649
1385.14,0.119987,613613,465487
1388.43,0.124542,611526,459064
1391.72,0.130257,610663,452423
1395.01,0.136167,610634,446287
1398.29,0.142062,611700,441038
1402.66,0.150380,614051,434335
1405.93,0.156819,616268,429488
1409.2,0.163160,617795,424311
1412.46,0.168834,618872,419534
1415.72,0.174674,619795,414547
1418.98,0.178940,620495,410959
1422.23,0.183045,621087,407481
1426.56,0.187650,621375,403370
1429.8,0.191262,621616,400184
1433.04,0.194398,622129,397633
1436.27,0.195915,621526,395862
1439.5,0.198370,621113,393369
1442.72,0.201371,620921,390540
1445.94,0.203245,620270,388451
1450.23,0.207448,618860,383835
1453.44,0.210846,617697,380128
1456.64,0.213339,616264,377075
1459.85,0.216308,614413,373381
1463.04,0.218746,612307,370018
1466.24,0.221787,610032,366071
1469.43,0.224933,607345,361828
1473.67,0.230703,603789,354962
1476.85,0.235543,601175,349509
1480.02,0.241521,597737,342759
1483.19,0.247101,594479,336539
1486.36,0.254119,591232,329336
1489.52,0.258869,587853,323892
1492.68,0.263524,583875,318270
1496.89,0.265471,578062,313692
1500.03,0.266705,574159,310690
1503.18,0.266564,570285,308694
1506.32,0.265785,565444,306623
1509.45,0.264868,560571,304623
1512.58,0.263392,555821,303070
1515.71,0.261673,550344,301274
1519.87,0.257706,543983,300524
1522.99,0.254980,538764,299515
1526.1,0.252865,533692,298144
1529.21,0.249864,527902,296954
1532.32,0.246224,521886,296041
1535.42,0.243234,515888,294660
1538.51,0.239855,509987,293565
1541.6,0.236536,503936,292307
1545.72,0.231985,494694,289969
1548.8,0.227758,488378,289067
1551.88,0.224850,481832,287108
1554.95,0.223182,474989,284120
1558.02,0.220304,467818,281691
1561.08,0.219731,460730,277789
1564.15,0.218697,454170,274487
1568.22,0.217761,444181,269029
1571.27,0.216716,436947,265285
1574.32,0.215722,429598,261421
1577.36,0.214028,422039,257825
1580.4,0.213003,414375,253741
1583.43,0.210852,406354,250065
1586.46,0.208220,398475,246707
1590.49,0.206416,388982,241832
1593.51,0.204680,380708,237636
1596.53,0.201993,372727,234098
1599.54,0.199780,365060,230454
1602.55,0.196939,357543,227190
1605.55,0.194788,349495,223179
1608.55,0.191922,341154,219295
1612.54,0.190157,330877,213555
1615.53,0.187123,322904,209870
1618.51,0.186048,315116,205316
1621.49,0.184126,307217,201057
1624.47,0.183217,299481,196405
1627.44,0.181821,292112,192189
1630.41,0.180474,284245,187594
1634.36,0.178294,274079,181795
1637.32,0.177428,266916,177397
1640.27,0.175697,259612,173232
1643.22,0.175505,251804,168096
1646.16,0.173992,244348,163688
1649.1,0.173547,236703,158729
1652.04,0.172135,228171,153506
1655.95,0.171041,215408,145285
1658.88,0.167785,204937,139263
1661.8,0.167358,193395,131549
1664.72,0.162826,179728,123535
1667.63,0.157409,163642,113890
1670.54,0.151718,146312,103172
1673.44,0.143536,128451,92300
1677.31,0.136929,105080,76664
1680.21,0.134257,88906,65264
1683.1,0.136614,75033,54782
1685.99,0.142728,63520,45728
1688.87,0.145643,53714,38410
1691.75,0.148965,45653,32397
1694.62,0.150767,39137,27658
1697.49,0.158447,33776,23451
1701.31,0.169878,28175,19054