File: samples/wool/wool-000811/Column 1_050589_20150331_121810.csv
Method:,Column 1,,
Host Date-Time:,31/3/15 @ 12:18:10,,
Header Version:,1,,
System Temp (C):,33.82,,
Detector Temp (C):,34.57,,
Humidity (%):,1.86,,
Lamp PD:,3819,,
Shift Vector Coefficients:,-10.5391,0.0761263,-0.000134223,,
Pixel to Wavelength Coefficients:,1775.68,-0.916766,-0.000235065,,
Serial Number:,5510004,,
Scan Config Name:,Column 1,,
Scan Config Type:,Slew,,
Section 1,,
Start wavelength (nm):,900,,
End wavelength (nm):,1700,,
Pattern Pixel Width (nm):,   7.03,,,,
Exposure (ms):,  0.635,,,,
Digital Resolution:,228,,
Num Repeats:,6,,
PGA Gain:,64,,
Total Measurement Time in sec:,  2.676,,
Wavelength (nm),Absorbance (AU),Reference Signal (unitless),Sample Signal (unitless)
901.51,0.070257,108485,92281
905.376,0.073973,121306,102308
909.237,0.077900,131909,110249
913.095,0.079468,143299,119337
916.948,0.080000,156982,130572
922.079,0.080985,179937,149326
925.923,0.082326,200504,165881
929.762,0.083966,222660,183517
933.597,0.082637,244426,202074
937.427,0.082192,263972,218457
941.254,0.081294,281845,233731
945.076,0.080932,297271,246729
950.165,0.079685,315605,262699
953.978,0.078717,328029,273650
957.786,0.078566,340470,284127
961.59,0.079206,352317,293581
965.389,0.078938,363056,302716
969.185,0.079655,373162,310629
972.976,0.079628,382632,318532
976.763,0.080331,391202,325140
981.806,0.080219,400190,332696
985.583,0.080931,406088,337046
989.355,0.081572,410162,339925
993.124,0.082120,412868,341736
996.888,0.082797,414263,342357
1000.65,0.082637,415476,343486
1004.4,0.084409,415479,342090
1009.41,0.085339,414358,340437
1013.15,0.086336,412923,338480
1016.89,0.087257,411526,336620
1020.63,0.086232,409066,335399
1024.36,0.086564,406777,333267
1028.09,0.086367,404427,331492
1031.82,0.085913,401911,329774
1036.78,0.085988,398410,326845
1040.49,0.085436,396204,325449
1044.2,0.085310,394236,323926
1047.91,0.085876,392042,321704
1051.61,0.084664,389823,320777
1055.31,0.084226,388234,319792
1059,0.084151,387599,319324
1063.92,0.083755,386688,318864
1067.61,0.082703,386598,319563
1071.29,0.082414,387377,320420
1074.96,0.081758,388536,321865
1078.63,0.081002,389855,323520
1082.3,0.080121,391215,325308
1085.96,0.079648,393215,327327
1090.84,0.078690,396270,330599
1094.49,0.078057,398760,333161
1098.14,0.077496,400987,335455
1101.79,0.077317,403477,337677
1105.43,0.077287,406116,339909
1109.06,0.076053,407701,342207
1112.7,0.075573,409859,344399
1117.53,0.075266,412494,346858
1121.15,0.075797,414909,348462
1124.77,0.076577,416559,349220
1128.38,0.077318,418532,350276
1131.99,0.077669,419956,351184
1135.6,0.079505,421946,351360
1139.2,0.080863,423881,351869
1143.99,0.083270,426786,352322
1147.58,0.083961,428617,353271
1151.17,0.084866,431169,354635
1154.75,0.085788,433579,355861
1158.33,0.087799,436264,356410
1161.91,0.089211,439132,357589
1165.48,0.090834,442389,358897
1169.04,0.092787,446101,360285
1173.79,0.096747,451929,361679
1177.34,0.098645,456026,363366
1180.9,0.100647,461306,365883
1184.44,0.102863,467657,369032
1187.99,0.103323,473969,373617
1191.52,0.103519,479856,378087
1195.06,0.103396,487372,384118
1199.76,0.102534,497347,392758
1203.29,0.101857,504311,398879
1206.81,0.101745,511507,404675
1210.33,0.100927,519078,411439
1213.84,0.100438,527163,418318
1217.35,0.100315,534208,424029
1220.85,0.099110,540472,430193
1225.51,0.098532,549929,438303
1229.01,0.097784,556888,444615
1232.5,0.097350,562180,449289
1235.98,0.096697,567975,454603
1239.46,0.095756,574815,461076
1242.94,0.094899,582782,468390
1246.41,0.094116,591476,476235
1251.03,0.094518,604016,485882
1254.5,0.094751,612289,492272
1257.96,0.094504,619125,498052
1261.41,0.095241,624551,501565
1264.86,0.096081,629900,504883
1268.31,0.096440,634345,508026
1271.75,0.096902,638574,510869
1276.33,0.097138,642499,513729
1279.76,0.097235,645905,516337
1283.19,0.096610,648307,519004
1286.61,0.096429,650446,520934
1290.03,0.096075,652132,522710
1293.44,0.095896,653907,524348
1296.85,0.095371,655963,526633
1301.39,0.094875,657349,528349
1304.8,0.094872,657558,528521
1308.19,0.095109,658515,529001
1311.58,0.095379,658804,528904
1314.97,0.096130,659011,528156
1318.36,0.096300,658272,527358
1321.73,0.096463,658022,526960
1326.23,0.097768,657870,525257
1329.6,0.098705,656482,523019
1332.97,0.099546,654926,520770
1336.33,0.100493,653727,518685
1339.69,0.102197,652497,515682
1343.04,0.103695,649913,511871
1346.39,0.105910,647671,507510
1349.73,0.107556,645338,503769
1354.18,0.110463,641175,497180
1357.52,0.112925,638376,492211
1360.85,0.114336,635805,488639
1364.17,0.116561,633413,484313
1367.49,0.118868,631026,479931
1370.81,0.120735,628050,475619
1374.12,0.123335,625034,470510
1378.54,0.126148,620272,463910
1381.84,0.129350,616892,457993
1385.14,0.132774,613613,451981
1388.43,0.136911,611526,446174
1391.72,0.140934,610663,441436
1395.01,0.145965,610634,436331
1398.29,0.150471,611700,432581
1402.66,0.157732,614051,427044
1405.93,0.163254,616268,423171
1409.2,0.168215,617795,419401
1412.46,0.173017,618872,415512
1415.72,0.177641,619795,411725
1418.98,0.181094,620495,408926
1422.23,0.184972,621087,405677
1426.56,0.188775,621375,402327
1429.8,0.191332,621616,400120
1433.04,0.194267,622129,397753
1436.27,0.196161,621526,395638
1439.5,0.198181,621113,393541
1442.72,0.200271,620921,391530
1445.94,0.203230,620270,388464
1450.23,0.206177,618860,384960
1453.44,0.208350,617697,382319
1456.64,0.211295,616264,378854
1459.85,0.214413,614413,375014
1463.04,0.216673,612307,371789
1466.24,0.220411,610032,367233
1469.43,0.223361,607345,363140
1473.67,0.229635,603789,355836
1476.85,0.234488,601175,350359
1480.02,0.239221,597737,344579
1483.19,0.245807,594479,337543
1486.36,0.251225,591232,331538
1489.52,0.255614,587853,326328
1492.68,0.258433,583875,322023
1496.89,0.260031,578062,317646
1500.03,0.260989,574159,314806
1503.18,0.260491,570285,313041
1506.32,0.260399,565444,310449
1509.45,0.258789,560571,308917
1512.58,0.257961,555821,306884
1515.71,0.254887,550344,306018
1519.87,0.251767,543983,304662
1522.99,0.248716,538764,303866
1526.1,0.247192,533692,302064
1529.21,0.244524,527902,300628
1532.32,0.241391,521886,299354
1535.42,0.238892,515888,297621
1538.51,0.236279,509987,295992
1541.6,0.234154,503936,293915
1545.72,0.228988,494694,291977
1548.8,0.226229,488378,290086
1551.88,0.224400,481832,287406
1554.95,0.221580,474989,285170
1558.02,0.220084,467818,281834
1561.08,0.218587,460730,278522
1564.15,0.218164,454170,274824
1568.22,0.217564,444181,269151
1571.27,0.217078,436947,265064
1574.32,0.215517,429598,261544
1577.36,0.214636,422039,257464
1580.4,0.213619,414375,253381
1583.43,0.212017,406354,249395
1586.46,0.210090,398475,245647
1590.49,0.207586,388982,241181
1593.51,0.205556,380708,237157
1596.53,0.204233,372727,232894
1599.54,0.202470,365060,229031
1602.55,0.200218,357543,225481
1605.55,0.198642,349495,221207
1608.55,0.196457,341154,217017
1612.54,0.193862,330877,211741
1615.53,0.193101,322904,207001
1618.51,0.191212,315116,202889
1621.49,0.191002,307217,197899
1624.47,0.189233,299481,193703
1627.44,0.187926,292112,189506
1630.41,0.187468,284245,184597
1634.36,0.185829,274079,178668
1637.32,0.184833,266916,174398
1640.27,0.184727,259612,169667
1643.22,0.184271,251804,164737
1646.16,0.182929,244348,160354
1649.1,0.181021,236703,156021
1652.04,0.180508,228171,150575
1655.95,0.177173,215408,143248
1658.88,0.174760,204937,137044
1661.8,0.168498,193395,131204
1664.72,0.162942,179728,123502
1667.63,0.148580,163642,116229
1670.54,0.135990,146312,106977
1673.44,0.120370,128451,97357
1677.31,0.099018,105080,83657
1680.21,0.088743,88906,72475
1683.1,0.083856,75033,61858
1685.99,0.086498,63520,52049
1688.87,0.089775,53714,43683
1691.75,0.094153,45653,36755
1694.62,0.096295,39137,31354
1697.49,0.110788,33776,26171
1701.31,0.120690,28175,21339