File: samples/wool/wool-000811/Column 1_050630_20150331_123748.csv
Method:,Column 1,,
Host Date-Time:,31/3/15 @ 12:37:48,,
Header Version:,1,,
System Temp (C):,34.17,,
Detector Temp (C):,35.08,,
Humidity (%):,1.56,,
Lamp PD:,3818,,
Shift Vector Coefficients:,-10.5391,0.0761263,-0.000134223,,
Pixel to Wavelength Coefficients:,1775.68,-0.916766,-0.000235065,,
Serial Number:,5510004,,
Scan Config Name:,Column 1,,
Scan Config Type:,Slew,,
Section 1,,
Start wavelength (nm):,900,,
End wavelength (nm):,1700,,
Pattern Pixel Width (nm):,   7.03,,,,
Exposure (ms):,  0.635,,,,
Digital Resolution:,228,,
Num Repeats:,6,,
PGA Gain:,64,,
Total Measurement Time in sec:,  2.725,,
Wavelength (nm),Absorbance (AU),Reference Signal (unitless),Sample Signal (unitless)
901.51,0.070497,108485,92230
905.376,0.076950,121306,101609
909.237,0.077943,131909,110238
913.095,0.078134,143299,119704
916.948,0.079780,156982,130638
922.079,0.081194,179937,149254
925.923,0.082190,200504,165933
929.762,0.083684,222660,183636
933.597,0.082964,244426,201922
937.427,0.080773,263972,219172
941.254,0.080442,281845,234190
945.076,0.079842,297271,247349
950.165,0.078195,315605,263602
953.978,0.076843,328029,274833
957.786,0.077662,340470,284719
961.59,0.077859,352317,294493
965.389,0.077924,363056,303424
969.185,0.077232,373162,312367
972.976,0.077904,382632,319799
976.763,0.077699,391202,327116
981.806,0.078712,400190,333852
985.583,0.079408,406088,338230
989.355,0.080123,410162,341061
993.124,0.080206,412868,343246
996.888,0.080588,414263,344103
1000.65,0.081262,415476,344575
1004.4,0.082501,415479,343596
1009.41,0.083804,414358,341642
1013.15,0.083576,412923,340638
1016.89,0.084871,411526,338475
1020.63,0.084228,409066,336950
1024.36,0.084880,406777,334562
1028.09,0.084499,404427,332921
1031.82,0.084471,401911,330871
1036.78,0.083924,398410,328402
1040.49,0.083883,396204,326615
1044.2,0.083458,394236,325311
1047.91,0.083311,392042,323610
1051.61,0.083173,389823,321880
1055.31,0.082379,388234,321155
1059,0.082376,387599,320632
1063.92,0.081572,386688,320471
1067.61,0.080890,386598,320900
1071.29,0.080600,387377,321761
1074.96,0.079527,388536,323522
1078.63,0.079583,389855,324579
1082.3,0.077981,391215,326915
1085.96,0.077585,393215,328886
1090.84,0.076782,396270,332054
1094.49,0.076081,398760,334681
1098.14,0.075996,400987,336616
1101.79,0.074464,403477,339903
1105.43,0.074365,406116,342204
1109.06,0.073670,407701,344090
1112.7,0.073622,409859,345949
1117.53,0.073175,412494,348532
1121.15,0.074013,414909,349897
1124.77,0.073895,416559,351384
1128.38,0.074602,418532,352474
1131.99,0.075787,419956,352709
1135.6,0.077396,421946,353070
1139.2,0.078613,423881,353697
1143.99,0.080244,426786,354786
1147.58,0.080435,428617,356151
1151.17,0.082174,431169,356840
1154.75,0.082838,433579,358286
1158.33,0.084222,436264,359358
1161.91,0.085771,439132,360433
1165.48,0.088028,442389,361224
1169.04,0.090167,446101,362465
1173.79,0.093208,451929,364638
1177.34,0.096404,456026,365246
1180.9,0.097691,461306,368382
1184.44,0.099657,467657,371767
1187.99,0.100845,473969,375755
1191.52,0.100375,479856,380834
1195.06,0.100659,487372,386546
1199.76,0.100502,497347,394600
1203.29,0.099169,504311,401356
1206.81,0.098825,511507,407405
1210.33,0.097853,519078,414362
1213.84,0.097339,527163,421314
1217.35,0.097357,534208,426927
1220.85,0.096610,540472,432676
1225.51,0.095266,549929,441612
1229.01,0.094529,556888,447960
1232.5,0.094346,562180,452407
1235.98,0.093400,567975,458067
1239.46,0.092701,574815,464330
1242.94,0.091527,582782,472040
1246.41,0.090922,591476,479750
1251.03,0.090953,604016,489886
1254.5,0.090641,612289,496953
1257.96,0.091441,619125,501577
1261.41,0.091965,624551,505362
1264.86,0.092498,629900,509066
1268.31,0.093011,634345,512053
1271.75,0.094186,638574,514074
1276.33,0.093747,642499,517756
1279.76,0.094036,645905,520155
1283.19,0.093714,648307,522477
1286.61,0.092744,650446,525372
1290.03,0.092794,652132,526673
1293.44,0.092171,653907,528865
1296.85,0.091723,655963,531076
1301.39,0.091440,657349,532545
1304.8,0.091780,657558,532297
1308.19,0.091623,658515,533265
1311.58,0.091735,658804,533361
1314.97,0.092173,659011,532991
1318.36,0.092450,658272,532053
1321.73,0.092844,658022,531369
1326.23,0.093521,657870,530419
1329.6,0.094461,656482,528155
1332.97,0.094963,654926,526295
1336.33,0.095708,653727,524431
1339.69,0.097383,652497,521430
1343.04,0.098744,649913,517740
1346.39,0.100497,647671,513875
1349.73,0.102981,645338,509104
1354.18,0.105259,641175,503173
1357.52,0.107416,638376,498495
1360.85,0.109247,635805,494398
1364.17,0.111134,633413,490403
1367.49,0.113511,631026,485888
1370.81,0.115765,628050,481093
1374.12,0.117228,625034,477173
1378.54,0.120238,620272,470267
1381.84,0.122795,616892,464958
1385.14,0.126073,613613,459009
1388.43,0.129499,611526,453854
1391.72,0.133291,610663,449273
1395.01,0.137394,610634,445028
1398.29,0.141180,611700,441935
1402.66,0.146755,614051,437975
1405.93,0.152126,616268,434154
1409.2,0.155775,617795,431588
1412.46,0.160195,618872,427963
1415.72,0.163515,619795,425337
1418.98,0.167096,620495,422321
1422.23,0.170376,621087,419543
1426.56,0.174229,621375,416030
1429.8,0.176443,621616,414075
1433.04,0.179637,622129,411380
1436.27,0.181196,621526,409509
1439.5,0.183045,621113,407498
1442.72,0.185907,620921,404696
1445.94,0.188329,620270,402024
1450.23,0.192124,618860,397620
1453.44,0.194811,617697,394425
1456.64,0.197891,616264,390729
1459.85,0.200371,614413,387337
1463.04,0.203245,612307,383464
1466.24,0.207289,610032,378498
1469.43,0.211005,607345,373620
1473.67,0.217657,603789,365787
1476.85,0.223851,601175,359046
1480.02,0.230153,597737,351850
1483.19,0.236446,594479,344898
1486.36,0.242932,591232,337929
1489.52,0.247508,587853,332476
1492.68,0.251569,583875,327153
1496.89,0.252818,578062,322966
1500.03,0.253605,574159,320204
1503.18,0.254309,570285,317529
1506.32,0.252602,565444,316073
1509.45,0.251962,560571,313811
1512.58,0.250387,555821,312283
1515.71,0.247764,550344,311079
1519.87,0.244243,543983,309986
1522.99,0.241555,538764,308918
1526.1,0.239129,533692,307724
1529.21,0.236615,527902,306153
1532.32,0.234018,521886,304479
1535.42,0.230981,515888,303092
1538.51,0.228282,509987,301493
1541.6,0.225203,503936,300035
1545.72,0.220886,494694,297475
1548.8,0.218646,488378,295196
1551.88,0.216004,481832,293016
1554.95,0.214449,474989,289891
1558.02,0.211945,467818,287165
1561.08,0.211405,460730,283166
1564.15,0.210621,454170,279639
1568.22,0.209182,444181,274396
1571.27,0.209483,436947,269740
1574.32,0.208764,429598,265643
1577.36,0.207816,422039,261539
1580.4,0.206631,414375,257491
1583.43,0.204425,406354,253793
1586.46,0.203703,398475,249286
1590.49,0.201747,388982,244446
1593.51,0.200019,380708,240200
1596.53,0.197540,372727,236511
1599.54,0.195116,365060,232942
1602.55,0.193791,357543,228843
1605.55,0.192306,349495,224458
1608.55,0.189601,341154,220470
1612.54,0.187895,330877,214670
1615.53,0.186306,322904,210265
1618.51,0.185363,315116,205640
1621.49,0.184308,307217,200973
1624.47,0.182647,299481,196663
1627.44,0.182576,292112,191855
1630.41,0.180592,284245,187543
1634.36,0.180656,274079,180809
1637.32,0.179753,266916,176450
1640.27,0.179334,259612,171787
1643.22,0.178476,251804,166950
1646.16,0.177479,244348,162379
1649.1,0.176540,236703,157639
1652.04,0.174911,228171,152528
1655.95,0.171544,215408,145117
1658.88,0.168684,204937,138975
1661.8,0.163159,193395,132827
1664.72,0.155059,179728,125764
1667.63,0.142285,163642,117926
1670.54,0.126298,146312,109391
1673.44,0.111771,128451,99304
1677.31,0.091836,105080,85052
1680.21,0.080828,88906,73808
1683.1,0.076098,75033,62973
1685.99,0.075296,63520,53409
1688.87,0.080811,53714,44594
1691.75,0.080521,45653,37927
1694.62,0.090830,39137,31751
1697.49,0.094087,33776,27197
1701.31,0.098222,28175,22472