File: samples/wool/wool-000811/Column 1_050578_20150331_121320.csv
Method:,Column 1,,
Host Date-Time:,31/3/15 @ 12:13:20,,
Header Version:,1,,
System Temp (C):,33.82,,
Detector Temp (C):,34.65,,
Humidity (%):,2.05,,
Lamp PD:,3819,,
Shift Vector Coefficients:,-10.5391,0.0761263,-0.000134223,,
Pixel to Wavelength Coefficients:,1775.68,-0.916766,-0.000235065,,
Serial Number:,5510004,,
Scan Config Name:,Column 1,,
Scan Config Type:,Slew,,
Section 1,,
Start wavelength (nm):,900,,
End wavelength (nm):,1700,,
Pattern Pixel Width (nm):,   7.03,,,,
Exposure (ms):,  0.635,,,,
Digital Resolution:,228,,
Num Repeats:,6,,
PGA Gain:,64,,
Total Measurement Time in sec:,  2.678,,
Wavelength (nm),Absorbance (AU),Reference Signal (unitless),Sample Signal (unitless)
901.51,0.071341,108485,92051
905.376,0.076630,121306,101684
909.237,0.081726,131909,109282
913.095,0.078981,143299,119471
916.948,0.081669,156982,130071
922.079,0.082529,179937,148796
925.923,0.083233,200504,165535
929.762,0.084831,222660,183152
933.597,0.084599,244426,201163
937.427,0.083969,263972,217565
941.254,0.082666,281845,232994
945.076,0.082306,297271,245950
950.165,0.081988,315605,261310
953.978,0.080476,328029,272544
957.786,0.080967,340470,282561
961.59,0.081270,352317,292189
965.389,0.081184,363056,301155
969.185,0.081433,373162,309360
972.976,0.081662,382632,317044
976.763,0.082431,391202,323571
981.806,0.082940,400190,330618
985.583,0.083386,406088,335146
989.355,0.083421,410162,338481
993.124,0.083577,412868,340592
996.888,0.084519,414263,341002
1000.65,0.085482,415476,341243
1004.4,0.086197,415479,340684
1009.41,0.087300,414358,338903
1013.15,0.087570,412923,337520
1016.89,0.088015,411526,336033
1020.63,0.088035,409066,334009
1024.36,0.088776,406777,331574
1028.09,0.088441,404427,329913
1031.82,0.088091,401911,328125
1036.78,0.087382,398410,325798
1040.49,0.087591,396204,323838
1044.2,0.087644,394236,322190
1047.91,0.087427,392042,320557
1051.61,0.086696,389823,319280
1055.31,0.086172,388234,318362
1059,0.085931,387599,318018
1063.92,0.085260,386688,317761
1067.61,0.084641,386598,318140
1071.29,0.084061,387377,319207
1074.96,0.083736,388536,320402
1078.63,0.082896,389855,322112
1082.3,0.082653,391215,323417
1085.96,0.081931,393215,325611
1090.84,0.080802,396270,328995
1094.49,0.080279,398760,331461
1098.14,0.079588,400987,333843
1101.79,0.079366,403477,336088
1105.43,0.079159,406116,338447
1109.06,0.078438,407701,340333
1112.7,0.078079,409859,342417
1117.53,0.077407,412494,345152
1121.15,0.078554,414909,346257
1124.77,0.078703,416559,347515
1128.38,0.079171,418532,348785
1131.99,0.080153,419956,349181
1135.6,0.081991,421946,349354
1139.2,0.083088,423881,350071
1143.99,0.085408,426786,350592
1147.58,0.086274,428617,351395
1151.17,0.087626,431169,352388
1154.75,0.088319,433579,353793
1158.33,0.089657,436264,354889
1161.91,0.091517,439132,355695
1165.48,0.093968,442389,356317
1169.04,0.096177,446101,357484
1173.79,0.099271,451929,359583
1177.34,0.101342,456026,361117
1180.9,0.103458,461306,363522
1184.44,0.104299,467657,367814
1187.99,0.106167,473969,371179
1191.52,0.106356,479856,375625
1195.06,0.105938,487372,381876
1199.76,0.104988,497347,390545
1203.29,0.104118,504311,396808
1206.81,0.104273,511507,402326
1210.33,0.103245,519078,409249
1213.84,0.102734,527163,416113
1217.35,0.102372,534208,422025
1220.85,0.101377,540472,427953
1225.51,0.101107,549929,435712
1229.01,0.100767,556888,441571
1232.5,0.100147,562180,446404
1235.98,0.099327,567975,451858
1239.46,0.098213,574815,458474
1242.94,0.097352,582782,465751
1246.41,0.097104,591476,472969
1251.03,0.096806,604016,483328
1254.5,0.096852,612289,489897
1257.96,0.097111,619125,495071
1261.41,0.097897,624551,498507
1264.86,0.098002,629900,502655
1268.31,0.098684,634345,505407
1271.75,0.099098,638574,508292
1276.33,0.099560,642499,510873
1279.76,0.099863,645905,513223
1283.19,0.098766,648307,516434
1286.61,0.098670,650446,518252
1290.03,0.098381,652132,519941
1293.44,0.098128,653907,521660
1296.85,0.097678,655963,523843
1301.39,0.097534,657349,525124
1304.8,0.097694,657558,525098
1308.19,0.098057,658515,525422
1311.58,0.097789,658804,525977
1314.97,0.098881,659011,524821
1318.36,0.099067,658272,524009
1321.73,0.099432,658022,523370
1326.23,0.100524,657870,521934
1329.6,0.101197,656482,520027
1332.97,0.102186,654926,517614
1336.33,0.103486,653727,515122
1339.69,0.105450,652497,511833
1343.04,0.107031,649913,507954
1346.39,0.109304,647671,503559
1349.73,0.110770,645338,500054
1354.18,0.113887,641175,493275
1357.52,0.115770,638376,488997
1360.85,0.118252,635805,484253
1364.17,0.119972,633413,480524
1367.49,0.122268,631026,476189
1370.81,0.124875,628050,471107
1374.12,0.127117,625034,466430
1378.54,0.130215,620272,459586
1381.84,0.133433,616892,453708
1385.14,0.137323,613613,447272
1388.43,0.141821,611526,441158
1391.72,0.146575,610663,435739
1395.01,0.151330,610634,430974
1398.29,0.156800,611700,426323
1402.66,0.164499,614051,420441
1405.93,0.170758,616268,415922
1409.2,0.176818,617795,411175
1412.46,0.181732,618872,407257
1415.72,0.186480,619795,403430
1418.98,0.190295,620495,400353
1422.23,0.194048,621087,397287
1426.56,0.198701,621375,393236
1429.8,0.201717,621616,390666
1433.04,0.204008,622129,388931
1436.27,0.206472,621526,386356
1439.5,0.208389,621113,384398
1442.72,0.211115,620921,381875
1445.94,0.213463,620270,379418
1450.23,0.216604,618860,375827
1453.44,0.219062,617697,373004
1456.64,0.221544,616264,370018
1459.85,0.224094,614413,366747
1463.04,0.227103,612307,362966
1466.24,0.229569,610032,359570
1469.43,0.232717,607345,355401
1473.67,0.237697,603789,349292
1476.85,0.241993,601175,344356
1480.02,0.247268,597737,338253
1483.19,0.252286,594479,332545
1486.36,0.257530,591232,326759
1489.52,0.261309,587853,322077
1492.68,0.264062,583875,317876
1496.89,0.266029,578062,313289
1500.03,0.266578,574159,310781
1503.18,0.265699,570285,309309
1506.32,0.265602,565444,306752
1509.45,0.263460,560571,305612
1512.58,0.262968,555821,303366
1515.71,0.260351,550344,302192
1519.87,0.257728,543983,300509
1522.99,0.255331,538764,299273
1526.1,0.253331,533692,297824
1529.21,0.250732,527902,296361
1532.32,0.247895,521886,294904
1535.42,0.244289,515888,293945
1538.51,0.242368,509987,291871
1541.6,0.239311,503936,290445
1545.72,0.235284,494694,287775
1548.8,0.232215,488378,286115
1551.88,0.230254,481832,283558
1554.95,0.228084,474989,280931
1558.02,0.226227,467818,277875
1561.08,0.224680,460730,274642
1564.15,0.223796,454170,271283
1568.22,0.222306,444181,266228
1571.27,0.222386,436947,261844
1574.32,0.221478,429598,257979
1577.36,0.219769,422039,254439
1580.4,0.218588,414375,250499
1583.43,0.217051,406354,246521
1586.46,0.214772,398475,243013
1590.49,0.213595,388982,237867
1593.51,0.210634,380708,234400
1596.53,0.209035,372727,230333
1599.54,0.207068,365060,226619
1602.55,0.204942,357543,223042
1605.55,0.203290,349495,218852
1608.55,0.200643,341154,214935
1612.54,0.199001,330877,209250
1615.53,0.198053,322904,204654
1618.51,0.196644,315116,200367
1621.49,0.195841,307217,195706
1624.47,0.193811,299481,191672
1627.44,0.193132,292112,187248
1630.41,0.191931,284245,182710
1634.36,0.190806,274079,176632
1637.32,0.189296,266916,172615
1640.27,0.189070,259612,167979
1643.22,0.188872,251804,163001
1646.16,0.187799,244348,158566
1649.1,0.187442,236703,153731
1652.04,0.184672,228171,149138
1655.95,0.181380,215408,141867
1658.88,0.178711,204937,135803
1661.8,0.171554,193395,130284
1664.72,0.165814,179728,122688
1667.63,0.153001,163642,115052
1670.54,0.138571,146312,106343
1673.44,0.123652,128451,96624
1677.31,0.104519,105080,82604
1680.21,0.093854,88906,71627
1683.1,0.088295,75033,61229
1685.99,0.089437,63520,51698
1688.87,0.093710,53714,43289
1691.75,0.101854,45653,36109
1694.62,0.100344,39137,31063
1697.49,0.106823,33776,26411
1701.31,0.116880,28175,21527