File: samples/wool/wool-000811/Column 1_050606_20150331_122618.csv
Method:,Column 1,,
Host Date-Time:,31/3/15 @ 12:26:18,,
Header Version:,1,,
System Temp (C):,34.02,,
Detector Temp (C):,34.85,,
Humidity (%):,1.66,,
Lamp PD:,3818,,
Shift Vector Coefficients:,-10.5391,0.0761263,-0.000134223,,
Pixel to Wavelength Coefficients:,1775.68,-0.916766,-0.000235065,,
Serial Number:,5510004,,
Scan Config Name:,Column 1,,
Scan Config Type:,Slew,,
Section 1,,
Start wavelength (nm):,900,,
End wavelength (nm):,1700,,
Pattern Pixel Width (nm):,   7.03,,,,
Exposure (ms):,  0.635,,,,
Digital Resolution:,228,,
Num Repeats:,6,,
PGA Gain:,64,,
Total Measurement Time in sec:,  2.714,,
Wavelength (nm),Absorbance (AU),Reference Signal (unitless),Sample Signal (unitless)
901.51,0.069698,108485,92400
905.376,0.075585,121306,101929
909.237,0.077093,131909,110454
913.095,0.078026,143299,119734
916.948,0.078642,156982,130981
922.079,0.079704,179937,149767
925.923,0.082198,200504,165930
929.762,0.082428,222660,184168
933.597,0.083302,244426,201765
937.427,0.082196,263972,218455
941.254,0.080507,281845,234155
945.076,0.078673,297271,248016
950.165,0.078134,315605,263639
953.978,0.077547,328029,274388
957.786,0.077408,340470,284886
961.59,0.078198,352317,294263
965.389,0.077417,363056,303778
969.185,0.077428,373162,312226
972.976,0.078845,382632,319107
976.763,0.078446,391202,326554
981.806,0.079249,400190,333440
985.583,0.080310,406088,337528
989.355,0.079817,410162,341302
993.124,0.080103,412868,343327
996.888,0.080661,414263,344045
1000.65,0.081547,415476,344349
1004.4,0.082638,415479,343488
1009.41,0.084030,414358,341465
1013.15,0.084846,412923,339643
1016.89,0.084890,411526,338460
1020.63,0.084971,409066,336374
1024.36,0.085611,406777,333999
1028.09,0.084494,404427,332925
1031.82,0.084461,401911,330879
1036.78,0.083745,398410,328538
1040.49,0.083631,396204,326804
1044.2,0.084327,394236,324660
1047.91,0.084192,392042,322954
1051.61,0.082879,389823,322098
1055.31,0.083077,388234,320639
1059,0.082691,387599,320399
1063.92,0.082211,386688,320000
1067.61,0.081148,386598,320709
1071.29,0.080205,387377,322054
1074.96,0.080096,388536,323099
1078.63,0.079172,389855,324886
1082.3,0.078391,391215,326606
1085.96,0.077751,393215,328760
1090.84,0.077104,396270,331808
1094.49,0.076443,398760,334402
1098.14,0.075701,400987,336844
1101.79,0.075588,403477,339024
1105.43,0.075141,406116,341593
1109.06,0.073879,407701,343924
1112.7,0.073874,409859,345749
1117.53,0.073634,412494,348164
1121.15,0.074282,414909,349680
1124.77,0.074679,416559,350750
1128.38,0.075076,418532,352089
1131.99,0.076127,419956,352433
1135.6,0.077778,421946,352760
1139.2,0.078670,423881,353650
1143.99,0.080886,426786,354262
1147.58,0.081914,428617,354940
1151.17,0.082693,431169,356414
1154.75,0.083791,433579,357501
1158.33,0.084824,436264,358860
1161.91,0.087249,439132,359208
1165.48,0.089111,442389,360324
1169.04,0.091338,446101,361489
1173.79,0.094781,451929,363320
1177.34,0.096343,456026,365297
1180.9,0.098633,461306,367584
1184.44,0.100428,467657,371107
1187.99,0.101452,473969,375230
1191.52,0.101200,479856,380111
1195.06,0.101152,487372,386108
1199.76,0.100814,497347,394317
1203.29,0.099991,504311,400597
1206.81,0.099797,511507,406494
1210.33,0.099578,519078,412719
1213.84,0.098429,527163,420258
1217.35,0.097619,534208,426669
1220.85,0.096734,540472,432553
1225.51,0.096492,549929,440367
1229.01,0.095785,556888,446666
1232.5,0.094824,562180,451909
1235.98,0.094519,567975,456888
1239.46,0.093150,574815,463851
1242.94,0.092637,582782,470835
1246.41,0.091718,591476,478872
1251.03,0.091889,604016,488832
1254.5,0.092042,612289,495353
1257.96,0.092678,619125,500150
1261.41,0.092759,624551,504439
1264.86,0.093463,629900,507936
1268.31,0.093655,634345,511294
1271.75,0.094691,638574,513476
1276.33,0.094979,642499,516290
1279.76,0.094667,645905,519400
1283.19,0.094276,648307,521801
1286.61,0.093842,650446,524046
1290.03,0.093275,652132,526090
1293.44,0.092936,653907,527934
1296.85,0.092731,655963,529844
1301.39,0.092678,657349,531029
1304.8,0.092434,657558,531496
1308.19,0.092753,658515,531879
1311.58,0.092503,658804,532419
1314.97,0.093085,659011,531873
1318.36,0.093928,658272,530246
1321.73,0.094017,658022,529936
1326.23,0.094671,657870,529016
1329.6,0.095384,656482,527034
1332.97,0.096508,654926,524426
1336.33,0.097205,653727,522626
1339.69,0.098949,652497,519552
1343.04,0.100195,649913,516013
1346.39,0.101954,647671,512154
1349.73,0.104199,645338,507678
1354.18,0.107232,641175,500893
1357.52,0.108959,638376,496727
1360.85,0.110923,635805,492494
1364.17,0.113011,633413,488288
1367.49,0.115162,631026,484045
1370.81,0.117228,628050,479475
1374.12,0.119547,625034,474632
1378.54,0.122540,620272,467781
1381.84,0.125170,616892,462423
1385.14,0.128317,613613,456644
1388.43,0.132140,611526,451102
1391.72,0.135804,610663,446681
1395.01,0.140439,610634,441918
1398.29,0.145014,611700,438051
1402.66,0.150855,614051,433860
1405.93,0.155974,616268,430324
1409.2,0.160279,617795,427135
1412.46,0.165519,618872,422748
1415.72,0.169337,619795,419673
1418.98,0.172812,620495,416799
1422.23,0.175662,621087,414467
1426.56,0.179962,621375,410574
1429.8,0.182422,621616,408414
1433.04,0.184381,622129,406911
1436.27,0.187111,621526,403969
1439.5,0.188724,621113,402204
1442.72,0.191567,620921,399456
1445.94,0.193708,620270,397075
1450.23,0.197620,618860,392620
1453.44,0.199917,617697,389815
1456.64,0.203204,616264,385978
1459.85,0.205518,614413,382774
1463.04,0.208974,612307,378438
1466.24,0.211837,610032,374555
1469.43,0.215268,607345,369971
1473.67,0.221697,603789,362400
1476.85,0.227245,601175,356251
1480.02,0.233452,597737,349187
1483.19,0.239579,594479,342419
1486.36,0.245676,591232,335801
1489.52,0.250116,587853,330486
1492.68,0.253667,583875,325576
1496.89,0.255525,578062,320959
1500.03,0.256242,574159,318266
1503.18,0.255908,570285,316362
1506.32,0.255565,565444,313924
1509.45,0.253517,560571,312690
1512.58,0.252550,555821,310731
1515.71,0.250256,550344,309299
1519.87,0.248078,543983,307261
1522.99,0.244774,538764,306637
1526.1,0.242245,533692,305524
1529.21,0.239530,527902,304105
1532.32,0.236893,521886,302470
1535.42,0.233607,515888,301265
1538.51,0.230410,509987,300019
1541.6,0.228346,503936,297872
1545.72,0.224156,494694,295244
1548.8,0.220626,488378,293853
1551.88,0.219009,481832,290996
1554.95,0.217136,474989,288103
1558.02,0.215202,467818,285020
1561.08,0.214593,460730,281095
1564.15,0.213697,454170,277665
1568.22,0.212469,444181,272327
1571.27,0.211938,436947,268220
1574.32,0.210937,429598,264317
1577.36,0.210896,422039,259691
1580.4,0.207863,414375,256762
1583.43,0.207804,406354,251826
1586.46,0.205851,398475,248056
1590.49,0.204064,388982,243145
1593.51,0.202051,380708,239079
1596.53,0.199464,372727,235465
1599.54,0.198298,365060,231242
1602.55,0.195565,357543,227910
1605.55,0.194053,349495,223557
1608.55,0.192675,341154,218915
1612.54,0.190855,330877,213212
1615.53,0.188267,322904,209318
1618.51,0.187552,315116,204606
1621.49,0.186808,307217,199819
1624.47,0.184932,299481,195631
1627.44,0.184243,292112,191120
1630.41,0.183296,284245,186379
1634.36,0.182685,274079,179966
1637.32,0.182083,266916,175506
1640.27,0.181944,259612,170758
1643.22,0.179888,251804,166408
1646.16,0.179627,244348,161578
1649.1,0.178946,236703,156768
1652.04,0.176557,228171,151951
1655.95,0.173118,215408,144592
1658.88,0.169328,204937,138769
1661.8,0.164279,193395,132485
1664.72,0.156654,179728,125303
1667.63,0.145108,163642,117162
1670.54,0.130106,146312,108436
1673.44,0.115257,128451,98510
1677.31,0.095142,105080,84407
1680.21,0.082549,88906,73516
1683.1,0.078740,75033,62591
1685.99,0.079964,63520,52838
1688.87,0.081133,53714,44561
1691.75,0.084166,45653,37610
1694.62,0.089205,39137,31870
1697.49,0.091460,33776,27362
1701.31,0.113144,28175,21713