File: samples/wool/wool-000811/Column 1_050538_20150331_115409.csv
Method:,Column 1,,
Host Date-Time:,31/3/15 @ 11:54:9,,
Header Version:,1,,
System Temp (C):,31.91,,
Detector Temp (C):,30.25,,
Humidity (%):,3.36,,
Lamp PD:,3826,,
Shift Vector Coefficients:,-10.5391,0.0761263,-0.000134223,,
Pixel to Wavelength Coefficients:,1775.68,-0.916766,-0.000235065,,
Serial Number:,5510004,,
Scan Config Name:,Column 1,,
Scan Config Type:,Slew,,
Section 1,,
Start wavelength (nm):,900,,
End wavelength (nm):,1700,,
Pattern Pixel Width (nm):,   7.03,,,,
Exposure (ms):,  0.635,,,,
Digital Resolution:,228,,
Num Repeats:,6,,
PGA Gain:,64,,
Total Measurement Time in sec:,  2.730,,
Wavelength (nm),Absorbance (AU),Reference Signal (unitless),Sample Signal (unitless)
901.51,0.045009,108485,97805
905.376,0.049591,121306,108216
909.237,0.048893,131909,117864
913.095,0.050927,143299,127443
916.948,0.050666,156982,139696
922.079,0.050423,179937,160213
925.923,0.050237,200504,178602
929.762,0.052071,222660,197502
933.597,0.052096,244426,216796
937.427,0.052542,263972,233892
941.254,0.052802,281845,249579
945.076,0.052430,297271,263465
950.165,0.052705,315605,279537
953.978,0.052901,328029,290410
957.786,0.053508,340470,301003
961.59,0.054049,352317,311089
965.389,0.054204,363056,320457
969.185,0.054331,373162,329281
972.976,0.054804,382632,337270
976.763,0.055551,391202,344231
981.806,0.056306,400190,351528
985.583,0.057575,406088,355668
989.355,0.058050,410162,358844
993.124,0.058066,412868,361198
996.888,0.058839,414263,361774
1000.65,0.059726,415476,362093
1004.4,0.061100,415479,360952
1009.41,0.062032,414358,359206
1013.15,0.062283,412923,357755
1016.89,0.062961,411526,355989
1020.63,0.062833,409066,353965
1024.36,0.063151,406777,351727
1028.09,0.062606,404427,350134
1031.82,0.062241,401911,348248
1036.78,0.061219,398410,346028
1040.49,0.061382,396204,343983
1044.2,0.060676,394236,342831
1047.91,0.060242,392042,341264
1051.61,0.059036,389823,340276
1055.31,0.058658,388234,339184
1059,0.057576,387599,339474
1063.92,0.056530,386688,339493
1067.61,0.056066,386598,339777
1071.29,0.055353,387377,341021
1074.96,0.054475,388536,342733
1078.63,0.053710,389855,344503
1082.3,0.052850,391215,346390
1085.96,0.052345,393215,348566
1090.84,0.051419,396270,352024
1094.49,0.051386,398760,354263
1098.14,0.050618,400987,356872
1101.79,0.050085,403477,359529
1105.43,0.050323,406116,361682
1109.06,0.049749,407701,363574
1112.7,0.049817,409859,365441
1117.53,0.049824,412494,367785
1121.15,0.050307,414909,369527
1124.77,0.051307,416559,370143
1128.38,0.052762,418532,370652
1131.99,0.054297,419956,370601
1135.6,0.057034,421946,370018
1139.2,0.058960,423881,370070
1143.99,0.061270,426786,370630
1147.58,0.063301,428617,370483
1151.17,0.064352,431169,371788
1154.75,0.065205,433579,373133
1158.33,0.067434,436264,373521
1161.91,0.070149,439132,373634
1165.48,0.073200,442389,373770
1169.04,0.076501,446101,374052
1173.79,0.079942,451929,375948
1177.34,0.083010,456026,376686
1180.9,0.085239,461306,379097
1184.44,0.087153,467657,382626
1187.99,0.088306,473969,386762
1191.52,0.087468,479856,392322
1195.06,0.086949,487372,398944
1199.76,0.085276,497347,408680
1203.29,0.084375,504311,415263
1206.81,0.082828,511507,422692
1210.33,0.081956,519078,429810
1213.84,0.080823,527163,437645
1217.35,0.079660,534208,444683
1220.85,0.078022,540472,451597
1225.51,0.076966,549929,460618
1229.01,0.076580,556888,466861
1232.5,0.075707,562180,472246
1235.98,0.074879,567975,478025
1239.46,0.073941,574815,484827
1242.94,0.072741,582782,492907
1246.41,0.071755,591476,501398
1251.03,0.071166,604016,512722
1254.5,0.071359,612289,519514
1257.96,0.071528,619125,525110
1261.41,0.072152,624551,528951
1264.86,0.072793,629900,532695
1268.31,0.073388,634345,535720
1271.75,0.074297,638574,538163
1276.33,0.074534,642499,541176
1279.76,0.074228,645905,544428
1283.19,0.073964,648307,546785
1286.61,0.073603,650446,549045
1290.03,0.073356,652132,550782
1293.44,0.072509,653907,553359
1296.85,0.072457,655963,555165
1301.39,0.072288,657349,556555
1304.8,0.072250,657558,556781
1308.19,0.072752,658515,556947
1311.58,0.072756,658804,557186
1314.97,0.073394,659011,556543
1318.36,0.073873,658272,555306
1321.73,0.074316,658022,554529
1326.23,0.075375,657870,553051
1329.6,0.076934,656482,549906
1332.97,0.077850,654926,547447
1336.33,0.079312,653727,544609
1339.69,0.081070,652497,541388
1343.04,0.083245,649913,536550
1346.39,0.085971,647671,531353
1349.73,0.088015,645338,526954
1354.18,0.091884,641175,518911
1357.52,0.093660,638376,514537
1360.85,0.096558,635805,509056
1364.17,0.099100,633413,504182
1367.49,0.101762,631026,499212
1370.81,0.104389,628050,493861
1374.12,0.107075,625034,488460
1378.54,0.111109,620272,480256
1381.84,0.115281,616892,473073
1385.14,0.120002,613613,465471
1388.43,0.125109,611526,458465
1391.72,0.130745,610663,451915
1395.01,0.137186,610634,445241
1398.29,0.143299,611700,439784
1402.66,0.152286,614051,432433
1405.93,0.159148,616268,427191
1409.2,0.165708,617795,421829
1412.46,0.171872,618872,416609
1415.72,0.176914,619795,412415
1418.98,0.182222,620495,407865
1422.23,0.186716,621087,404051
1426.56,0.191088,621375,400190
1429.8,0.194661,621616,397065
1433.04,0.197668,622129,394650
1436.27,0.199616,621526,392503
1439.5,0.202291,621113,389834
1442.72,0.205257,620921,387061
1445.94,0.207742,620270,384449
1450.23,0.211327,618860,380422
1453.44,0.214000,617697,377377
1456.64,0.217358,616264,373602
1459.85,0.219608,614413,370555
1463.04,0.222295,612307,367007
1466.24,0.224694,610032,363629
1469.43,0.228293,607345,359040
1473.67,0.233348,603789,352807
1476.85,0.238405,601175,347213
1480.02,0.244162,597737,340681
1483.19,0.249499,594479,334686
1486.36,0.255388,591232,328375
1489.52,0.260664,587853,322556
1492.68,0.263949,583875,317959
1496.89,0.267247,578062,312412
1500.03,0.267848,574159,309873
1503.18,0.268668,570285,307202
1506.32,0.267751,565444,305238
1509.45,0.267083,560571,303073
1512.58,0.264904,555821,302017
1515.71,0.263166,550344,300240
1519.87,0.259815,543983,299068
1522.99,0.257704,538764,297642
1526.1,0.254445,533692,297061
1529.21,0.250932,527902,296225
1532.32,0.247690,521886,295043
1535.42,0.244245,515888,293975
1538.51,0.241136,509987,292700
1541.6,0.238156,503936,291219
1545.72,0.232745,494694,289462
1548.8,0.230212,488378,287438
1551.88,0.227026,481832,285673
1554.95,0.225092,474989,282873
1558.02,0.222683,467818,280152
1561.08,0.221923,460730,276391
1564.15,0.220469,454170,273369
1568.22,0.219938,444181,267684
1571.27,0.218231,436947,264361
1574.32,0.217780,429598,260185
1577.36,0.216089,422039,256604
1580.4,0.218409,414375,250602
1583.43,0.212740,406354,248980
1586.46,0.210236,398475,245564
1590.49,0.207523,388982,241216
1593.51,0.205939,380708,236948
1596.53,0.203147,372727,233477
1599.54,0.201680,365060,229448
1602.55,0.197861,357543,226708
1605.55,0.196291,349495,222408
1608.55,0.194231,341154,218132
1612.54,0.191444,330877,212923
1615.53,0.188667,322904,209125
1618.51,0.187756,315116,204510
1621.49,0.186404,307217,200005
1624.47,0.182823,299481,196583
1627.44,0.183294,292112,191538
1630.41,0.182383,284245,186771
1634.36,0.180531,274079,180861
1637.32,0.178897,266916,176798
1640.27,0.178289,259612,172201
1643.22,0.177759,251804,167226
1646.16,0.175824,244348,162999
1649.1,0.176229,236703,157752
1652.04,0.173543,228171,153009
1655.95,0.174020,215408,144292
1658.88,0.171200,204937,138172
1661.8,0.170755,193395,130524
1664.72,0.168897,179728,121820
1667.63,0.164022,163642,112169
1670.54,0.158925,146312,101474
1673.44,0.157016,128451,89479
1677.31,0.154312,105080,73656
1680.21,0.152357,88906,62600
1683.1,0.159391,75033,51983
1685.99,0.165911,63520,43351
1688.87,0.169966,53714,36318
1691.75,0.176282,45653,30422
1694.62,0.183145,39137,25671
1697.49,0.182255,33776,22200
1701.31,0.192930,28175,18069