File: samples/wool/wool-000811/Column 1_050629_20150331_123725.csv
Method:,Column 1,,
Host Date-Time:,31/3/15 @ 12:37:25,,
Header Version:,1,,
System Temp (C):,34.16,,
Detector Temp (C):,35.05,,
Humidity (%):,1.56,,
Lamp PD:,3818,,
Shift Vector Coefficients:,-10.5391,0.0761263,-0.000134223,,
Pixel to Wavelength Coefficients:,1775.68,-0.916766,-0.000235065,,
Serial Number:,5510004,,
Scan Config Name:,Column 1,,
Scan Config Type:,Slew,,
Section 1,,
Start wavelength (nm):,900,,
End wavelength (nm):,1700,,
Pattern Pixel Width (nm):,   7.03,,,,
Exposure (ms):,  0.635,,,,
Digital Resolution:,228,,
Num Repeats:,6,,
PGA Gain:,64,,
Total Measurement Time in sec:,  2.673,,
Wavelength (nm),Absorbance (AU),Reference Signal (unitless),Sample Signal (unitless)
901.51,0.069050,108485,92538
905.376,0.076715,121306,101664
909.237,0.078483,131909,110101
913.095,0.079177,143299,119417
916.948,0.080449,156982,130437
922.079,0.080898,179937,149356
925.923,0.081597,200504,166160
929.762,0.082817,222660,184003
933.597,0.082353,244426,202206
937.427,0.081542,263972,218784
941.254,0.080131,281845,234358
945.076,0.079139,297271,247750
950.165,0.078556,315605,263383
953.978,0.077791,328029,274234
957.786,0.076843,340470,285257
961.59,0.077867,352317,294487
965.389,0.077868,363056,303463
969.185,0.077977,373162,311832
972.976,0.078154,382632,319615
976.763,0.078318,391202,326650
981.806,0.078874,400190,333728
985.583,0.079566,406088,338107
989.355,0.079495,410162,341555
993.124,0.079944,412868,343453
996.888,0.080540,414263,344141
1000.65,0.081659,415476,344260
1004.4,0.082730,415479,343415
1009.41,0.083315,414358,342027
1013.15,0.083821,412923,340446
1016.89,0.085111,411526,338288
1020.63,0.084571,409066,336684
1024.36,0.084585,406777,334789
1028.09,0.084431,404427,332973
1031.82,0.083891,401911,331313
1036.78,0.083876,398410,328439
1040.49,0.083663,396204,326780
1044.2,0.083295,394236,325433
1047.91,0.082935,392042,323890
1051.61,0.083105,389823,321931
1055.31,0.082574,388234,321011
1059,0.082350,387599,320651
1063.92,0.081315,386688,320661
1067.61,0.080978,386598,320835
1071.29,0.079727,387377,322409
1074.96,0.079393,388536,323622
1078.63,0.078913,389855,325080
1082.3,0.078296,391215,326678
1085.96,0.077372,393215,329047
1090.84,0.076497,396270,332272
1094.49,0.075962,398760,334772
1098.14,0.075400,400987,337078
1101.79,0.075248,403477,339290
1105.43,0.074712,406116,341931
1109.06,0.074138,407701,343719
1112.7,0.073149,409859,346326
1117.53,0.072982,412494,348687
1121.15,0.073363,414909,350421
1124.77,0.073325,416559,351845
1128.38,0.074586,418532,352487
1131.99,0.075636,419956,352832
1135.6,0.076751,421946,353595
1139.2,0.078818,423881,353530
1143.99,0.080373,426786,354680
1147.58,0.081331,428617,355417
1151.17,0.081959,431169,357017
1154.75,0.083054,433579,358108
1158.33,0.084170,436264,359401
1161.91,0.085007,439132,361067
1165.48,0.087372,442389,361770
1169.04,0.090219,446101,362422
1173.79,0.093405,451929,364473
1177.34,0.095543,456026,365971
1180.9,0.097600,461306,368459
1184.44,0.099293,467657,372078
1187.99,0.100851,473969,375750
1191.52,0.101100,479856,380199
1195.06,0.100553,487372,386641
1199.76,0.099817,497347,395223
1203.29,0.099233,504311,401297
1206.81,0.098709,511507,407514
1210.33,0.097937,519078,414282
1213.84,0.097695,527163,420969
1217.35,0.096734,534208,427540
1220.85,0.096244,540472,433041
1225.51,0.095343,549929,441533
1229.01,0.094764,556888,447717
1232.5,0.094187,562180,452573
1235.98,0.093268,567975,458206
1239.46,0.092794,574815,464231
1242.94,0.091824,582782,471718
1246.41,0.091284,591476,479350
1251.03,0.091157,604016,489656
1254.5,0.091176,612289,496341
1257.96,0.091805,619125,501156
1261.41,0.091803,624551,505551
1264.86,0.092780,629900,508735
1268.31,0.093185,634345,511848
1271.75,0.093353,638574,515061
1276.33,0.094073,642499,517368
1279.76,0.094104,645905,520074
1283.19,0.093442,648307,522804
1286.61,0.093118,650446,524920
1290.03,0.092411,652132,527138
1293.44,0.092068,653907,528991
1296.85,0.091856,655963,530913
1301.39,0.091703,657349,532222
1304.8,0.091710,657558,532383
1308.19,0.091754,658515,533104
1311.58,0.091873,658804,533191
1314.97,0.091981,659011,533226
1318.36,0.092722,658272,531720
1321.73,0.092746,658022,531489
1326.23,0.093410,657870,530554
1329.6,0.094027,656482,528683
1332.97,0.094752,654926,526551
1336.33,0.096029,653727,524044
1339.69,0.097361,652497,521456
1343.04,0.099159,649913,517245
1346.39,0.100910,647671,513386
1349.73,0.102496,645338,509672
1354.18,0.105517,641175,502875
1357.52,0.107263,638376,498670
1360.85,0.109257,635805,494387
1364.17,0.111255,633413,490266
1367.49,0.113664,631026,485717
1370.81,0.115653,628050,481217
1374.12,0.117692,625034,476663
1378.54,0.120614,620272,469860
1381.84,0.123025,616892,464712
1385.14,0.125747,613613,459354
1388.43,0.130011,611526,453319
1391.72,0.133380,610663,449181
1395.01,0.137208,610634,445218
1398.29,0.141505,611700,441604
1402.66,0.146791,614051,437939
1405.93,0.151785,616268,434495
1409.2,0.155820,617795,431543
1412.46,0.160343,618872,427817
1415.72,0.163811,619795,425047
1418.98,0.167181,620495,422238
1422.23,0.170200,621087,419713
1426.56,0.174248,621375,416012
1429.8,0.176963,621616,413580
1433.04,0.179189,622129,411805
1436.27,0.180926,621526,409764
1439.5,0.183455,621113,407114
1442.72,0.185916,620921,404688
1445.94,0.188903,620270,401493
1450.23,0.192626,618860,397161
1453.44,0.194703,617697,394523
1456.64,0.197951,616264,390675
1459.85,0.200815,614413,386942
1463.04,0.203424,612307,383306
1466.24,0.207157,610032,378613
1469.43,0.211117,607345,373524
1473.67,0.217653,603789,365790
1476.85,0.223263,601175,359532
1480.02,0.230418,597737,351635
1483.19,0.236873,594479,344559
1486.36,0.242533,591232,338240
1489.52,0.248129,587853,332001
1492.68,0.250843,583875,327700
1496.89,0.253022,578062,322814
1500.03,0.254299,574159,319693
1503.18,0.254504,570285,317386
1506.32,0.252903,565444,315854
1509.45,0.252008,560571,313778
1512.58,0.249981,555821,312575
1515.71,0.247719,550344,311111
1519.87,0.244536,543983,309777
1522.99,0.242076,538764,308548
1526.1,0.239841,533692,307220
1529.21,0.236523,527902,306218
1532.32,0.233950,521886,304527
1535.42,0.230524,515888,303411
1538.51,0.227932,509987,301736
1541.6,0.225025,503936,300158
1545.72,0.221235,494694,297236
1548.8,0.217715,488378,295829
1551.88,0.215696,481832,293224
1554.95,0.214218,474989,290045
1558.02,0.212561,467818,286758
1561.08,0.211683,460730,282985
1564.15,0.210809,454170,279518
1568.22,0.209546,444181,274166
1571.27,0.209044,436947,270013
1574.32,0.208133,429598,266029
1577.36,0.207224,422039,261896
1580.4,0.206338,414375,257665
1583.43,0.204505,406354,253746
1586.46,0.202024,398475,250252
1590.49,0.200439,388982,245183
1593.51,0.199708,380708,240372
1596.53,0.197573,372727,236493
1599.54,0.195458,365060,232759
1602.55,0.193455,357543,229020
1605.55,0.191413,349495,224920
1608.55,0.189745,341154,220397
1612.54,0.188013,330877,214612
1615.53,0.186290,322904,210273
1618.51,0.185709,315116,205476
1621.49,0.185129,307217,200593
1624.47,0.182879,299481,196558
1627.44,0.181207,292112,192461
1630.41,0.181575,284245,187119
1634.36,0.179576,274079,181259
1637.32,0.180319,266916,176220
1640.27,0.178022,259612,172307
1643.22,0.178006,251804,167131
1646.16,0.177514,244348,162366
1649.1,0.176703,236703,157580
1652.04,0.175324,228171,152383
1655.95,0.170880,215408,145339
1658.88,0.167913,204937,139222
1661.8,0.161693,193395,133276
1664.72,0.153302,179728,126274
1667.63,0.141634,163642,118103
1670.54,0.127917,146312,108984
1673.44,0.111775,128451,99303
1677.31,0.090642,105080,85286
1680.21,0.078346,88906,74231
1683.1,0.070711,75033,63759
1685.99,0.071797,63520,53841
1688.87,0.076460,53714,45043
1691.75,0.079880,45653,37983
1694.62,0.089887,39137,31820
1697.49,0.090889,33776,27398
1701.31,0.097817,28175,22493