File: samples/wool/wool-000811/Column 1_050565_20150331_120650.csv
Method:,Column 1,,
Host Date-Time:,31/3/15 @ 12:6:50,,
Header Version:,1,,
System Temp (C):,33.89,,
Detector Temp (C):,33.66,,
Humidity (%):,1.95,,
Lamp PD:,3819,,
Shift Vector Coefficients:,-10.5391,0.0761263,-0.000134223,,
Pixel to Wavelength Coefficients:,1775.68,-0.916766,-0.000235065,,
Serial Number:,5510004,,
Scan Config Name:,Column 1,,
Scan Config Type:,Slew,,
Section 1,,
Start wavelength (nm):,900,,
End wavelength (nm):,1700,,
Pattern Pixel Width (nm):,   7.03,,,,
Exposure (ms):,  0.635,,,,
Digital Resolution:,228,,
Num Repeats:,6,,
PGA Gain:,64,,
Total Measurement Time in sec:,  2.684,,
Wavelength (nm),Absorbance (AU),Reference Signal (unitless),Sample Signal (unitless)
901.51,0.033961,108485,100325
905.376,0.037711,121306,111217
909.237,0.042808,131909,119527
913.095,0.041866,143299,130130
916.948,0.043944,156982,141875
922.079,0.046209,179937,161775
925.923,0.047292,200504,179817
929.762,0.047760,222660,199472
933.597,0.048477,244426,218610
937.427,0.047771,263972,236476
941.254,0.047880,281845,252424
945.076,0.046950,297271,266810
950.165,0.046375,315605,283641
953.978,0.045609,328029,295327
957.786,0.046257,340470,306071
961.59,0.046486,352317,316554
965.389,0.046416,363056,326255
969.185,0.046365,373162,335376
972.976,0.046934,382632,343437
976.763,0.047606,391202,350586
981.806,0.048448,400190,357947
985.583,0.049178,406088,362612
989.355,0.049372,410162,366086
993.124,0.049494,412868,368398
996.888,0.050437,414263,368841
1000.65,0.051321,415476,369169
1004.4,0.052558,415479,368121
1009.41,0.053986,414358,365923
1013.15,0.054348,412923,364352
1016.89,0.054600,411526,362909
1020.63,0.055169,409066,360267
1024.36,0.054387,406777,358897
1028.09,0.053886,404427,357235
1031.82,0.054448,401911,354554
1036.78,0.053656,398410,352107
1040.49,0.053309,396204,350437
1044.2,0.053306,394236,348699
1047.91,0.052660,392042,347274
1051.61,0.052448,389823,345477
1055.31,0.052091,388234,344352
1059,0.050999,387599,344654
1063.92,0.050168,386688,344503
1067.61,0.049642,386598,344840
1071.29,0.048760,387377,346237
1074.96,0.048118,388536,347787
1078.63,0.048566,389855,348608
1082.3,0.047256,391215,350881
1085.96,0.046500,393215,353289
1090.84,0.045238,396270,357070
1094.49,0.046084,398760,358614
1098.14,0.045119,400987,361419
1101.79,0.044879,403477,363865
1105.43,0.044712,406116,366385
1109.06,0.044160,407701,368283
1112.7,0.044081,409859,370300
1117.53,0.044087,412494,372675
1121.15,0.044951,414909,374112
1124.77,0.045268,416559,375326
1128.38,0.046321,418532,376190
1131.99,0.048100,419956,375927
1135.6,0.049919,421946,376130
1139.2,0.051010,423881,376907
1143.99,0.053913,426786,376962
1147.58,0.055423,428617,377265
1151.17,0.055771,431169,379207
1154.75,0.057348,433579,379945
1158.33,0.059479,436264,380426
1161.91,0.061394,439132,381242
1165.48,0.063656,442389,382075
1169.04,0.066146,446101,383078
1173.79,0.070234,451929,384447
1177.34,0.072403,456026,385999
1180.9,0.074783,461306,388335
1184.44,0.076628,467657,392012
1187.99,0.077214,473969,396767
1191.52,0.077404,479856,401520
1195.06,0.077193,487372,408007
1199.76,0.075733,497347,417760
1203.29,0.075340,504311,423993
1206.81,0.074498,511507,430877
1210.33,0.073432,519078,438329
1213.84,0.072692,527163,445916
1217.35,0.072198,534208,452389
1220.85,0.071434,540472,458500
1225.51,0.070282,549929,467762
1229.01,0.069785,556888,474223
1232.5,0.069309,562180,479255
1235.98,0.068474,567975,485127
1239.46,0.067308,574815,492289
1242.94,0.066772,582782,499728
1246.41,0.066097,591476,507972
1251.03,0.065544,604016,519403
1254.5,0.065685,612289,526346
1257.96,0.066422,619125,531320
1261.41,0.066357,624551,536057
1264.86,0.067391,629900,539362
1268.31,0.067923,634345,542504
1271.75,0.068886,638574,544911
1276.33,0.069442,642499,547559
1279.76,0.069194,645905,550775
1283.19,0.068520,648307,553682
1286.61,0.067933,650446,556261
1290.03,0.067749,652132,557939
1293.44,0.067582,653907,559673
1296.85,0.066961,655963,562236
1301.39,0.066746,657349,563703
1304.8,0.067007,657558,563543
1308.19,0.067060,658515,564294
1311.58,0.067183,658804,564382
1314.97,0.067942,659011,563574
1318.36,0.068257,658272,562533
1321.73,0.068959,658022,561412
1326.23,0.069455,657870,560641
1329.6,0.070526,656482,558081
1332.97,0.071372,654926,555674
1336.33,0.072656,653727,553019
1339.69,0.074619,652497,549490
1343.04,0.076667,649913,544739
1346.39,0.078404,647671,540693
1349.73,0.080620,645338,536003
1354.18,0.083923,641175,528510
1357.52,0.085921,638376,523788
1360.85,0.087973,635805,519219
1364.17,0.090151,633413,514678
1367.49,0.092883,631026,509523
1370.81,0.095313,628050,504291
1374.12,0.097793,625034,499012
1378.54,0.101150,620272,491397
1381.84,0.104238,616892,485256
1385.14,0.108214,613613,478278
1388.43,0.112844,611526,471597
1391.72,0.117640,610663,465759
1395.01,0.122311,610634,460755
1398.29,0.127734,611700,455832
1402.66,0.135182,614051,449803
1405.93,0.141323,616268,445089
1409.2,0.146756,617795,440645
1412.46,0.151200,618872,436919
1415.72,0.156237,619795,432525
1418.98,0.160499,620495,428785
1422.23,0.164380,621087,425375
1426.56,0.168418,621375,421634
1429.8,0.170948,621616,419348
1433.04,0.173358,622129,417371
1436.27,0.176059,621526,414381
1439.5,0.178615,621113,411676
1442.72,0.181412,620921,408907
1445.94,0.183538,620270,406483
1450.23,0.187456,618860,401917
1453.44,0.190180,617697,398653
1456.64,0.193194,616264,394978
1459.85,0.195973,614413,391280
1463.04,0.198945,612307,387279
1466.24,0.201827,610032,383288
1469.43,0.205653,607345,378253
1473.67,0.211824,603789,370733
1476.85,0.217345,601175,364465
1480.02,0.223850,597737,356993
1483.19,0.230510,594479,349644
1486.36,0.236163,591232,343238
1489.52,0.241471,587853,337130
1492.68,0.245001,583875,332138
1496.89,0.247659,578062,326825
1500.03,0.248214,574159,324204
1503.18,0.248445,570285,321845
1506.32,0.247487,565444,319818
1509.45,0.246749,560571,317601
1512.58,0.244617,555821,316459
1515.71,0.242213,550344,315080
1519.87,0.239434,543983,313438
1522.99,0.235795,538764,313043
1526.1,0.233291,533692,311889
1529.21,0.231033,527902,310113
1532.32,0.227814,521886,308860
1535.42,0.224837,515888,307410
1538.51,0.221347,509987,306346
1541.6,0.218385,503936,304783
1545.72,0.213400,494694,302647
1548.8,0.209875,488378,301218
1551.88,0.207918,481832,298523
1554.95,0.205481,474989,295939
1558.02,0.203678,467818,292684
1561.08,0.202663,460730,288924
1564.15,0.202240,454170,285088
1568.22,0.199935,444181,280301
1571.27,0.200179,436947,275581
1574.32,0.199187,429598,271566
1577.36,0.197430,422039,267869
1580.4,0.196661,414375,263471
1583.43,0.194525,406354,259645
1586.46,0.192212,398475,255970
1590.49,0.190567,388982,250820
1593.51,0.188682,380708,246553
1596.53,0.185559,372727,243126
1599.54,0.184252,365060,238843
1602.55,0.181751,357543,235276
1605.55,0.179198,349495,231336
1608.55,0.176578,341154,227181
1612.54,0.174903,330877,221189
1615.53,0.172576,322904,217019
1618.51,0.172360,315116,211890
1621.49,0.170168,307217,207624
1624.47,0.168659,299481,203100
1627.44,0.167645,292112,198566
1630.41,0.166108,284245,193903
1634.36,0.165461,274079,187247
1637.32,0.164608,266916,182712
1640.27,0.164068,259612,177933
1643.22,0.163197,251804,172928
1646.16,0.162278,244348,168163
1649.1,0.161968,236703,163018
1652.04,0.159057,228171,158199
1655.95,0.158232,215408,149634
1658.88,0.154239,204937,143675
1661.8,0.150083,193395,136887
1664.72,0.142490,179728,129457
1667.63,0.134124,163642,120163
1670.54,0.122043,146312,110468
1673.44,0.109964,128451,99718
1677.31,0.096853,105080,84075
1680.21,0.088533,88906,72510
1683.1,0.086342,75033,61505
1685.99,0.085498,63520,52169
1688.87,0.091908,53714,43469
1691.75,0.095632,45653,36630
1694.62,0.103206,39137,30859
1697.49,0.106790,33776,26413
1701.31,0.120202,28175,21363