File: samples/wool/wool-000811/Column 1_050538_20150331_115421.csv
Method:,Column 1,,
Host Date-Time:,31/3/15 @ 11:54:21,,
Header Version:,1,,
System Temp (C):,31.98,,
Detector Temp (C):,30.32,,
Humidity (%):,3.32,,
Lamp PD:,3826,,
Shift Vector Coefficients:,-10.5391,0.0761263,-0.000134223,,
Pixel to Wavelength Coefficients:,1775.68,-0.916766,-0.000235065,,
Serial Number:,5510004,,
Scan Config Name:,Column 1,,
Scan Config Type:,Slew,,
Section 1,,
Start wavelength (nm):,900,,
End wavelength (nm):,1700,,
Pattern Pixel Width (nm):,   7.03,,,,
Exposure (ms):,  0.635,,,,
Digital Resolution:,228,,
Num Repeats:,6,,
PGA Gain:,64,,
Total Measurement Time in sec:,  2.673,,
Wavelength (nm),Absorbance (AU),Reference Signal (unitless),Sample Signal (unitless)
901.51,0.043749,108485,98089
905.376,0.049563,121306,108223
909.237,0.050710,131909,117372
913.095,0.050219,143299,127651
916.948,0.051799,156982,139332
922.079,0.051204,179937,159925
925.923,0.050570,200504,178465
929.762,0.051539,222660,197744
933.597,0.052164,244426,216762
937.427,0.052012,263972,234178
941.254,0.052142,281845,249959
945.076,0.052303,297271,263542
950.165,0.052785,315605,279485
953.978,0.052757,328029,290506
957.786,0.053241,340470,301188
961.59,0.053655,352317,311371
965.389,0.054217,363056,320447
969.185,0.054577,373162,329094
972.976,0.055200,382632,336962
976.763,0.055713,391202,344103
981.806,0.056200,400190,351614
985.583,0.056962,406088,356171
989.355,0.057786,410162,359062
993.124,0.058140,412868,361136
996.888,0.058293,414263,362229
1000.65,0.059369,415476,362391
1004.4,0.060520,415479,361434
1009.41,0.061912,414358,359305
1013.15,0.062585,412923,357507
1016.89,0.063254,411526,355749
1020.63,0.062713,409066,354063
1024.36,0.062460,406777,352287
1028.09,0.062845,404427,349941
1031.82,0.061739,401911,348651
1036.78,0.061186,398410,346054
1040.49,0.060696,396204,344527
1044.2,0.060620,394236,342875
1047.91,0.059909,392042,341526
1051.61,0.059147,389823,340189
1055.31,0.058003,388234,339696
1059,0.057796,387599,339302
1063.92,0.056211,386688,339742
1067.61,0.055833,386598,339959
1071.29,0.055041,387377,341266
1074.96,0.054525,388536,342694
1078.63,0.054120,389855,344178
1082.3,0.052795,391215,346434
1085.96,0.052049,393215,348804
1090.84,0.051293,396270,352126
1094.49,0.051545,398760,354133
1098.14,0.050164,400987,357245
1101.79,0.049924,403477,359662
1105.43,0.050191,406116,361792
1109.06,0.049778,407701,363550
1112.7,0.049398,409859,365794
1117.53,0.049925,412494,367699
1121.15,0.050731,414909,369166
1124.77,0.051172,416559,370258
1128.38,0.053027,418532,370426
1131.99,0.054348,419956,370558
1135.6,0.056741,421946,370268
1139.2,0.058101,423881,370803
1143.99,0.061140,426786,370741
1147.58,0.063170,428617,370595
1151.17,0.063884,431169,372189
1154.75,0.065542,433579,372843
1158.33,0.067372,436264,373575
1161.91,0.069856,439132,373886
1165.48,0.072959,442389,373977
1169.04,0.076073,446101,374421
1173.79,0.079837,451929,376039
1177.34,0.082966,456026,376724
1180.9,0.085217,461306,379116
1184.44,0.086602,467657,383112
1187.99,0.087908,473969,387117
1191.52,0.087573,479856,392227
1195.06,0.086887,487372,399001
1199.76,0.085389,497347,408574
1203.29,0.083784,504311,415829
1206.81,0.082518,511507,422993
1210.33,0.081456,519078,430305
1213.84,0.080708,527163,437761
1217.35,0.079511,534208,444835
1220.85,0.078470,540472,451132
1225.51,0.076910,549929,460677
1229.01,0.076106,556888,467371
1232.5,0.075745,562180,472205
1235.98,0.074638,567975,478290
1239.46,0.073503,574815,485317
1242.94,0.072210,582782,493510
1246.41,0.071471,591476,501725
1251.03,0.071281,604016,512587
1254.5,0.071668,612289,519145
1257.96,0.071647,619125,524966
1261.41,0.072297,624551,528775
1264.86,0.072913,629900,532548
1268.31,0.073379,634345,535731
1271.75,0.073942,638574,538604
1276.33,0.074318,642499,541445
1279.76,0.074314,645905,544320
1283.19,0.073642,648307,547191
1286.61,0.073334,650446,549386
1290.03,0.073125,652132,551075
1293.44,0.072466,653907,553414
1296.85,0.072286,655963,555384
1301.39,0.072134,657349,556752
1304.8,0.071979,657558,557128
1308.19,0.072400,658515,557398
1311.58,0.072699,658804,557259
1314.97,0.073497,659011,556411
1318.36,0.074068,658272,555057
1321.73,0.074178,658022,554706
1326.23,0.075411,657870,553005
1329.6,0.076593,656482,550338
1332.97,0.078030,654926,547220
1336.33,0.078608,653727,545492
1339.69,0.081172,652497,541261
1343.04,0.082672,649913,537259
1346.39,0.085537,647671,531885
1349.73,0.087990,645338,526984
1354.18,0.091210,641175,519716
1357.52,0.093915,638376,514235
1360.85,0.096312,635805,509345
1364.17,0.098778,633413,504555
1367.49,0.101164,631026,499900
1370.81,0.104196,628050,494081
1374.12,0.107384,625034,488112
1378.54,0.110841,620272,480553
1381.84,0.114783,616892,473616
1385.14,0.119799,613613,465689
1388.43,0.124757,611526,458836
1391.72,0.130769,610663,451890
1395.01,0.136597,610634,445845
1398.29,0.143458,611700,439623
1402.66,0.151828,614051,432889
1405.93,0.158973,616268,427363
1409.2,0.165133,617795,422388
1412.46,0.171267,618872,417190
1415.72,0.176499,619795,412809
1418.98,0.181569,620495,408479
1422.23,0.185584,621087,405106
1426.56,0.190499,621375,400733
1429.8,0.194145,621616,397537
1433.04,0.196977,622129,395279
1436.27,0.199463,621526,392642
1439.5,0.201613,621113,390443
1442.72,0.204415,620921,387812
1445.94,0.207020,620270,385089
1450.23,0.210359,618860,381271
1453.44,0.213548,617697,377770
1456.64,0.216407,616264,374421
1459.85,0.219290,614413,370826
1463.04,0.221825,612307,367404
1466.24,0.224606,610032,363703
1469.43,0.227850,607345,359406
1473.67,0.232545,603789,353460
1476.85,0.237794,601175,347702
1480.02,0.243130,597737,341492
1483.19,0.249081,594479,335008
1486.36,0.255430,591232,328343
1489.52,0.260012,587853,323040
1492.68,0.263707,583875,318136
1496.89,0.266423,578062,313005
1500.03,0.267197,574159,310338
1503.18,0.267584,570285,307970
1506.32,0.266955,565444,305798
1509.45,0.266742,560571,303311
1512.58,0.264799,555821,302090
1515.71,0.262393,550344,300775
1519.87,0.259860,543983,299037
1522.99,0.256948,538764,298161
1526.1,0.254144,533692,297267
1529.21,0.250989,527902,296186
1532.32,0.247589,521886,295112
1535.42,0.244678,515888,293682
1538.51,0.241470,509987,292475
1541.6,0.238241,503936,291162
1545.72,0.233280,494694,289106
1548.8,0.229484,488378,287920
1551.88,0.226647,481832,285923
1554.95,0.224655,474989,283158
1558.02,0.222806,467818,280073
1561.08,0.220655,460730,277199
1564.15,0.221016,454170,273025
1568.22,0.219373,444181,268032
1571.27,0.218315,436947,264310
1574.32,0.217433,429598,260393
1577.36,0.216328,422039,256463
1580.4,0.214780,414375,252705
1583.43,0.211820,406354,249508
1586.46,0.210185,398475,245593
1590.49,0.207239,388982,241374
1593.51,0.205408,380708,237238
1596.53,0.202444,372727,233855
1599.54,0.201113,365060,229748
1602.55,0.197965,357543,226654
1605.55,0.196654,349495,222222
1608.55,0.193467,341154,218516
1612.54,0.191273,330877,213007
1615.53,0.189120,322904,208907
1618.51,0.187569,315116,204598
1621.49,0.185803,307217,200282
1624.47,0.184628,299481,195768
1627.44,0.183757,292112,191334
1630.41,0.181610,284245,187104
1634.36,0.178490,274079,181713
1637.32,0.178215,266916,177076
1640.27,0.178966,259612,171933
1643.22,0.176253,251804,167807
1646.16,0.175720,244348,163038
1649.1,0.175626,236703,157971
1652.04,0.173915,228171,152878
1655.95,0.173430,215408,144488
1658.88,0.170795,204937,138301
1661.8,0.170263,193395,130672
1664.72,0.167463,179728,122223
1667.63,0.164150,163642,112136
1670.54,0.159242,146312,101400
1673.44,0.155872,128451,89715
1677.31,0.151802,105080,74083
1680.21,0.149618,88906,62996
1683.1,0.155143,75033,52494
1685.99,0.162022,63520,43741
1688.87,0.163214,53714,36887
1691.75,0.170454,45653,30833
1694.62,0.173078,39137,26273
1697.49,0.184845,33776,22068
1701.31,0.176539,28175,18764