File: samples/wool/wool-000811/Column 1_050548_20150331_115903.csv
Method:,Column 1,,
Host Date-Time:,31/3/15 @ 11:59:3,,
Header Version:,1,,
System Temp (C):,33.18,,
Detector Temp (C):,31.86,,
Humidity (%):,2.34,,
Lamp PD:,3822,,
Shift Vector Coefficients:,-10.5391,0.0761263,-0.000134223,,
Pixel to Wavelength Coefficients:,1775.68,-0.916766,-0.000235065,,
Serial Number:,5510004,,
Scan Config Name:,Column 1,,
Scan Config Type:,Slew,,
Section 1,,
Start wavelength (nm):,900,,
End wavelength (nm):,1700,,
Pattern Pixel Width (nm):,   7.03,,,,
Exposure (ms):,  0.635,,,,
Digital Resolution:,228,,
Num Repeats:,6,,
PGA Gain:,64,,
Total Measurement Time in sec:,  2.681,,
Wavelength (nm),Absorbance (AU),Reference Signal (unitless),Sample Signal (unitless)
901.51,0.046561,108485,97456
905.376,0.052809,121306,107417
909.237,0.055053,131909,116204
913.095,0.056483,143299,125823
916.948,0.055442,156982,138168
922.079,0.056653,179937,157931
925.923,0.056502,200504,176044
929.762,0.057445,222660,195073
933.597,0.057492,244426,214119
937.427,0.056649,263972,231691
941.254,0.057199,281845,247065
945.076,0.056604,297271,260945
950.165,0.056752,315605,276944
953.978,0.056286,328029,288155
957.786,0.056335,340470,299050
961.59,0.056323,352317,309464
965.389,0.057540,363056,318005
969.185,0.057985,373162,326522
972.976,0.058137,382632,334691
976.763,0.058779,391202,341682
981.806,0.059349,400190,349074
985.583,0.060196,406088,353528
989.355,0.060660,410162,356694
993.124,0.061218,412868,358586
996.888,0.061681,414263,359414
1000.65,0.062227,415476,360014
1004.4,0.063233,415479,359183
1009.41,0.064914,414358,356830
1013.15,0.065065,412923,355471
1016.89,0.065447,411526,353957
1020.63,0.065390,409066,351887
1024.36,0.065290,406777,349999
1028.09,0.065101,404427,348128
1031.82,0.064601,401911,346361
1036.78,0.064286,398410,343593
1040.49,0.063503,396204,342307
1044.2,0.062976,394236,341020
1047.91,0.062824,392042,339241
1051.61,0.062087,389823,337894
1055.31,0.060771,388234,337538
1059,0.060054,387599,337543
1063.92,0.059460,386688,337210
1067.61,0.057904,386598,338342
1071.29,0.057014,387377,339719
1074.96,0.056398,388536,341219
1078.63,0.056201,389855,342533
1082.3,0.055230,391215,344497
1085.96,0.054477,393215,346859
1090.84,0.053469,396270,350366
1094.49,0.053056,398760,352903
1098.14,0.052876,400987,355021
1101.79,0.052376,403477,357637
1105.43,0.052111,406116,360196
1109.06,0.052062,407701,361643
1112.7,0.051234,409859,364251
1117.53,0.051616,412494,366270
1121.15,0.052273,414909,367858
1124.77,0.052751,416559,368914
1128.38,0.054661,418532,369035
1131.99,0.055526,419956,369554
1135.6,0.058358,421946,368892
1139.2,0.059927,423881,369247
1143.99,0.063024,426786,369136
1147.58,0.063719,428617,370127
1151.17,0.065366,431169,370921
1154.75,0.066524,433579,372001
1158.33,0.069180,436264,372023
1161.91,0.071379,439132,372577
1165.48,0.074126,442389,372974
1169.04,0.077000,446101,373623
1173.79,0.081077,451929,374967
1177.34,0.084348,456026,375527
1180.9,0.086218,461306,378243
1184.44,0.088790,467657,381186
1187.99,0.089456,473969,385739
1191.52,0.088972,479856,390966
1195.06,0.088322,487372,397684
1199.76,0.086619,497347,407418
1203.29,0.085071,504311,414598
1206.81,0.084433,511507,421132
1210.33,0.083013,519078,428765
1213.84,0.081950,527163,436511
1217.35,0.080915,534208,443400
1220.85,0.079794,540472,449758
1225.51,0.078602,549929,458886
1229.01,0.077620,556888,465745
1232.5,0.076645,562180,471227
1235.98,0.076282,567975,476483
1239.46,0.075056,574815,483584
1242.94,0.073373,582782,492190
1246.41,0.072940,591476,500031
1251.03,0.072498,604016,511152
1254.5,0.072579,612289,518057
1257.96,0.073079,619125,523238
1261.41,0.073655,624551,527124
1264.86,0.074496,629900,530610
1268.31,0.074691,634345,534115
1271.75,0.075541,638574,536624
1276.33,0.075771,642499,539637
1279.76,0.075462,645905,542883
1283.19,0.074993,648307,545491
1286.61,0.074690,650446,547673
1290.03,0.074307,652132,549577
1293.44,0.073915,653907,551570
1296.85,0.073661,655963,553629
1301.39,0.073192,657349,555397
1304.8,0.073252,657558,555498
1308.19,0.073703,658515,555729
1311.58,0.073658,658804,556030
1314.97,0.073769,659011,556062
1318.36,0.074650,658272,554314
1321.73,0.075141,658022,553477
1326.23,0.076253,657870,551934
1329.6,0.076922,656482,549922
1332.97,0.078114,654926,547114
1336.33,0.079587,653727,544264
1339.69,0.081376,652497,541006
1343.04,0.083328,649913,536448
1346.39,0.085829,647671,531527
1349.73,0.087783,645338,527235
1354.18,0.091928,641175,518858
1357.52,0.094297,638376,513783
1360.85,0.096402,635805,509239
1364.17,0.099268,633413,503986
1367.49,0.101834,631026,499130
1370.81,0.104663,628050,493550
1374.12,0.106941,625034,488610
1378.54,0.110856,620272,480536
1381.84,0.114888,616892,473501
1385.14,0.118856,613613,466701
1388.43,0.124004,611526,459633
1391.72,0.129797,610663,452902
1395.01,0.135398,610634,447078
1398.29,0.140996,611700,442122
1402.66,0.149343,614051,435373
1405.93,0.155899,616268,430398
1409.2,0.161415,617795,426019
1412.46,0.167706,618872,420625
1415.72,0.172411,619795,416713
1418.98,0.176664,620495,413118
1422.23,0.180808,621087,409585
1426.56,0.185611,621375,405268
1429.8,0.188831,621616,402431
1433.04,0.191574,622129,400227
1436.27,0.193716,621526,397872
1439.5,0.195886,621113,395626
1442.72,0.198633,620921,393010
1445.94,0.200668,620270,390762
1450.23,0.204734,618860,386241
1453.44,0.208031,617697,382600
1456.64,0.210451,616264,379591
1459.85,0.213804,614413,375540
1463.04,0.216841,612307,371645
1466.24,0.219554,610032,367958
1469.43,0.223245,607345,363237
1473.67,0.228488,603789,356777
1476.85,0.234144,601175,350636
1480.02,0.239745,597737,344164
1483.19,0.246598,594479,336929
1486.36,0.252464,591232,330593
1489.52,0.257844,587853,324657
1492.68,0.261731,583875,319587
1496.89,0.263883,578062,314841
1500.03,0.265277,574159,311713
1503.18,0.265910,570285,309159
1506.32,0.265108,565444,307101
1509.45,0.264113,560571,305153
1512.58,0.262898,555821,303415
1515.71,0.260175,550344,302315
1519.87,0.256789,543983,301159
1522.99,0.254454,538764,299878
1526.1,0.251543,533692,299053
1529.21,0.248100,527902,298163
1532.32,0.245668,521886,296420
1535.42,0.241698,515888,295704
1538.51,0.239005,509987,294140
1541.6,0.235574,503936,292955
1545.72,0.230512,494694,290954
1548.8,0.227484,488378,289249
1551.88,0.224539,481832,287314
1554.95,0.221563,474989,285181
1558.02,0.220148,467818,281792
1561.08,0.219057,460730,278221
1564.15,0.218121,454170,274851
1568.22,0.220680,444181,267227
1571.27,0.215975,436947,265738
1574.32,0.215420,429598,261603
1577.36,0.213274,422039,258273
1580.4,0.211890,414375,254392
1583.43,0.210513,406354,250260
1586.46,0.208091,398475,246780
1590.49,0.205098,388982,242567
1593.51,0.203413,380708,238330
1596.53,0.200168,372727,235084
1599.54,0.198594,365060,231084
1602.55,0.195813,357543,227780
1605.55,0.193154,349495,224020
1608.55,0.191639,341154,219438
1612.54,0.188363,330877,214439
1615.53,0.187011,322904,209924
1618.51,0.185357,315116,205643
1621.49,0.182787,307217,201678
1624.47,0.181099,299481,197365
1627.44,0.180246,292112,192887
1630.41,0.178870,284245,188288
1634.36,0.177351,274079,182190
1637.32,0.176624,266916,177726
1640.27,0.175211,259612,173426
1643.22,0.174476,251804,168495
1646.16,0.173054,244348,164042
1649.1,0.171375,236703,159525
1652.04,0.170221,228171,154184
1655.95,0.167478,215408,146482
1658.88,0.166623,204937,139636
1661.8,0.164049,193395,132555
1664.72,0.158815,179728,124681
1667.63,0.151388,163642,115480
1670.54,0.143892,146312,105048
1673.44,0.136896,128451,93722
1677.31,0.125314,105080,78742
1680.21,0.122966,88906,66983
1683.1,0.120812,75033,56812
1685.99,0.126436,63520,47476
1688.87,0.134889,53714,39373
1691.75,0.135164,45653,33443
1694.62,0.140096,39137,28346
1697.49,0.148976,33776,23968
1701.31,0.148747,28175,20004