File: samples/wool/wool-000811/Column 1_050561_20150331_120456.csv
Method:,Column 1,,
Host Date-Time:,31/3/15 @ 12:4:56,,
Header Version:,1,,
System Temp (C):,33.7,,
Detector Temp (C):,33.29,,
Humidity (%):,2.1,,
Lamp PD:,3819,,
Shift Vector Coefficients:,-10.5391,0.0761263,-0.000134223,,
Pixel to Wavelength Coefficients:,1775.68,-0.916766,-0.000235065,,
Serial Number:,5510004,,
Scan Config Name:,Column 1,,
Scan Config Type:,Slew,,
Section 1,,
Start wavelength (nm):,900,,
End wavelength (nm):,1700,,
Pattern Pixel Width (nm):,   7.03,,,,
Exposure (ms):,  0.635,,,,
Digital Resolution:,228,,
Num Repeats:,6,,
PGA Gain:,64,,
Total Measurement Time in sec:,  2.728,,
Wavelength (nm),Absorbance (AU),Reference Signal (unitless),Sample Signal (unitless)
901.51,0.034736,108485,100146
905.376,0.040964,121306,110387
909.237,0.042641,131909,119573
913.095,0.042758,143299,129863
916.948,0.043412,156982,142049
922.079,0.045319,179937,162107
925.923,0.045848,200504,180416
929.762,0.046428,222660,200085
933.597,0.047103,244426,219303
937.427,0.046412,263972,237217
941.254,0.046881,281845,253005
945.076,0.046622,297271,267012
950.165,0.046309,315605,283684
953.978,0.045387,328029,295478
957.786,0.046400,340470,305970
961.59,0.045585,352317,317211
965.389,0.046035,363056,326542
969.185,0.046587,373162,335205
972.976,0.046896,382632,343467
976.763,0.047436,391202,350724
981.806,0.048256,400190,358105
985.583,0.048691,406088,363019
989.355,0.049313,410162,366136
993.124,0.049975,412868,367990
996.888,0.050397,414263,368875
1000.65,0.050809,415476,369604
1004.4,0.052324,415479,368320
1009.41,0.053155,414358,366624
1013.15,0.054195,412923,364480
1016.89,0.054984,411526,362588
1020.63,0.055071,409066,360348
1024.36,0.054528,406777,358780
1028.09,0.054399,404427,356813
1031.82,0.054652,401911,354387
1036.78,0.053964,398410,351857
1040.49,0.053584,396204,350215
1044.2,0.053323,394236,348685
1047.91,0.052572,392042,347345
1051.61,0.052049,389823,345795
1055.31,0.051196,388234,345062
1059,0.050891,387599,344740
1063.92,0.049868,386688,344741
1067.61,0.048785,386598,345521
1071.29,0.048506,387377,346440
1074.96,0.048242,388536,347688
1078.63,0.047855,389855,349179
1082.3,0.046834,391215,351222
1085.96,0.046052,393215,353654
1090.84,0.045826,396270,356587
1094.49,0.045182,398760,359360
1098.14,0.044370,400987,362043
1101.79,0.044929,403477,363823
1105.43,0.044428,406116,366625
1109.06,0.044111,407701,368325
1112.7,0.044917,409859,369588
1117.53,0.043520,412494,373162
1121.15,0.045202,414909,373896
1124.77,0.045858,416559,374816
1128.38,0.046521,418532,376017
1131.99,0.048225,419956,375819
1135.6,0.050068,421946,376001
1139.2,0.051968,423881,376076
1143.99,0.054264,426786,376657
1147.58,0.054832,428617,377779
1151.17,0.056022,431169,378988
1154.75,0.057543,433579,379774
1158.33,0.059097,436264,380761
1161.91,0.061651,439132,381017
1165.48,0.064163,442389,381629
1169.04,0.066506,446101,382761
1173.79,0.069830,451929,384805
1177.34,0.072631,456026,385797
1180.9,0.074616,461306,388484
1184.44,0.076611,467657,392027
1187.99,0.077491,473969,396514
1191.52,0.077399,479856,401524
1195.06,0.077032,487372,408158
1199.76,0.076020,497347,417484
1203.29,0.075224,504311,424106
1206.81,0.074103,511507,431269
1210.33,0.073879,519078,437878
1213.84,0.073086,527163,445511
1217.35,0.072467,534208,452109
1220.85,0.071438,540472,458496
1225.51,0.070583,549929,467438
1229.01,0.070238,556888,473729
1232.5,0.069203,562180,479372
1235.98,0.068747,567975,484822
1239.46,0.067081,574815,492546
1242.94,0.066346,582782,500219
1246.41,0.065835,591476,508279
1251.03,0.065858,604016,519027
1254.5,0.065963,612289,526009
1257.96,0.066304,619125,531464
1261.41,0.066821,624551,535484
1264.86,0.067592,629900,539113
1268.31,0.068221,634345,542131
1271.75,0.069248,638574,544456
1276.33,0.069105,642499,547983
1279.76,0.069272,645905,550677
1283.19,0.068694,648307,553460
1286.61,0.068741,650446,555226
1290.03,0.067929,652132,557708
1293.44,0.067700,653907,559520
1296.85,0.067398,655963,561670
1301.39,0.066997,657349,563377
1304.8,0.067161,657558,563343
1308.19,0.067285,658515,564002
1311.58,0.067633,658804,563797
1314.97,0.067989,659011,563512
1318.36,0.068476,658272,562250
1321.73,0.069024,658022,561328
1326.23,0.069899,657870,560069
1329.6,0.070820,656482,557703
1332.97,0.071770,654926,555165
1336.33,0.073423,653727,552044
1339.69,0.075137,652497,548835
1343.04,0.076651,649913,544759
1346.39,0.078670,647671,540362
1349.73,0.081307,645338,535156
1354.18,0.084247,641175,528116
1357.52,0.086641,638376,522920
1360.85,0.088401,635805,518708
1364.17,0.090903,633413,513788
1367.49,0.093475,631026,508830
1370.81,0.096191,628050,503272
1374.12,0.098447,625034,498261
1378.54,0.101729,620272,490742
1381.84,0.105333,616892,484034
1385.14,0.109443,613613,476927
1388.43,0.113973,611526,470372
1391.72,0.118401,610663,464944
1395.01,0.123609,610634,459380
1398.29,0.128857,611700,454655
1402.66,0.136433,614051,448509
1405.93,0.142491,616268,443893
1409.2,0.148648,617795,438729
1412.46,0.153129,618872,434983
1415.72,0.158498,619795,430279
1418.98,0.162489,620495,426824
1422.23,0.165929,621087,423861
1426.56,0.170726,621375,419399
1429.8,0.173847,621616,416558
1433.04,0.175857,622129,414976
1436.27,0.178844,621526,411733
1439.5,0.180725,621113,409681
1442.72,0.184228,620921,406264
1445.94,0.185729,620270,404438
1450.23,0.189050,618860,400445
1453.44,0.192290,617697,396721
1456.64,0.195224,616264,393136
1459.85,0.198536,614413,388977
1463.04,0.200382,612307,386000
1466.24,0.204628,610032,380824
1469.43,0.208268,607345,375982
1473.67,0.213789,603789,369059
1476.85,0.218970,601175,363104
1480.02,0.225124,597737,355948
1483.19,0.231414,594479,348917
1486.36,0.237658,591232,342058
1489.52,0.242290,587853,336495
1492.68,0.245808,583875,331522
1496.89,0.248026,578062,326549
1500.03,0.248471,574159,324012
1503.18,0.249427,570285,321118
1506.32,0.248561,565444,319028
1509.45,0.246712,560571,317628
1512.58,0.245394,555821,315894
1515.71,0.243534,550344,314123
1519.87,0.240096,543983,312960
1522.99,0.237333,538764,311936
1526.1,0.234198,533692,311238
1529.21,0.231175,527902,310012
1532.32,0.228606,521886,308297
1535.42,0.225418,515888,306999
1538.51,0.222230,509987,305724
1541.6,0.219148,503936,304248
1545.72,0.214911,494694,301596
1548.8,0.211826,488378,299868
1551.88,0.209286,481832,297584
1554.95,0.206655,474989,295140
1558.02,0.204453,467818,292162
1561.08,0.203323,460730,288485
1564.15,0.203005,454170,284586
1568.22,0.201789,444181,279107
1571.27,0.201295,436947,274874
1574.32,0.200266,429598,270892
1577.36,0.197834,422039,267620
1580.4,0.197477,414375,262976
1583.43,0.195162,406354,259264
1586.46,0.192915,398475,255556
1590.49,0.191314,388982,250389
1593.51,0.189634,380708,246013
1596.53,0.186964,372727,242341
1599.54,0.184801,365060,238541
1602.55,0.182203,357543,235031
1605.55,0.180842,349495,230462
1608.55,0.177777,341154,226555
1612.54,0.176203,330877,220528
1615.53,0.173808,322904,216404
1618.51,0.172579,315116,211783
1621.49,0.171374,307217,207048
1624.47,0.169661,299481,202632
1627.44,0.169466,292112,197735
1630.41,0.168534,284245,192823
1634.36,0.166362,274079,186859
1637.32,0.165409,266916,182375
1640.27,0.164234,259612,177865
1643.22,0.162603,251804,173165
1646.16,0.163212,244348,167802
1649.1,0.161838,236703,163067
1652.04,0.160611,228171,157634
1655.95,0.158664,215408,149485
1658.88,0.154865,204937,143468
1661.8,0.152188,193395,136225
1664.72,0.144238,179728,128937
1667.63,0.135239,163642,119855
1670.54,0.125818,146312,109512
1673.44,0.113726,128451,98858
1677.31,0.098375,105080,83781
1680.21,0.091297,88906,72050
1683.1,0.088785,75033,61160
1685.99,0.092260,63520,51363
1688.87,0.098461,53714,42818
1691.75,0.102552,45653,36051
1694.62,0.114136,39137,30092
1697.49,0.109677,33776,26238
1701.31,0.116880,28175,21527