File: samples/wool/wool-000811/Column 1_050560_20150331_120447.csv
Method:,Column 1,,
Host Date-Time:,31/3/15 @ 12:4:47,,
Header Version:,1,,
System Temp (C):,33.7,,
Detector Temp (C):,33.24,,
Humidity (%):,2.15,,
Lamp PD:,3819,,
Shift Vector Coefficients:,-10.5391,0.0761263,-0.000134223,,
Pixel to Wavelength Coefficients:,1775.68,-0.916766,-0.000235065,,
Serial Number:,5510004,,
Scan Config Name:,Column 1,,
Scan Config Type:,Slew,,
Section 1,,
Start wavelength (nm):,900,,
End wavelength (nm):,1700,,
Pattern Pixel Width (nm):,   7.03,,,,
Exposure (ms):,  0.635,,,,
Digital Resolution:,228,,
Num Repeats:,6,,
PGA Gain:,64,,
Total Measurement Time in sec:,  2.692,,
Wavelength (nm),Absorbance (AU),Reference Signal (unitless),Sample Signal (unitless)
901.51,0.033597,108485,100409
905.376,0.041681,121306,110205
909.237,0.042482,131909,119617
913.095,0.042848,143299,129836
916.948,0.045136,156982,141486
922.079,0.045276,179937,162123
925.923,0.046993,200504,179941
929.762,0.047382,222660,199646
933.597,0.047705,244426,218999
937.427,0.046896,263972,236953
941.254,0.047190,281845,252825
945.076,0.046714,297271,266955
950.165,0.046916,315605,283288
953.978,0.046109,328029,294987
957.786,0.046257,340470,306071
961.59,0.047020,352317,316165
965.389,0.046949,363056,325855
969.185,0.046811,373162,335032
972.976,0.047306,382632,343143
976.763,0.047805,391202,350426
981.806,0.047611,400190,358637
985.583,0.049101,406088,362676
989.355,0.049215,410162,366219
993.124,0.050503,412868,367543
996.888,0.050656,414263,368655
1000.65,0.051549,415476,368975
1004.4,0.052608,415479,368079
1009.41,0.053837,414358,366049
1013.15,0.054621,412923,364123
1016.89,0.055425,411526,362220
1020.63,0.054540,409066,360789
1024.36,0.055224,406777,358206
1028.09,0.054806,404427,356479
1031.82,0.054560,401911,354462
1036.78,0.053936,398410,351880
1040.49,0.053907,396204,349955
1044.2,0.053586,394236,348474
1047.91,0.052986,392042,347014
1051.61,0.052709,389823,345270
1055.31,0.052033,388234,344398
1059,0.051105,387599,344570
1063.92,0.050368,386688,344344
1067.61,0.049689,386598,344803
1071.29,0.049264,387377,345836
1074.96,0.048755,388536,347277
1078.63,0.047887,389855,349153
1082.3,0.046499,391215,351493
1085.96,0.046303,393215,353449
1090.84,0.045939,396270,356494
1094.49,0.045793,398760,358855
1098.14,0.045225,400987,361331
1101.79,0.044311,403477,364341
1105.43,0.044705,406116,366391
1109.06,0.044522,407701,367976
1112.7,0.044179,409859,370216
1117.53,0.044205,412494,372574
1121.15,0.045079,414909,374002
1124.77,0.045555,416559,375078
1128.38,0.046670,418532,375888
1131.99,0.048223,419956,375821
1135.6,0.050223,421946,375867
1139.2,0.052502,423881,375614
1143.99,0.054656,426786,376317
1147.58,0.055500,428617,377198
1151.17,0.056309,431169,378738
1154.75,0.057768,433579,379577
1158.33,0.059922,436264,380038
1161.91,0.061479,439132,381168
1165.48,0.064180,442389,381614
1169.04,0.066841,446101,382465
1173.79,0.070556,451929,384162
1177.34,0.073238,456026,385258
1180.9,0.075236,461306,387930
1184.44,0.077228,467657,391471
1187.99,0.077965,473969,396082
1191.52,0.077630,479856,401311
1195.06,0.077259,487372,407945
1199.76,0.076192,497347,417318
1203.29,0.075408,504311,423926
1206.81,0.074757,511507,430620
1210.33,0.073706,519078,438053
1213.84,0.072968,527163,445633
1217.35,0.072654,534208,451915
1220.85,0.071252,540472,458692
1225.51,0.070796,549929,467208
1229.01,0.070082,556888,473899
1232.5,0.069412,562180,479141
1235.98,0.068699,567975,484875
1239.46,0.067788,574815,491745
1242.94,0.066825,582782,499667
1246.41,0.066133,591476,507930
1251.03,0.065938,604016,518932
1254.5,0.066260,612289,525650
1257.96,0.066560,619125,531151
1261.41,0.067490,624551,534660
1264.86,0.067980,629900,538631
1268.31,0.068507,634345,541774
1271.75,0.069109,638574,544631
1276.33,0.069585,642499,547378
1279.76,0.069447,645905,550455
1283.19,0.068658,648307,553507
1286.61,0.068492,650446,555545
1290.03,0.068056,652132,557544
1293.44,0.067980,653907,559160
1296.85,0.067373,655963,561703
1301.39,0.067521,657349,562698
1304.8,0.067171,657558,563330
1308.19,0.067642,658515,563538
1311.58,0.067657,658804,563766
1314.97,0.068285,659011,563129
1318.36,0.068725,658272,561928
1321.73,0.068765,658022,561662
1326.23,0.070039,657870,559888
1329.6,0.070659,656482,557910
1332.97,0.071922,654926,554971
1336.33,0.073237,653727,552280
1339.69,0.074825,652497,549229
1343.04,0.076922,649913,544419
1346.39,0.079007,647671,539943
1349.73,0.080907,645338,535649
1354.18,0.084599,641175,527688
1357.52,0.086709,638376,522838
1360.85,0.088778,635805,518258
1364.17,0.090917,633413,513772
1367.49,0.093394,631026,508924
1370.81,0.095878,628050,503635
1374.12,0.098261,625034,498474
1378.54,0.101833,620272,490625
1381.84,0.105832,616892,483478
1385.14,0.109598,613613,476756
1388.43,0.114125,611526,470208
1391.72,0.119042,610663,464258
1395.01,0.124237,610634,458716
1398.29,0.129502,611700,453980
1402.66,0.136939,614051,447987
1405.93,0.142780,616268,443598
1409.2,0.148307,617795,439074
1412.46,0.154017,618872,434094
1415.72,0.158719,619795,430060
1418.98,0.162573,620495,426742
1422.23,0.166833,621087,422980
1426.56,0.171214,621375,418928
1429.8,0.173273,621616,417109
1433.04,0.176479,622129,414383
1436.27,0.178771,621526,411802
1439.5,0.181049,621113,409375
1442.72,0.183754,620921,406708
1445.94,0.186168,620270,404029
1450.23,0.190233,618860,399355
1453.44,0.193122,617697,395962
1456.64,0.196264,616264,392196
1459.85,0.198805,614413,388737
1463.04,0.201730,612307,384804
1466.24,0.205045,610032,380459
1469.43,0.208278,607345,375974
1473.67,0.214059,603789,368830
1476.85,0.219747,601175,362455
1480.02,0.225087,597737,355978
1483.19,0.232005,594479,348443
1486.36,0.238061,591232,341741
1489.52,0.243198,587853,335792
1492.68,0.246771,583875,330787
1496.89,0.248393,578062,326273
1500.03,0.249873,574159,322968
1503.18,0.249912,570285,320760
1506.32,0.249003,565444,318703
1509.45,0.247426,560571,317106
1512.58,0.245857,555821,315557
1515.71,0.243290,550344,314300
1519.87,0.240521,543983,312654
1522.99,0.237290,538764,311967
1526.1,0.234949,533692,310700
1529.21,0.231644,527902,309677
1532.32,0.228764,521886,308185
1535.42,0.225850,515888,306694
1538.51,0.223209,509987,305035
1541.6,0.219455,503936,304033
1545.72,0.215356,494694,301287
1548.8,0.211697,488378,299957
1551.88,0.208554,481832,298086
1554.95,0.207331,474989,294681
1558.02,0.205179,467818,291674
1561.08,0.203542,460730,288340
1564.15,0.203445,454170,284298
1568.22,0.203098,444181,278267
1571.27,0.201112,436947,274990
1574.32,0.200694,429598,270625
1577.36,0.199380,422039,266669
1580.4,0.197849,414375,262751
1583.43,0.195209,406354,259236
1586.46,0.193922,398475,254964
1590.49,0.192269,388982,249839
1593.51,0.189807,380708,245915
1596.53,0.187649,372727,241959
1599.54,0.185457,365060,238181
1602.55,0.183295,357543,234441
1605.55,0.180455,349495,230667
1608.55,0.178692,341154,226078
1612.54,0.175377,330877,220948
1615.53,0.174421,322904,216099
1618.51,0.172875,315116,211639
1621.49,0.171987,307217,206756
1624.47,0.171571,299481,201743
1627.44,0.170143,292112,197427
1630.41,0.168647,284245,192773
1634.36,0.166278,274079,186895
1637.32,0.166578,266916,181885
1640.27,0.164606,259612,177713
1643.22,0.163720,251804,172720
1646.16,0.163753,244348,167593
1649.1,0.162896,236703,162670
1652.04,0.161002,228171,157492
1655.95,0.158113,215408,149675
1658.88,0.156354,204937,142977
1661.8,0.152546,193395,136113
1664.72,0.144929,179728,128732
1667.63,0.137331,163642,119279
1670.54,0.125541,146312,109582
1673.44,0.113554,128451,98897
1677.31,0.100609,105080,83351
1680.21,0.090352,88906,72207
1683.1,0.091384,75033,60795
1685.99,0.095204,63520,51016
1688.87,0.097458,53714,42917
1691.75,0.099718,45653,36287
1694.62,0.110916,39137,30316
1697.49,0.113969,33776,25980
1701.31,0.124451,28175,21155