File: samples/wool/wool-000811/Column 1_050621_20150331_123340.csv
Method:,Column 1,,
Host Date-Time:,31/3/15 @ 12:33:40,,
Header Version:,1,,
System Temp (C):,34.15,,
Detector Temp (C):,34.98,,
Humidity (%):,1.56,,
Lamp PD:,3818,,
Shift Vector Coefficients:,-10.5391,0.0761263,-0.000134223,,
Pixel to Wavelength Coefficients:,1775.68,-0.916766,-0.000235065,,
Serial Number:,5510004,,
Scan Config Name:,Column 1,,
Scan Config Type:,Slew,,
Section 1,,
Start wavelength (nm):,900,,
End wavelength (nm):,1700,,
Pattern Pixel Width (nm):,   7.03,,,,
Exposure (ms):,  0.635,,,,
Digital Resolution:,228,,
Num Repeats:,6,,
PGA Gain:,64,,
Total Measurement Time in sec:,  2.673,,
Wavelength (nm),Absorbance (AU),Reference Signal (unitless),Sample Signal (unitless)
901.51,0.069050,108485,92538
905.376,0.075725,121306,101896
909.237,0.076731,131909,110546
913.095,0.078581,143299,119581
916.948,0.080036,156982,130561
922.079,0.080395,179937,149529
925.923,0.082007,200504,166003
929.762,0.081375,222660,184615
933.597,0.082175,244426,202289
937.427,0.080482,263972,219319
941.254,0.080018,281845,234419
945.076,0.078985,297271,247838
950.165,0.078388,315605,263485
953.978,0.077655,328029,274320
957.786,0.077833,340470,284607
961.59,0.077950,352317,294431
965.389,0.077834,363056,303487
969.185,0.077801,373162,311958
972.976,0.077616,382632,320011
976.763,0.078409,391202,326582
981.806,0.079196,400190,333480
985.583,0.079386,406088,338247
989.355,0.079743,410162,341360
993.124,0.080250,412868,343211
996.888,0.080825,414263,343915
1000.65,0.081666,415476,344255
1004.4,0.082558,415479,343551
1009.41,0.084181,414358,341346
1013.15,0.084105,412923,340223
1016.89,0.084944,411526,338418
1020.63,0.084501,409066,336738
1024.36,0.084792,406777,334630
1028.09,0.084556,404427,332877
1031.82,0.084324,401911,330983
1036.78,0.083850,398410,328458
1040.49,0.084085,396204,326463
1044.2,0.083496,394236,325282
1047.91,0.083363,392042,323571
1051.61,0.083033,389823,321984
1055.31,0.082931,388234,320747
1059,0.082895,387599,320249
1063.92,0.081432,386688,320574
1067.61,0.080602,386598,321113
1071.29,0.080264,387377,322010
1074.96,0.080199,388536,323022
1078.63,0.079135,389855,324914
1082.3,0.077893,391215,326981
1085.96,0.077197,393215,329180
1090.84,0.076226,396270,332480
1094.49,0.076275,398760,334531
1098.14,0.075735,400987,336818
1101.79,0.074841,403477,339608
1105.43,0.075264,406116,341496
1109.06,0.073655,407701,344102
1112.7,0.074131,409859,345544
1117.53,0.073237,412494,348482
1121.15,0.073870,414909,350012
1124.77,0.073723,416559,351523
1128.38,0.075186,418532,352000
1131.99,0.076164,419956,352403
1135.6,0.077335,421946,353120
1139.2,0.078395,423881,353874
1143.99,0.080094,426786,354908
1147.58,0.080662,428617,355965
1151.17,0.081871,431169,357089
1154.75,0.083049,433579,358112
1158.33,0.084372,436264,359234
1161.91,0.085739,439132,360459
1165.48,0.087869,442389,361356
1169.04,0.089995,446101,362609
1173.79,0.093343,451929,364525
1177.34,0.096191,456026,365425
1180.9,0.098252,461306,367906
1184.44,0.100006,467657,371468
1187.99,0.100629,473969,375942
1191.52,0.100784,479856,380476
1195.06,0.101200,487372,386065
1199.76,0.099973,497347,395081
1203.29,0.099498,504311,401052
1206.81,0.098943,511507,407295
1210.33,0.098702,519078,413552
1213.84,0.097824,527163,420844
1217.35,0.097206,534208,427075
1220.85,0.096459,540472,432827
1225.51,0.095578,549929,441295
1229.01,0.095672,556888,446782
1232.5,0.094531,562180,452214
1235.98,0.094001,567975,457434
1239.46,0.092903,574815,464114
1242.94,0.092066,582782,471455
1246.41,0.091473,591476,479142
1251.03,0.091420,604016,489360
1254.5,0.091641,612289,495810
1257.96,0.091889,619125,501059
1261.41,0.092385,624551,504874
1264.86,0.092637,629900,508903
1268.31,0.093366,634345,511634
1271.75,0.093974,638574,514325
1276.33,0.094497,642499,516863
1279.76,0.094243,645905,519907
1283.19,0.093403,648307,522851
1286.61,0.093313,650446,524684
1290.03,0.092894,652132,526552
1293.44,0.092321,653907,528683
1296.85,0.092250,655963,530432
1301.39,0.091576,657349,532378
1304.8,0.091698,657558,532397
1308.19,0.091508,658515,533406
1311.58,0.092287,658804,532683
1314.97,0.092645,659011,532412
1318.36,0.093021,658272,531354
1321.73,0.093287,658022,530828
1326.23,0.093685,657870,530219
1329.6,0.094396,656482,528235
1332.97,0.094961,654926,526298
1336.33,0.096137,653727,523913
1339.69,0.097958,652497,520739
1343.04,0.099275,649913,517107
1346.39,0.100855,647671,513451
1349.73,0.102954,645338,509135
1354.18,0.105593,641175,502786
1357.52,0.107568,638376,498320
1360.85,0.109721,635805,493859
1364.17,0.112035,633413,489386
1367.49,0.114010,631026,485330
1370.81,0.116048,628050,480780
1374.12,0.118177,625034,476131
1378.54,0.121136,620272,469295
1381.84,0.123726,616892,463963
1385.14,0.127081,613613,457945
1388.43,0.130361,611526,452954
1391.72,0.134544,610663,447979
1395.01,0.138326,610634,444074
1398.29,0.142201,611700,440897
1402.66,0.148217,614051,436503
1405.93,0.152909,616268,433372
1409.2,0.157223,617795,430151
1412.46,0.161674,618872,426508
1415.72,0.165697,619795,423205
1418.98,0.168746,620495,420719
1422.23,0.172330,621087,417660
1426.56,0.175648,621375,414673
1429.8,0.178290,621616,412318
1433.04,0.181047,622129,410047
1436.27,0.182803,621526,407996
1439.5,0.184532,621113,406105
1442.72,0.187425,620921,403284
1445.94,0.190298,620270,400205
1450.23,0.193126,618860,396704
1453.44,0.196286,617697,393088
1456.64,0.198912,616264,389812
1459.85,0.202183,614413,385725
1463.04,0.204532,612307,382329
1466.24,0.208566,610032,377387
1469.43,0.212537,607345,372305
1473.67,0.219175,603789,364511
1476.85,0.224806,601175,358257
1480.02,0.231048,597737,351125
1483.19,0.237904,594479,343742
1486.36,0.243685,591232,337344
1489.52,0.247963,587853,332128
1492.68,0.251765,583875,327005
1496.89,0.253609,578062,322378
1500.03,0.255107,574159,319099
1503.18,0.254317,570285,317523
1506.32,0.253503,565444,315418
1509.45,0.252138,560571,313684
1512.58,0.251000,555821,311842
1515.71,0.248278,550344,310711
1519.87,0.245033,543983,309423
1522.99,0.242143,538764,308500
1526.1,0.240332,533692,306873
1529.21,0.237374,527902,305618
1532.32,0.234028,521886,304472
1535.42,0.231220,515888,302925
1538.51,0.228822,509987,301118
1541.6,0.226028,503936,299466
1545.72,0.221433,494694,297101
1548.8,0.219027,488378,294937
1551.88,0.216317,481832,292805
1554.95,0.214981,474989,289536
1558.02,0.212695,467818,286670
1561.08,0.211771,460730,282928
1564.15,0.211927,454170,278799
1568.22,0.210711,444181,273432
1571.27,0.209844,436947,269516
1574.32,0.209682,429598,265082
1577.36,0.207547,422039,261701
1580.4,0.206505,414375,257566
1583.43,0.205084,406354,253408
1586.46,0.204027,398475,249100
1590.49,0.201812,388982,244409
1593.51,0.200044,380708,240186
1596.53,0.197688,372727,236430
1599.54,0.195840,365060,232554
1602.55,0.194758,357543,228334
1605.55,0.191983,349495,224625
1608.55,0.189900,341154,220318
1612.54,0.188444,330877,214399
1615.53,0.186683,322904,210083
1618.51,0.184947,315116,205837
1621.49,0.185242,307217,200541
1624.47,0.183672,299481,196199
1627.44,0.183467,292112,191462
1630.41,0.181522,284245,187142
1634.36,0.180423,274079,180906
1637.32,0.180002,266916,176349
1640.27,0.180562,259612,171302
1643.22,0.178065,251804,167108
1646.16,0.177508,244348,162368
1649.1,0.177105,236703,157434
1652.04,0.175085,228171,152467
1655.95,0.172029,215408,144955
1658.88,0.167622,204937,139315
1661.8,0.161573,193395,133313
1664.72,0.154235,179728,126003
1667.63,0.142665,163642,117823
1670.54,0.128919,146312,108733
1673.44,0.110326,128451,99635
1677.31,0.090877,105080,85240
1680.21,0.078802,88906,74153
1683.1,0.075719,75033,63028
1685.99,0.075548,63520,53378
1688.87,0.076238,53714,45066
1691.75,0.080109,45653,37963
1694.62,0.089042,39137,31882
1697.49,0.087762,33776,27596
1701.31,0.092596,28175,22765