File: samples/wool/wool-000811/Column 1_050568_20150331_120815.csv
Method:,Column 1,,
Host Date-Time:,31/3/15 @ 12:8:15,,
Header Version:,1,,
System Temp (C):,33.97,,
Detector Temp (C):,33.92,,
Humidity (%):,1.86,,
Lamp PD:,3818,,
Shift Vector Coefficients:,-10.5391,0.0761263,-0.000134223,,
Pixel to Wavelength Coefficients:,1775.68,-0.916766,-0.000235065,,
Serial Number:,5510004,,
Scan Config Name:,Column 1,,
Scan Config Type:,Slew,,
Section 1,,
Start wavelength (nm):,900,,
End wavelength (nm):,1700,,
Pattern Pixel Width (nm):,   7.03,,,,
Exposure (ms):,  0.635,,,,
Digital Resolution:,228,,
Num Repeats:,6,,
PGA Gain:,64,,
Total Measurement Time in sec:,  2.673,,
Wavelength (nm),Absorbance (AU),Reference Signal (unitless),Sample Signal (unitless)
901.51,0.033204,108485,100500
905.376,0.039315,121306,110807
909.237,0.043390,131909,119367
913.095,0.043802,143299,129551
916.948,0.043363,156982,142065
922.079,0.046851,179937,161536
925.923,0.047577,200504,179699
929.762,0.048536,222660,199116
933.597,0.049072,244426,218311
937.427,0.047969,263972,236368
941.254,0.048574,281845,252021
945.076,0.047475,297271,266488
950.165,0.046231,315605,283735
953.978,0.046491,328029,294728
957.786,0.046428,340470,305950
961.59,0.047023,352317,316163
965.389,0.047033,363056,325792
969.185,0.046631,373162,335171
972.976,0.047406,382632,343064
976.763,0.048233,391202,350081
981.806,0.048548,400190,357864
985.583,0.049335,406088,362481
989.355,0.049965,410162,365587
993.124,0.049547,412868,368353
996.888,0.050993,414263,368369
1000.65,0.051889,415476,368686
1004.4,0.052764,415479,367947
1009.41,0.054137,414358,365796
1013.15,0.054880,412923,363906
1016.89,0.054902,411526,362656
1020.63,0.055045,409066,360370
1024.36,0.054757,406777,358591
1028.09,0.054687,404427,356577
1031.82,0.054412,401911,354583
1036.78,0.054146,398410,351710
1040.49,0.054165,396204,349747
1044.2,0.053530,394236,348519
1047.91,0.052757,392042,347197
1051.61,0.052582,389823,345371
1055.31,0.052321,388234,344170
1059,0.051860,387599,343972
1063.92,0.050407,386688,344313
1067.61,0.049636,386598,344845
1071.29,0.049211,387377,345878
1074.96,0.048660,388536,347353
1078.63,0.047749,389855,349264
1082.3,0.047330,391215,350821
1085.96,0.046565,393215,353236
1090.84,0.045979,396270,356461
1094.49,0.045560,398760,359047
1098.14,0.045232,400987,361325
1101.79,0.045198,403477,363597
1105.43,0.044275,406116,366754
1109.06,0.044454,407701,368034
1112.7,0.044551,409859,369899
1117.53,0.044577,412494,372255
1121.15,0.044978,414909,374089
1124.77,0.045480,416559,375143
1128.38,0.046530,418532,376009
1131.99,0.047393,419956,376540
1135.6,0.050248,421946,375845
1139.2,0.051570,423881,376421
1143.99,0.054094,426786,376805
1147.58,0.055386,428617,377297
1151.17,0.056034,431169,378978
1154.75,0.057438,433579,379866
1158.33,0.059007,436264,380840
1161.91,0.061354,439132,381277
1165.48,0.064133,442389,381655
1169.04,0.066490,446101,382775
1173.79,0.070139,451929,384531
1177.34,0.072146,456026,386228
1180.9,0.075133,461306,388022
1184.44,0.076476,467657,392149
1187.99,0.077120,473969,396853
1191.52,0.077046,479856,401851
1195.06,0.077014,487372,408175
1199.76,0.075917,497347,417583
1203.29,0.075466,504311,423870
1206.81,0.074690,511507,430687
1210.33,0.073481,519078,438280
1213.84,0.072894,527163,445709
1217.35,0.072491,534208,452084
1220.85,0.071163,540472,458786
1225.51,0.070193,549929,467858
1229.01,0.069789,556888,474219
1232.5,0.069396,562180,479159
1235.98,0.068386,567975,485225
1239.46,0.067571,574815,491991
1242.94,0.066217,582782,500368
1246.41,0.065925,591476,508174
1251.03,0.065730,604016,519180
1254.5,0.065994,612289,525972
1257.96,0.066449,619125,531287
1261.41,0.066660,624551,535683
1264.86,0.067706,629900,538971
1268.31,0.068169,634345,542196
1271.75,0.068966,638574,544810
1276.33,0.069191,642499,547875
1279.76,0.069085,645905,550914
1283.19,0.068762,648307,553374
1286.61,0.068379,650446,555690
1290.03,0.067735,652132,557957
1293.44,0.067329,653907,559999
1296.85,0.067457,655963,561594
1301.39,0.067229,657349,563076
1304.8,0.066860,657558,563734
1308.19,0.067262,658515,564032
1311.58,0.067546,658804,563911
1314.97,0.067785,659011,563777
1318.36,0.068464,658272,562265
1321.73,0.069010,658022,561346
1326.23,0.069708,657870,560315
1329.6,0.070359,656482,558295
1332.97,0.071554,654926,555442
1336.33,0.072576,653727,553121
1339.69,0.074539,652497,549591
1343.04,0.076111,649913,545437
1346.39,0.078635,647671,540405
1349.73,0.080316,645338,536378
1354.18,0.083462,641175,529072
1357.52,0.085707,638376,524046
1360.85,0.088101,635805,519067
1364.17,0.090197,633413,514624
1367.49,0.092534,631026,509933
1370.81,0.095227,628050,504391
1374.12,0.097546,625034,499295
1378.54,0.101035,620272,491527
1381.84,0.104173,616892,485329
1385.14,0.108052,613613,478457
1388.43,0.112244,611526,472249
1391.72,0.117245,610663,466183
1395.01,0.122020,610634,461064
1398.29,0.127427,611700,456154
1402.66,0.134738,614051,450263
1405.93,0.140684,616268,445744
1409.2,0.145485,617795,441936
1412.46,0.150539,618872,437584
1415.72,0.155090,619795,433669
1418.98,0.159281,620495,429989
1422.23,0.163092,621087,426639
1426.56,0.167267,621375,422753
1429.8,0.169308,621616,420934
1433.04,0.172646,622129,418056
1436.27,0.175090,621526,415307
1439.5,0.177056,621113,413157
1442.72,0.179756,620921,410469
1445.94,0.182529,620270,407429
1450.23,0.185593,618860,403645
1453.44,0.188990,617697,399747
1456.64,0.192037,616264,396032
1459.85,0.194862,614413,392282
1463.04,0.197668,612307,388420
1466.24,0.201094,610032,383936
1469.43,0.204972,607345,378847
1473.67,0.210231,603789,372095
1476.85,0.216996,601175,364758
1480.02,0.223353,597737,357402
1483.19,0.229705,594479,350293
1486.36,0.236106,591232,343283
1489.52,0.240767,587853,337677
1492.68,0.244694,583875,332373
1496.89,0.246619,578062,327609
1500.03,0.247645,574159,324629
1503.18,0.248076,570285,322119
1506.32,0.247290,565444,319963
1509.45,0.245160,560571,318765
1512.58,0.243694,555821,317133
1515.71,0.241724,550344,315435
1519.87,0.237905,543983,314543
1522.99,0.235489,538764,313263
1526.1,0.232619,533692,312372
1529.21,0.229410,527902,311274
1532.32,0.227218,521886,309284
1535.42,0.224298,515888,307792
1538.51,0.220466,509987,306968
1541.6,0.217312,503936,305537
1545.72,0.213459,494694,302606
1548.8,0.209812,488378,301262
1551.88,0.207179,481832,299031
1554.95,0.205160,474989,296158
1558.02,0.203100,467818,293074
1561.08,0.201054,460730,289996
1564.15,0.201593,454170,285513
1568.22,0.199878,444181,280338
1571.27,0.199081,436947,276279
1574.32,0.198382,429598,272070
1577.36,0.196543,422039,268417
1580.4,0.195673,414375,264071
1583.43,0.193539,406354,260235
1586.46,0.192034,398475,256075
1590.49,0.189785,388982,251272
1593.51,0.188124,380708,246870
1596.53,0.185508,372727,243155
1599.54,0.183705,365060,239144
1602.55,0.181559,357543,235380
1605.55,0.179265,349495,231300
1608.55,0.177556,341154,226670
1612.54,0.174287,330877,221503
1615.53,0.171614,322904,217500
1618.51,0.171175,315116,212469
1621.49,0.170398,307217,207514
1624.47,0.168604,299481,203126
1627.44,0.167903,292112,198448
1630.41,0.166911,284245,193545
1634.36,0.163986,274079,187884
1637.32,0.164140,266916,182909
1640.27,0.163259,259612,178265
1643.22,0.162229,251804,173314
1646.16,0.160881,244348,168705
1649.1,0.160912,236703,163415
1652.04,0.159029,228171,158209
1655.95,0.156783,215408,150134
1658.88,0.154532,204937,143578
1661.8,0.148942,193395,137247
1664.72,0.141954,179728,129617
1667.63,0.131407,163642,120917
1670.54,0.118282,146312,111429
1673.44,0.106917,128451,100420
1677.31,0.089259,105080,85558
1680.21,0.082502,88906,73524
1683.1,0.079157,75033,62531
1685.99,0.078413,63520,53027
1688.87,0.083194,53714,44350
1691.75,0.087237,45653,37345
1694.62,0.098363,39137,31205
1697.49,0.098098,33776,26947
1701.31,0.101929,28175,22281