File: samples/wool/wool-000811/Column 1_050615_20150331_123054.csv
Method:,Column 1,,
Host Date-Time:,31/3/15 @ 12:30:54,,
Header Version:,1,,
System Temp (C):,34.1,,
Detector Temp (C):,34.92,,
Humidity (%):,1.66,,
Lamp PD:,3819,,
Shift Vector Coefficients:,-10.5391,0.0761263,-0.000134223,,
Pixel to Wavelength Coefficients:,1775.68,-0.916766,-0.000235065,,
Serial Number:,5510004,,
Scan Config Name:,Column 1,,
Scan Config Type:,Slew,,
Section 1,,
Start wavelength (nm):,900,,
End wavelength (nm):,1700,,
Pattern Pixel Width (nm):,   7.03,,,,
Exposure (ms):,  0.635,,,,
Digital Resolution:,228,,
Num Repeats:,6,,
PGA Gain:,64,,
Total Measurement Time in sec:,  2.664,,
Wavelength (nm),Absorbance (AU),Reference Signal (unitless),Sample Signal (unitless)
901.51,0.070022,108485,92331
905.376,0.075674,121306,101908
909.237,0.076739,131909,110544
913.095,0.077529,143299,119871
916.948,0.079471,156982,130731
922.079,0.081293,179937,149220
925.923,0.083115,200504,165580
929.762,0.082652,222660,184073
933.597,0.082618,244426,202083
937.427,0.082128,263972,218489
941.254,0.080640,281845,234083
945.076,0.079255,297271,247684
950.165,0.078528,315605,263400
953.978,0.078203,328029,273974
957.786,0.077417,340470,284880
961.59,0.078294,352317,294198
965.389,0.077585,363056,303661
969.185,0.077810,373162,311952
972.976,0.078752,382632,319175
976.763,0.078405,391202,326585
981.806,0.079318,400190,333387
985.583,0.079743,406088,337969
989.355,0.079926,410162,341216
993.124,0.080658,412868,342889
996.888,0.081088,414263,343707
1000.65,0.081823,415476,344130
1004.4,0.082606,415479,343513
1009.41,0.083854,414358,341603
1013.15,0.085109,412923,339438
1016.89,0.085265,411526,338168
1020.63,0.085107,409066,336269
1024.36,0.084601,406777,334777
1028.09,0.085318,404427,332294
1031.82,0.084845,401911,330586
1036.78,0.084654,398410,327851
1040.49,0.084286,396204,326312
1044.2,0.083957,394236,324937
1047.91,0.084040,392042,323067
1051.61,0.083406,389823,321708
1055.31,0.083224,388234,320531
1059,0.082261,387599,320717
1063.92,0.081686,386688,320387
1067.61,0.080880,386598,320907
1071.29,0.080712,387377,321678
1074.96,0.080343,388536,322915
1078.63,0.079107,389855,324935
1082.3,0.078737,391215,326346
1085.96,0.077841,393215,328692
1090.84,0.076883,396270,331977
1094.49,0.076388,398760,334444
1098.14,0.075823,400987,336750
1101.79,0.074645,403477,339761
1105.43,0.074984,406116,341717
1109.06,0.074301,407701,343590
1112.7,0.073533,409859,346020
1117.53,0.073912,412494,347941
1121.15,0.074758,414909,349297
1124.77,0.073666,416559,351569
1128.38,0.075464,418532,351775
1131.99,0.075929,419956,352594
1135.6,0.077177,421946,353248
1139.2,0.078462,423881,353820
1143.99,0.081073,426786,354109
1147.58,0.082129,428617,354765
1151.17,0.082572,431169,356513
1154.75,0.083102,433579,358069
1158.33,0.084332,436264,359267
1161.91,0.086637,439132,359715
1165.48,0.088131,442389,361138
1169.04,0.090294,446101,362359
1173.79,0.094213,451929,363795
1177.34,0.096092,456026,365509
1180.9,0.098479,461306,367714
1184.44,0.100272,467657,371241
1187.99,0.100621,473969,375949
1191.52,0.101541,479856,379813
1195.06,0.101289,487372,385986
1199.76,0.100215,497347,394861
1203.29,0.099371,504311,401169
1206.81,0.099381,511507,406884
1210.33,0.098920,519078,413345
1213.84,0.097950,527163,420722
1217.35,0.097505,534208,426781
1220.85,0.096490,540472,432796
1225.51,0.095700,549929,441171
1229.01,0.095560,556888,446897
1232.5,0.094938,562180,451791
1235.98,0.094297,567975,457122
1239.46,0.093247,574815,463747
1242.94,0.092492,582782,470993
1246.41,0.091539,591476,479069
1251.03,0.091732,604016,489008
1254.5,0.091840,612289,495583
1257.96,0.092550,619125,500298
1261.41,0.092679,624551,504532
1264.86,0.093594,629900,507782
1268.31,0.093622,634345,511333
1271.75,0.094179,638574,514082
1276.33,0.094930,642499,516348
1279.76,0.094235,645905,519916
1283.19,0.093633,648307,522574
1286.61,0.093280,650446,524724
1290.03,0.093289,652132,526073
1293.44,0.092890,653907,527990
1296.85,0.093047,655963,529459
1301.39,0.092577,657349,531152
1304.8,0.092596,657558,531298
1308.19,0.092071,658515,532715
1311.58,0.092340,658804,532618
1314.97,0.092790,659011,532234
1318.36,0.093114,658272,531241
1321.73,0.093085,658022,531075
1326.23,0.094312,657870,529454
1329.6,0.094989,656482,527514
1332.97,0.095831,654926,525244
1336.33,0.096603,653727,523352
1339.69,0.098487,652497,520105
1343.04,0.099673,649913,516633
1346.39,0.101889,647671,512231
1349.73,0.103392,645338,508622
1354.18,0.106365,641175,501894
1357.52,0.108215,638376,497579
1360.85,0.110933,635805,492483
1364.17,0.112179,633413,489224
1367.49,0.114416,631026,484877
1370.81,0.116942,628050,479791
1374.12,0.118823,625034,475424
1378.54,0.121220,620272,469204
1381.84,0.124304,616892,463346
1385.14,0.127672,613613,457322
1388.43,0.131325,611526,451950
1391.72,0.135353,610663,447145
1395.01,0.138718,610634,443673
1398.29,0.142746,611700,440344
1402.66,0.149109,614051,435608
1405.93,0.153790,616268,432494
1409.2,0.158451,617795,428937
1412.46,0.162946,618872,425260
1415.72,0.166558,619795,422367
1418.98,0.170004,620495,419502
1422.23,0.173649,621087,416393
1426.56,0.177524,621375,412886
1429.8,0.179591,621616,411085
1433.04,0.182566,622129,408615
1436.27,0.184333,621526,406562
1439.5,0.186420,621113,404344
1442.72,0.188857,620921,401957
1445.94,0.190972,620270,399585
1450.23,0.194859,618860,395124
1453.44,0.197861,617697,391665
1456.64,0.200646,616264,388258
1459.85,0.203342,614413,384697
1463.04,0.206346,612307,380735
1466.24,0.209839,610032,376282
1469.43,0.213580,607345,371412
1473.67,0.219877,603789,363922
1476.85,0.225754,601175,357476
1480.02,0.232227,597737,350173
1483.19,0.238224,594479,343489
1486.36,0.244774,591232,336499
1489.52,0.249534,587853,330929
1492.68,0.252425,583875,326509
1496.89,0.254642,578062,321612
1500.03,0.254967,574159,319202
1503.18,0.255400,570285,316732
1506.32,0.253682,565444,315288
1509.45,0.252895,560571,313138
1512.58,0.250911,555821,311906
1515.71,0.248672,550344,310429
1519.87,0.246358,543983,308480
1522.99,0.243309,538764,307673
1526.1,0.240901,533692,306471
1529.21,0.238208,527902,305032
1532.32,0.235041,521886,303763
1535.42,0.232180,515888,302256
1538.51,0.230927,509987,299662
1541.6,0.226770,503936,298955
1545.72,0.223017,494694,296019
1548.8,0.219618,488378,294536
1551.88,0.217064,481832,292302
1554.95,0.216338,474989,288633
1558.02,0.213911,467818,285868
1561.08,0.212474,460730,282470
1564.15,0.212420,454170,278483
1568.22,0.211353,444181,273028
1571.27,0.210396,436947,269174
1574.32,0.210179,429598,264779
1577.36,0.208095,422039,261371
1580.4,0.208068,414375,256641
1583.43,0.206107,406354,252812
1586.46,0.203947,398475,249146
1590.49,0.202670,388982,243927
1593.51,0.200582,380708,239889
1596.53,0.198545,372727,235964
1599.54,0.197466,365060,231685
1602.55,0.194876,357543,228272
1605.55,0.192943,349495,224129
1608.55,0.191251,341154,219634
1612.54,0.189659,330877,213800
1615.53,0.188396,322904,209256
1618.51,0.187631,315116,204569
1621.49,0.185634,307217,200360
1624.47,0.185514,299481,195369
1627.44,0.183921,292112,191262
1630.41,0.182446,284245,186744
1634.36,0.180795,274079,180751
1637.32,0.180273,266916,176239
1640.27,0.180056,259612,171502
1643.22,0.178661,251804,166879
1646.16,0.178161,244348,162124
1649.1,0.177182,236703,157406
1652.04,0.176914,228171,151826
1655.95,0.173079,215408,144605
1658.88,0.168465,204937,139045
1661.8,0.163800,193395,132631
1664.72,0.155353,179728,125679
1667.63,0.144153,163642,117420
1670.54,0.129286,146312,108641
1673.44,0.113050,128451,99012
1677.31,0.093862,105080,84656
1680.21,0.081069,88906,73767
1683.1,0.075850,75033,63009
1685.99,0.074938,63520,53453
1688.87,0.077783,53714,44906
1691.75,0.085461,45653,37498
1694.62,0.087940,39137,31963
1697.49,0.092621,33776,27289
1701.31,0.098957,28175,22434