File: samples/wool/wool-000811/Column 1_050626_20150331_123545.csv
Method:,Column 1,,
Host Date-Time:,31/3/15 @ 12:35:45,,
Header Version:,1,,
System Temp (C):,34.15,,
Detector Temp (C):,35.02,,
Humidity (%):,1.56,,
Lamp PD:,3818,,
Shift Vector Coefficients:,-10.5391,0.0761263,-0.000134223,,
Pixel to Wavelength Coefficients:,1775.68,-0.916766,-0.000235065,,
Serial Number:,5510004,,
Scan Config Name:,Column 1,,
Scan Config Type:,Slew,,
Section 1,,
Start wavelength (nm):,900,,
End wavelength (nm):,1700,,
Pattern Pixel Width (nm):,   7.03,,,,
Exposure (ms):,  0.635,,,,
Digital Resolution:,228,,
Num Repeats:,6,,
PGA Gain:,64,,
Total Measurement Time in sec:,  2.672,,
Wavelength (nm),Absorbance (AU),Reference Signal (unitless),Sample Signal (unitless)
901.51,0.068684,108485,92616
905.376,0.075418,121306,101968
909.237,0.077837,131909,110265
913.095,0.078269,143299,119667
916.948,0.080436,156982,130441
922.079,0.080111,179937,149627
925.923,0.081955,200504,166023
929.762,0.082218,222660,184257
933.597,0.082059,244426,202343
937.427,0.081274,263972,218919
941.254,0.080546,281845,234134
945.076,0.079174,297271,247730
950.165,0.077925,315605,263766
953.978,0.077243,328029,274580
957.786,0.076910,340470,285213
961.59,0.077819,352317,294520
965.389,0.077326,363056,303842
969.185,0.077184,373162,312402
972.976,0.077668,382632,319973
976.763,0.078283,391202,326677
981.806,0.078941,400190,333676
985.583,0.079454,406088,338194
989.355,0.079931,410162,341212
993.124,0.080201,412868,343250
996.888,0.080427,414263,344230
1000.65,0.081480,415476,344402
1004.4,0.082342,415479,343722
1009.41,0.083971,414358,341511
1013.15,0.084002,412923,340304
1016.89,0.084367,411526,338868
1020.63,0.084566,409066,336688
1024.36,0.085103,406777,334390
1028.09,0.084387,404427,333007
1031.82,0.083886,401911,331317
1036.78,0.083649,398410,328610
1040.49,0.083590,396204,326835
1044.2,0.083616,394236,325192
1047.91,0.083174,392042,323712
1051.61,0.083040,389823,321979
1055.31,0.082662,388234,320946
1059,0.082385,387599,320625
1063.92,0.081266,386688,320697
1067.61,0.080306,386598,321332
1071.29,0.080047,387377,322171
1074.96,0.079172,388536,323787
1078.63,0.079129,389855,324918
1082.3,0.078072,391215,326846
1085.96,0.077224,393215,329159
1090.84,0.076585,396270,332205
1094.49,0.075729,398760,334952
1098.14,0.075258,400987,337188
1101.79,0.074659,403477,339750
1105.43,0.074107,406116,342407
1109.06,0.074167,407701,343696
1112.7,0.073582,409859,345981
1117.53,0.072764,412494,348862
1121.15,0.073447,414909,350353
1124.77,0.074129,416559,351194
1128.38,0.074828,418532,352290
1131.99,0.075371,419956,353047
1135.6,0.077143,421946,353276
1139.2,0.078089,423881,354124
1143.99,0.080479,426786,354594
1147.58,0.081430,428617,355336
1151.17,0.082085,431169,356913
1154.75,0.082400,433579,358648
1158.33,0.083692,436264,359797
1161.91,0.085577,439132,360594
1165.48,0.088128,442389,361141
1169.04,0.090250,446101,362396
1173.79,0.093067,451929,364757
1177.34,0.095732,456026,365812
1180.9,0.097686,461306,368386
1184.44,0.099288,467657,372083
1187.99,0.100953,473969,375662
1191.52,0.100768,479856,380490
1195.06,0.100678,487372,386529
1199.76,0.099980,497347,395075
1203.29,0.099024,504311,401490
1206.81,0.098468,511507,407740
1210.33,0.097970,519078,414250
1213.84,0.097532,527163,421127
1217.35,0.097241,534208,427041
1220.85,0.096340,540472,432945
1225.51,0.095211,549929,441668
1229.01,0.094968,556888,447507
1232.5,0.094379,562180,452373
1235.98,0.093687,567975,457765
1239.46,0.092847,574815,464174
1242.94,0.091928,582782,471605
1246.41,0.091195,591476,479449
1251.03,0.091267,604016,489532
1254.5,0.091119,612289,496406
1257.96,0.091518,619125,501488
1261.41,0.092370,624551,504891
1264.86,0.092481,629900,509085
1268.31,0.093487,634345,511492
1271.75,0.093817,638574,514510
1276.33,0.093953,642499,517511
1279.76,0.093730,645905,520521
1283.19,0.093146,648307,523160
1286.61,0.093263,650446,524745
1290.03,0.092747,652132,526730
1293.44,0.092247,653907,528773
1296.85,0.092245,655963,530438
1301.39,0.091601,657349,532347
1304.8,0.091666,657558,532437
1308.19,0.091920,658515,532900
1311.58,0.091665,658804,533447
1314.97,0.092295,659011,532841
1318.36,0.092384,658272,532134
1321.73,0.092966,658022,531220
1326.23,0.093352,657870,530625
1329.6,0.094350,656482,528291
1332.97,0.094950,654926,526311
1336.33,0.095801,653727,524319
1339.69,0.097263,652497,521573
1343.04,0.098696,649913,517797
1346.39,0.100460,647671,513919
1349.73,0.102583,645338,509570
1354.18,0.105751,641175,502604
1357.52,0.107477,638376,498425
1360.85,0.109574,635805,494026
1364.17,0.111311,633413,490203
1367.49,0.113808,631026,485556
1370.81,0.115780,628050,481077
1374.12,0.117566,625034,476801
1378.54,0.120760,620272,469702
1381.84,0.122907,616892,464839
1385.14,0.126304,613613,458765
1388.43,0.129870,611526,453466
1391.72,0.133501,610663,449056
1395.01,0.138034,610634,444372
1398.29,0.141403,611700,441708
1402.66,0.147173,614051,437554
1405.93,0.151961,616268,434319
1409.2,0.156678,617795,430692
1412.46,0.161019,618872,427151
1415.72,0.164611,619795,424265
1418.98,0.167819,620495,421618
1422.23,0.170946,621087,418993
1426.56,0.175280,621375,415025
1429.8,0.177253,621616,413304
1433.04,0.179975,622129,411060
1436.27,0.181829,621526,408912
1439.5,0.183993,621113,406610
1442.72,0.186071,620921,404544
1445.94,0.189298,620270,401128
1450.23,0.192591,618860,397193
1453.44,0.195207,617697,394066
1456.64,0.198434,616264,390241
1459.85,0.200918,614413,386850
1463.04,0.203778,612307,382993
1466.24,0.207813,610032,378042
1469.43,0.211642,607345,373073
1473.67,0.218035,603789,365469
1476.85,0.223879,601175,359023
1480.02,0.230138,597737,351862
1483.19,0.237034,594479,344431
1486.36,0.243460,591232,337519
1489.52,0.247737,587853,332301
1492.68,0.251302,583875,327354
1496.89,0.253759,578062,322267
1500.03,0.254504,574159,319542
1503.18,0.254387,570285,317472
1506.32,0.253266,565444,315590
1509.45,0.251326,560571,314271
1512.58,0.250320,555821,312331
1515.71,0.247412,550344,311331
1519.87,0.244688,543983,309669
1522.99,0.242446,538764,308285
1526.1,0.240080,533692,307051
1529.21,0.236778,527902,306038
1532.32,0.234130,521886,304401
1535.42,0.230885,515888,303159
1538.51,0.228645,509987,301241
1541.6,0.225873,503936,299573
1545.72,0.221726,494694,296900
1548.8,0.218671,488378,295179
1551.88,0.216087,481832,292960
1554.95,0.214092,474989,290129
1558.02,0.212808,467818,286595
1561.08,0.212201,460730,282648
1564.15,0.211619,454170,278997
1568.22,0.209952,444181,273910
1571.27,0.209537,436947,269707
1574.32,0.208479,429598,265817
1577.36,0.206755,422039,262179
1580.4,0.206601,414375,257509
1583.43,0.205491,406354,253171
1586.46,0.203735,398475,249268
1590.49,0.200969,388982,244884
1593.51,0.199958,380708,240234
1596.53,0.197769,372727,236386
1599.54,0.195710,365060,232624
1602.55,0.194220,357543,228617
1605.55,0.191896,349495,224670
1608.55,0.189280,341154,220633
1612.54,0.188304,330877,214468
1615.53,0.186077,322904,210376
1618.51,0.185711,315116,205475
1621.49,0.184785,307217,200752
1624.47,0.183659,299481,196205
1627.44,0.183378,292112,191501
1630.41,0.181988,284245,186941
1634.36,0.179725,274079,181197
1637.32,0.180334,266916,176214
1640.27,0.178509,259612,172114
1643.22,0.177502,251804,167325
1646.16,0.177540,244348,162356
1649.1,0.175995,236703,157837
1652.04,0.173552,228171,153006
1655.95,0.171232,215408,145221
1658.88,0.169140,204937,138829
1661.8,0.162943,193395,132893
1664.72,0.154535,179728,125916
1667.63,0.142167,163642,117958
1670.54,0.127129,146312,109182
1673.44,0.110003,128451,99709
1677.31,0.088955,105080,85618
1680.21,0.080340,88906,73891
1683.1,0.072800,75033,63453
1685.99,0.073916,63520,53579
1688.87,0.069687,53714,45751
1691.75,0.077145,45653,38223
1694.62,0.077973,39137,32705
1697.49,0.088187,33776,27569
1701.31,0.102846,28175,22234