File: samples/wool/wool-000811/Column 1_050582_20150331_121505.csv
Method:,Column 1,,
Host Date-Time:,31/3/15 @ 12:15:5,,
Header Version:,1,,
System Temp (C):,33.73,,
Detector Temp (C):,34.49,,
Humidity (%):,1.95,,
Lamp PD:,3818,,
Shift Vector Coefficients:,-10.5391,0.0761263,-0.000134223,,
Pixel to Wavelength Coefficients:,1775.68,-0.916766,-0.000235065,,
Serial Number:,5510004,,
Scan Config Name:,Column 1,,
Scan Config Type:,Slew,,
Section 1,,
Start wavelength (nm):,900,,
End wavelength (nm):,1700,,
Pattern Pixel Width (nm):,   7.03,,,,
Exposure (ms):,  0.635,,,,
Digital Resolution:,228,,
Num Repeats:,6,,
PGA Gain:,64,,
Total Measurement Time in sec:,  2.729,,
Wavelength (nm),Absorbance (AU),Reference Signal (unitless),Sample Signal (unitless)
901.51,0.070582,108485,92212
905.376,0.077450,121306,101492
909.237,0.080159,131909,109677
913.095,0.080824,143299,118965
916.948,0.081669,156982,130071
922.079,0.081879,179937,149019
925.923,0.083328,200504,165499
929.762,0.084342,222660,183358
933.597,0.085185,244426,200892
937.427,0.082775,263972,218164
941.254,0.082584,281845,233038
945.076,0.080897,297271,246749
950.165,0.081576,315605,261558
953.978,0.080273,328029,272671
957.786,0.080286,340470,283004
961.59,0.080183,352317,292921
965.389,0.080849,363056,301387
969.185,0.080794,373162,309816
972.976,0.081154,382632,317415
976.763,0.081389,391202,324349
981.806,0.081733,400190,331538
985.583,0.082399,406088,335909
989.355,0.082975,410162,338829
993.124,0.083386,412868,340742
996.888,0.083962,414263,341440
1000.65,0.084785,415476,341791
1004.4,0.085695,415479,341078
1009.41,0.086843,414358,339260
1013.15,0.087317,412923,337716
1016.89,0.088367,411526,335761
1020.63,0.088091,409066,333966
1024.36,0.088424,406777,331843
1028.09,0.087122,404427,330916
1031.82,0.087790,401911,328352
1036.78,0.087218,398410,325921
1040.49,0.086838,396204,324400
1044.2,0.087037,394236,322641
1047.91,0.086507,392042,321237
1051.61,0.086373,389823,319517
1055.31,0.086406,388234,318191
1059,0.086110,387599,317887
1063.92,0.084759,386688,318128
1067.61,0.083901,386598,318683
1071.29,0.084203,387377,319103
1074.96,0.083405,388536,320646
1078.63,0.082841,389855,322153
1082.3,0.081661,391215,324156
1085.96,0.081048,393215,326274
1090.84,0.079820,396270,329740
1094.49,0.079487,398760,332066
1098.14,0.079289,400987,334073
1101.79,0.078505,403477,336755
1105.43,0.078363,406116,339068
1109.06,0.077915,407701,340743
1112.7,0.077924,409859,342539
1117.53,0.077092,412494,345403
1121.15,0.077542,414909,347065
1124.77,0.077961,416559,348109
1128.38,0.079381,418532,348616
1131.99,0.079692,419956,349552
1135.6,0.080778,421946,350331
1139.2,0.082682,423881,350398
1143.99,0.084699,426786,351165
1147.58,0.085237,428617,352235
1151.17,0.086816,431169,353046
1154.75,0.087668,433579,354324
1158.33,0.089312,436264,355171
1161.91,0.090403,439132,356609
1165.48,0.093197,442389,356950
1169.04,0.095338,446101,358175
1173.79,0.098674,451929,360078
1177.34,0.100479,456026,361835
1180.9,0.102420,461306,364392
1184.44,0.104027,467657,368045
1187.99,0.105160,473969,372040
1191.52,0.105160,479856,376661
1195.06,0.104829,487372,382853
1199.76,0.104542,497347,390947
1203.29,0.103883,504311,397023
1206.81,0.103278,511507,403249
1210.33,0.102456,519078,409993
1213.84,0.102098,527163,416722
1217.35,0.101974,534208,422412
1220.85,0.100813,540472,428509
1225.51,0.099983,549929,436841
1229.01,0.099458,556888,442904
1232.5,0.099404,562180,447169
1235.98,0.098208,567975,453024
1239.46,0.097240,574815,459503
1242.94,0.096060,582782,467139
1246.41,0.095899,591476,474284
1251.03,0.095939,604016,484294
1254.5,0.095684,612289,491216
1257.96,0.096507,619125,495760
1261.41,0.096638,624551,499954
1264.86,0.097007,629900,503808
1268.31,0.098015,634345,506186
1271.75,0.098617,638574,508855
1276.33,0.098860,642499,511696
1279.76,0.098668,645905,514637
1283.19,0.098215,648307,517089
1286.61,0.098105,650446,518927
1290.03,0.097555,652132,520931
1293.44,0.097313,653907,522640
1296.85,0.097095,655963,524547
1301.39,0.096677,657349,526161
1304.8,0.096564,657558,526466
1308.19,0.096945,658515,526770
1311.58,0.096946,658804,526999
1314.97,0.097692,659011,526260
1318.36,0.098034,658272,525256
1321.73,0.098641,658022,524324
1326.23,0.099311,657870,523394
1329.6,0.100453,656482,520919
1332.97,0.101356,654926,518605
1336.33,0.102663,653727,516099
1339.69,0.104007,652497,513537
1343.04,0.105772,649913,509428
1346.39,0.107443,647671,505722
1349.73,0.109663,645338,501331
1354.18,0.112621,641175,494716
1357.52,0.114515,638376,490413
1360.85,0.117137,635805,485497
1364.17,0.118448,633413,482213
1367.49,0.120984,631026,477599
1370.81,0.122874,628050,473282
1374.12,0.125243,625034,468447
1378.54,0.128602,620272,461297
1381.84,0.131713,616892,455508
1385.14,0.135404,613613,449253
1388.43,0.140075,611526,442935
1391.72,0.144577,610663,437748
1395.01,0.149487,610634,432807
1398.29,0.154706,611700,428383
1402.66,0.161929,614051,422937
1405.93,0.168168,616268,418410
1409.2,0.173244,617795,414572
1412.46,0.178224,618872,410560
1415.72,0.182641,619795,407012
1418.98,0.186896,620495,403499
1422.23,0.190610,621087,400445
1426.56,0.195104,621375,396506
1429.8,0.197273,621616,394684
1433.04,0.200382,622129,392192
1436.27,0.202464,621526,389938
1439.5,0.204666,621113,387708
1442.72,0.206766,620921,385718
1445.94,0.208958,620270,383374
1450.23,0.212377,618860,379503
1453.44,0.214974,617697,376532
1456.64,0.217967,616264,373078
1459.85,0.220417,614413,369865
1463.04,0.222748,612307,366624
1466.24,0.225974,610032,362559
1469.43,0.229167,607345,358318
1473.67,0.234665,603789,351739
1476.85,0.239196,601175,346581
1480.02,0.244282,597737,340587
1483.19,0.249772,594479,334476
1486.36,0.254383,591232,329136
1489.52,0.258941,587853,323838
1492.68,0.261960,583875,319418
1496.89,0.263314,578062,315254
1500.03,0.264773,574159,312075
1503.18,0.264106,570285,310446
1506.32,0.263608,565444,308164
1509.45,0.262505,560571,306285
1512.58,0.260887,555821,304823
1515.71,0.258374,550344,303571
1519.87,0.255071,543983,302353
1522.99,0.253293,538764,300681
1526.1,0.250576,533692,299719
1529.21,0.247817,527902,298357
1532.32,0.244843,521886,296984
1535.42,0.242569,515888,295112
1538.51,0.239626,509987,293720
1541.6,0.236114,503936,292591
1545.72,0.231988,494694,289967
1548.8,0.229914,488378,287635
1551.88,0.227585,481832,285306
1554.95,0.225249,474989,282771
1558.02,0.224199,467818,279176
1561.08,0.222196,460730,276217
1564.15,0.221956,454170,272435
1568.22,0.220384,444181,267409
1571.27,0.219980,436947,263299
1574.32,0.219508,429598,259152
1577.36,0.217853,422039,255564
1580.4,0.216553,414375,251675
1583.43,0.214672,406354,247875
1586.46,0.213629,398475,243653
1590.49,0.211813,388982,238845
1593.51,0.208874,380708,235352
1596.53,0.206900,372727,231468
1599.54,0.205341,365060,227522
1602.55,0.202863,357543,224112
1605.55,0.201176,349495,219920
1608.55,0.199568,341154,215468
1612.54,0.198004,330877,209731
1615.53,0.196517,322904,205379
1618.51,0.195097,315116,201082
1621.49,0.193438,307217,196792
1624.47,0.192241,299481,192366
1627.44,0.190964,292112,188185
1630.41,0.189974,284245,183535
1634.36,0.188974,274079,177379
1637.32,0.187699,266916,173251
1640.27,0.187895,259612,168434
1643.22,0.186338,251804,163955
1646.16,0.186358,244348,159093
1649.1,0.186024,236703,154234
1652.04,0.184090,228171,149338
1655.95,0.180295,215408,142222
1658.88,0.176192,204937,136593
1661.8,0.170895,193395,130482
1664.72,0.163741,179728,123275
1667.63,0.152812,163642,115102
1670.54,0.138249,146312,106422
1673.44,0.124561,128451,96422
1677.31,0.104309,105080,82644
1680.21,0.092867,88906,71790
1683.1,0.091492,75033,60780
1685.99,0.090918,63520,51522
1688.87,0.092388,53714,43421
1691.75,0.101001,45653,36180
1694.62,0.107136,39137,30581
1697.49,0.102553,33776,26672
1701.31,0.111806,28175,21780