File: samples/wool/wool-000811/Column 1_050579_20150331_121343.csv
Method:,Column 1,,
Host Date-Time:,31/3/15 @ 12:13:43,,
Header Version:,1,,
System Temp (C):,33.78,,
Detector Temp (C):,34.59,,
Humidity (%):,1.95,,
Lamp PD:,3819,,
Shift Vector Coefficients:,-10.5391,0.0761263,-0.000134223,,
Pixel to Wavelength Coefficients:,1775.68,-0.916766,-0.000235065,,
Serial Number:,5510004,,
Scan Config Name:,Column 1,,
Scan Config Type:,Slew,,
Section 1,,
Start wavelength (nm):,900,,
End wavelength (nm):,1700,,
Pattern Pixel Width (nm):,   7.03,,,,
Exposure (ms):,  0.635,,,,
Digital Resolution:,228,,
Num Repeats:,6,,
PGA Gain:,64,,
Total Measurement Time in sec:,  2.669,,
Wavelength (nm),Absorbance (AU),Reference Signal (unitless),Sample Signal (unitless)
901.51,0.071757,108485,91963
905.376,0.076267,121306,101769
909.237,0.078337,131909,110138
913.095,0.080787,143299,118975
916.948,0.081169,156982,130221
922.079,0.082979,179937,148642
925.923,0.083882,200504,165288
929.762,0.086289,222660,182538
933.597,0.084537,244426,201192
937.427,0.083588,263972,217756
941.254,0.082623,281845,233017
945.076,0.082887,297271,245621
950.165,0.081327,315605,261708
953.978,0.080124,328029,272765
957.786,0.080756,340470,282698
961.59,0.081280,352317,292182
965.389,0.080655,363056,301522
969.185,0.081057,373162,309628
972.976,0.080954,382632,317561
976.763,0.082281,391202,323683
981.806,0.082211,400190,331173
985.583,0.083060,406088,335398
989.355,0.084097,410162,337955
993.124,0.083911,412868,340330
996.888,0.084520,414263,341001
1000.65,0.085657,415476,341106
1004.4,0.086107,415479,340755
1009.41,0.087334,414358,338877
1013.15,0.087389,412923,337660
1016.89,0.088203,411526,335888
1020.63,0.087699,409066,334268
1024.36,0.088824,406777,331537
1028.09,0.088125,404427,330153
1031.82,0.088234,401911,328017
1036.78,0.086931,398410,326136
1040.49,0.087146,396204,324170
1044.2,0.087357,394236,322403
1047.91,0.087041,392042,320842
1051.61,0.086534,389823,319399
1055.31,0.086559,388234,318079
1059,0.086005,387599,317964
1063.92,0.084704,386688,318168
1067.61,0.083823,386598,318740
1071.29,0.084195,387377,319109
1074.96,0.083344,388536,320691
1078.63,0.082938,389855,322081
1082.3,0.082431,391215,323582
1085.96,0.081147,393215,326199
1090.84,0.080359,396270,329331
1094.49,0.080110,398760,331590
1098.14,0.079943,400987,333570
1101.79,0.078711,403477,336595
1105.43,0.079030,406116,338548
1109.06,0.077933,407701,340729
1112.7,0.077738,409859,342686
1117.53,0.077048,412494,345438
1121.15,0.077924,414909,346760
1124.77,0.078407,416559,347752
1128.38,0.079475,418532,348541
1131.99,0.080291,419956,349070
1135.6,0.081883,421946,349441
1139.2,0.083406,423881,349815
1143.99,0.085544,426786,350482
1147.58,0.085682,428617,351874
1151.17,0.086927,431169,352956
1154.75,0.088163,433579,353920
1158.33,0.089444,436264,355063
1161.91,0.091886,439132,355393
1165.48,0.093556,442389,356655
1169.04,0.095693,446101,357882
1173.79,0.098939,451929,359858
1177.34,0.101007,456026,361395
1180.9,0.103295,461306,363659
1184.44,0.105402,467657,366881
1187.99,0.106199,473969,371151
1191.52,0.105681,479856,376210
1195.06,0.105884,487372,381924
1199.76,0.104886,497347,390637
1203.29,0.104141,504311,396787
1206.81,0.103884,511507,402687
1210.33,0.103571,519078,408942
1213.84,0.103274,527163,415596
1217.35,0.102261,534208,422133
1220.85,0.101030,540472,428295
1225.51,0.100579,549929,436242
1229.01,0.100653,556888,441687
1232.5,0.099405,562180,447168
1235.98,0.099423,567975,451758
1239.46,0.097949,574815,458753
1242.94,0.097384,582782,465717
1246.41,0.096778,591476,473325
1251.03,0.096717,604016,483428
1254.5,0.096467,612289,490331
1257.96,0.097089,619125,495096
1261.41,0.097736,624551,498691
1264.86,0.098358,629900,502243
1268.31,0.098637,634345,505462
1271.75,0.099126,638574,508259
1276.33,0.099425,642499,511031
1279.76,0.099423,645905,513743
1283.19,0.098908,648307,516265
1286.61,0.098612,650446,518321
1290.03,0.098346,652132,519983
1293.44,0.097788,653907,522069
1296.85,0.097571,655963,523972
1301.39,0.097324,657349,525378
1304.8,0.097245,657558,525641
1308.19,0.097854,658515,525668
1311.58,0.097975,658804,525752
1314.97,0.098268,659011,525563
1318.36,0.098769,658272,524368
1321.73,0.098990,658022,523903
1326.23,0.100193,657870,522333
1329.6,0.100975,656482,520293
1332.97,0.102138,654926,517672
1336.33,0.103282,653727,515364
1339.69,0.105261,652497,512056
1343.04,0.106712,649913,508327
1346.39,0.108675,647671,504289
1349.73,0.110654,645338,500188
1354.18,0.113676,641175,493515
1357.52,0.115477,638376,489327
1360.85,0.117665,635805,484908
1364.17,0.119647,633413,480884
1367.49,0.122188,631026,476277
1370.81,0.124052,628050,472000
1374.12,0.126534,625034,467057
1378.54,0.129659,620272,460175
1381.84,0.132856,616892,454311
1385.14,0.136848,613613,447761
1388.43,0.141543,611526,441440
1391.72,0.145569,610663,436750
1395.01,0.150989,610634,431312
1398.29,0.156829,611700,426294
1402.66,0.164072,614051,420855
1405.93,0.170270,616268,416389
1409.2,0.175666,617795,412267
1412.46,0.180906,618872,408033
1415.72,0.185659,619795,404193
1418.98,0.189910,620495,400708
1422.23,0.193410,621087,397871
1426.56,0.197692,621375,394150
1429.8,0.200620,621616,391654
1433.04,0.203366,622129,389506
1436.27,0.205590,621526,387141
1439.5,0.207509,621113,385178
1442.72,0.209914,620921,382933
1445.94,0.212730,620270,380059
1450.23,0.215752,618860,376565
1453.44,0.218057,617697,373868
1456.64,0.220447,616264,370954
1459.85,0.223424,614413,367313
1463.04,0.225976,612307,363909
1466.24,0.228855,610032,360162
1469.43,0.231861,607345,356102
1473.67,0.236624,603789,350156
1476.85,0.241364,601175,344855
1480.02,0.246205,597737,339082
1483.19,0.252410,594479,332450
1486.36,0.256971,591232,327180
1489.52,0.260672,587853,322550
1492.68,0.263984,583875,317933
1496.89,0.265957,578062,313341
1500.03,0.266442,574159,310878
1503.18,0.266302,570285,308880
1506.32,0.264703,565444,307388
1509.45,0.263646,560571,305481
1512.58,0.262434,555821,303739
1515.71,0.260370,550344,302179
1519.87,0.257214,543983,300865
1522.99,0.254994,538764,299505
1526.1,0.252275,533692,298549
1529.21,0.251670,527902,295722
1532.32,0.246460,521886,295880
1535.42,0.244125,515888,294056
1538.51,0.241252,509987,292622
1541.6,0.237942,503936,291362
1545.72,0.233878,494694,288708
1548.8,0.231325,488378,286702
1551.88,0.229505,481832,284047
1554.95,0.226852,474989,281729
1558.02,0.225278,467818,278483
1561.08,0.224960,460730,274465
1564.15,0.223786,454170,271289
1568.22,0.222324,444181,266217
1571.27,0.222068,436947,262036
1574.32,0.220224,429598,258725
1577.36,0.219653,422039,254507
1580.4,0.218040,414375,250815
1583.43,0.216484,406354,246843
1586.46,0.215240,398475,242751
1590.49,0.212953,388982,238219
1593.51,0.210670,380708,234381
1596.53,0.209014,372727,230344
1599.54,0.206069,365060,227141
1602.55,0.205464,357543,222774
1605.55,0.203239,349495,218878
1608.55,0.201643,341154,214441
1612.54,0.198908,330877,209295
1615.53,0.197466,322904,204931
1618.51,0.196319,315116,200517
1621.49,0.194934,307217,196115
1624.47,0.194482,299481,191376
1627.44,0.192641,292112,187460
1630.41,0.191569,284245,182862
1634.36,0.190273,274079,176849
1637.32,0.190087,266916,172301
1640.27,0.190354,259612,167483
1643.22,0.187734,251804,163429
1646.16,0.188188,244348,158424
1649.1,0.185846,236703,154297
1652.04,0.185876,228171,148725
1655.95,0.183529,215408,141167
1658.88,0.178785,204937,135780
1661.8,0.172382,193395,130036
1664.72,0.165368,179728,122814
1667.63,0.152865,163642,115088
1670.54,0.141505,146312,105627
1673.44,0.123140,128451,96738
1677.31,0.104219,105080,82661
1680.21,0.094595,88906,71505
1683.1,0.088387,75033,61216
1685.99,0.088279,63520,51836
1688.87,0.090143,53714,43646
1691.75,0.095123,45653,36673
1694.62,0.106412,39137,30632
1697.49,0.105166,33776,26512
1701.31,0.118700,28175,21437