File: samples/wool/wool-000811/Column 1_050608_20150331_122735.csv
Method:,Column 1,,
Host Date-Time:,31/3/15 @ 12:27:35,,
Header Version:,1,,
System Temp (C):,34.04,,
Detector Temp (C):,34.85,,
Humidity (%):,1.66,,
Lamp PD:,3818,,
Shift Vector Coefficients:,-10.5391,0.0761263,-0.000134223,,
Pixel to Wavelength Coefficients:,1775.68,-0.916766,-0.000235065,,
Serial Number:,5510004,,
Scan Config Name:,Column 1,,
Scan Config Type:,Slew,,
Section 1,,
Start wavelength (nm):,900,,
End wavelength (nm):,1700,,
Pattern Pixel Width (nm):,   7.03,,,,
Exposure (ms):,  0.635,,,,
Digital Resolution:,228,,
Num Repeats:,6,,
PGA Gain:,64,,
Total Measurement Time in sec:,  2.708,,
Wavelength (nm),Absorbance (AU),Reference Signal (unitless),Sample Signal (unitless)
901.51,0.067953,108485,92772
905.376,0.074329,121306,102224
909.237,0.076323,131909,110650
913.095,0.075155,143299,120528
916.948,0.078910,156982,130900
922.079,0.080398,179937,149528
925.923,0.080633,200504,166529
929.762,0.082008,222660,184346
933.597,0.082248,244426,202255
937.427,0.080206,263972,219458
941.254,0.079880,281845,234493
945.076,0.078645,297271,248032
950.165,0.078133,315605,263640
953.978,0.077275,328029,274560
957.786,0.077368,340470,284912
961.59,0.077506,352317,294732
965.389,0.077183,363056,303942
969.185,0.077092,373162,312468
972.976,0.078002,382632,319727
976.763,0.077650,391202,327153
981.806,0.078364,400190,334120
985.583,0.078758,406088,338737
989.355,0.079781,410162,341330
993.124,0.080648,412868,342897
996.888,0.080256,414263,344366
1000.65,0.081295,415476,344549
1004.4,0.082229,415479,343811
1009.41,0.083232,414358,342093
1013.15,0.083579,412923,340636
1016.89,0.084735,411526,338581
1020.63,0.084118,409066,337035
1024.36,0.084248,406777,335049
1028.09,0.084384,404427,333009
1031.82,0.084382,401911,330939
1036.78,0.083948,398410,328384
1040.49,0.083420,396204,326963
1044.2,0.083367,394236,325379
1047.91,0.082792,392042,323997
1051.61,0.083152,389823,321896
1055.31,0.082804,388234,320841
1059,0.082532,387599,320517
1063.92,0.081901,386688,320228
1067.61,0.080815,386598,320955
1071.29,0.080464,387377,321862
1074.96,0.079564,388536,323495
1078.63,0.079604,389855,324563
1082.3,0.077981,391215,326915
1085.96,0.077538,393215,328921
1090.84,0.076633,396270,332168
1094.49,0.075824,398760,334879
1098.14,0.074952,400987,337426
1101.79,0.075273,403477,339270
1105.43,0.074408,406116,342170
1109.06,0.074114,407701,343738
1112.7,0.073661,409859,345918
1117.53,0.073398,412494,348353
1121.15,0.073586,414909,350241
1124.77,0.073832,416559,351435
1128.38,0.075026,418532,352130
1131.99,0.076382,419956,352226
1135.6,0.077485,421946,352998
1139.2,0.078016,423881,354183
1143.99,0.080664,426786,354443
1147.58,0.081510,428617,355271
1151.17,0.082140,431169,356868
1154.75,0.082994,433579,358158
1158.33,0.084457,436264,359164
1161.91,0.086173,439132,360099
1165.48,0.088710,442389,360657
1169.04,0.090836,446101,361907
1173.79,0.094239,451929,363774
1177.34,0.096200,456026,365418
1180.9,0.098447,461306,367741
1184.44,0.100188,467657,371312
1187.99,0.101067,473969,375563
1191.52,0.101255,479856,380063
1195.06,0.100979,487372,386262
1199.76,0.100281,497347,394801
1203.29,0.099253,504311,401278
1206.81,0.098962,511507,407277
1210.33,0.098652,519078,413600
1213.84,0.098180,527163,420499
1217.35,0.097327,534208,426956
1220.85,0.096628,540472,432658
1225.51,0.095635,549929,441237
1229.01,0.095709,556888,446744
1232.5,0.094772,562180,451964
1235.98,0.094615,567975,456788
1239.46,0.092987,574815,464025
1242.94,0.092044,582782,471479
1246.41,0.092102,591476,478448
1251.03,0.091598,604016,489159
1254.5,0.091528,612289,495939
1257.96,0.092002,619125,500929
1261.41,0.092961,624551,504205
1264.86,0.092870,629900,508629
1268.31,0.093617,634345,511339
1271.75,0.094281,638574,513961
1276.33,0.094648,642499,516683
1279.76,0.094510,645905,519588
1283.19,0.093739,648307,522446
1286.61,0.093580,650446,524362
1290.03,0.092984,652132,526443
1293.44,0.092680,653907,528246
1296.85,0.092714,655963,529865
1301.39,0.091862,657349,532028
1304.8,0.092076,657558,531934
1308.19,0.092010,658515,532790
1311.58,0.092504,658804,532417
1314.97,0.093167,659011,531772
1318.36,0.093292,658272,531023
1321.73,0.093674,658022,530355
1326.23,0.094086,657870,529730
1329.6,0.095330,656482,527100
1332.97,0.095909,654926,525150
1336.33,0.097074,653727,522784
1339.69,0.098044,652497,520636
1343.04,0.099612,649913,516706
1346.39,0.101798,647671,512338
1349.73,0.103563,645338,508422
1354.18,0.106678,641175,501532
1357.52,0.108797,638376,496912
1360.85,0.110804,635805,492629
1364.17,0.112639,633413,488706
1367.49,0.114866,631026,484375
1370.81,0.117253,628050,479448
1374.12,0.119224,625034,474985
1378.54,0.121513,620272,468888
1381.84,0.124812,616892,462804
1385.14,0.127736,613613,457255
1388.43,0.131537,611526,451729
1391.72,0.135655,610663,446834
1395.01,0.139690,610634,442681
1398.29,0.143786,611700,439291
1402.66,0.150047,614051,434668
1405.93,0.155258,616268,431034
1409.2,0.160035,617795,427375
1412.46,0.164168,618872,424065
1415.72,0.168413,619795,420567
1418.98,0.171636,620495,417929
1422.23,0.174924,621087,415172
1426.56,0.178263,621375,412184
1429.8,0.181333,621616,409439
1433.04,0.183399,622129,407832
1436.27,0.185684,621526,405299
1439.5,0.187924,621113,402946
1442.72,0.190382,620921,400548
1445.94,0.192694,620270,398003
1450.23,0.195947,618860,394135
1453.44,0.199404,617697,390276
1456.64,0.201835,616264,387197
1459.85,0.205016,614413,383217
1463.04,0.207980,612307,379306
1466.24,0.210847,610032,375410
1469.43,0.214722,607345,370436
1473.67,0.221148,603789,362858
1476.85,0.226831,601175,356591
1480.02,0.232570,597737,349897
1483.19,0.239359,594479,342592
1486.36,0.245103,591232,336244
1489.52,0.250008,587853,330568
1492.68,0.252699,583875,326303
1496.89,0.254802,578062,321494
1500.03,0.255901,574159,318516
1503.18,0.255633,570285,316562
1506.32,0.255489,565444,313979
1509.45,0.253614,560571,312620
1512.58,0.251471,555821,311504
1515.71,0.249448,550344,309875
1519.87,0.246785,543983,308177
1522.99,0.243641,538764,307438
1526.1,0.241664,533692,305933
1529.21,0.238836,527902,304591
1532.32,0.236377,521886,302830
1535.42,0.232783,515888,301837
1538.51,0.229833,509987,300418
1541.6,0.227163,503936,298684
1545.72,0.223665,494694,295578
1548.8,0.220775,488378,293752
1551.88,0.218481,481832,291350
1554.95,0.215822,474989,288976
1558.02,0.214361,467818,285572
1561.08,0.212571,460730,282407
1564.15,0.212440,454170,278470
1568.22,0.212201,444181,272495
1571.27,0.211782,436947,268316
1574.32,0.210056,429598,264854
1577.36,0.208893,422039,260891
1580.4,0.207998,414375,256682
1583.43,0.206165,406354,252778
1586.46,0.205017,398475,248533
1590.49,0.202784,388982,243863
1593.51,0.200855,380708,239738
1596.53,0.198877,372727,235784
1599.54,0.197427,365060,231706
1602.55,0.195534,357543,227926
1605.55,0.192379,349495,224420
1608.55,0.191364,341154,219577
1612.54,0.188770,330877,214238
1615.53,0.187916,322904,209487
1618.51,0.185357,315116,205643
1621.49,0.186224,307217,200088
1624.47,0.186246,299481,195040
1627.44,0.183857,292112,191290
1630.41,0.182493,284245,186724
1634.36,0.181861,274079,180308
1637.32,0.179743,266916,176454
1640.27,0.180841,259612,171192
1643.22,0.179179,251804,166680
1646.16,0.177835,244348,162246
1649.1,0.177823,236703,157174
1652.04,0.176531,228171,151960
1655.95,0.173280,215408,144538
1658.88,0.169441,204937,138733
1661.8,0.163440,193395,132741
1664.72,0.157279,179728,125123
1667.63,0.144930,163642,117210
1670.54,0.127794,146312,109015
1673.44,0.111727,128451,99314
1677.31,0.094751,105080,84483
1680.21,0.078504,88906,74204
1683.1,0.075423,75033,63071
1685.99,0.078528,63520,53013
1688.87,0.078994,53714,44781
1691.75,0.080166,45653,37958
1694.62,0.089069,39137,31880
1697.49,0.086552,33776,27673
1701.31,0.108984,28175,21922