File: samples/wool/wool-000811/Column 1_050575_20150331_121132.csv
Method:,Column 1,,
Host Date-Time:,31/3/15 @ 12:11:32,,
Header Version:,1,,
System Temp (C):,34.21,,
Detector Temp (C):,34.41,,
Humidity (%):,1.66,,
Lamp PD:,3818,,
Shift Vector Coefficients:,-10.5391,0.0761263,-0.000134223,,
Pixel to Wavelength Coefficients:,1775.68,-0.916766,-0.000235065,,
Serial Number:,5510004,,
Scan Config Name:,Column 1,,
Scan Config Type:,Slew,,
Section 1,,
Start wavelength (nm):,900,,
End wavelength (nm):,1700,,
Pattern Pixel Width (nm):,   7.03,,,,
Exposure (ms):,  0.635,,,,
Digital Resolution:,228,,
Num Repeats:,6,,
PGA Gain:,64,,
Total Measurement Time in sec:,  2.681,,
Wavelength (nm),Absorbance (AU),Reference Signal (unitless),Sample Signal (unitless)
901.51,0.034740,108485,100145
905.376,0.041626,121306,110219
909.237,0.042801,131909,119529
913.095,0.044148,143299,129448
916.948,0.045265,156982,141444
922.079,0.047384,179937,161338
925.923,0.048834,200504,179180
929.762,0.049608,222660,198625
933.597,0.050219,244426,217735
937.427,0.047877,263972,236418
941.254,0.047909,281845,252407
945.076,0.046885,297271,266850
950.165,0.046508,315605,283554
953.978,0.046058,328029,295022
957.786,0.046135,340470,306157
961.59,0.046523,352317,316527
965.389,0.047072,363056,325763
969.185,0.046658,373162,335150
972.976,0.046984,382632,343398
976.763,0.047273,391202,350855
981.806,0.048059,400190,358267
985.583,0.048971,406088,362785
989.355,0.049738,410162,365778
993.124,0.050319,412868,367699
996.888,0.050488,414263,368798
1000.65,0.051610,415476,368923
1004.4,0.053105,415479,367658
1009.41,0.054352,414358,365615
1013.15,0.054328,412923,364369
1016.89,0.055041,411526,362540
1020.63,0.054827,409066,360551
1024.36,0.055151,406777,358266
1028.09,0.054509,404427,356723
1031.82,0.054181,401911,354772
1036.78,0.054065,398410,351775
1040.49,0.053876,396204,349980
1044.2,0.053789,394236,348311
1047.91,0.053077,392042,346941
1051.61,0.052919,389823,345103
1055.31,0.051798,388234,344584
1059,0.051302,387599,344414
1063.92,0.050588,386688,344170
1067.61,0.048994,386598,345355
1071.29,0.048966,387377,346073
1074.96,0.048715,388536,347309
1078.63,0.048159,389855,348935
1082.3,0.046748,391215,351291
1085.96,0.046591,393215,353215
1090.84,0.045268,396270,357045
1094.49,0.045217,398760,359331
1098.14,0.044893,400987,361607
1101.79,0.044600,403477,364098
1105.43,0.044908,406116,366220
1109.06,0.044614,407701,367898
1112.7,0.043929,409859,370429
1117.53,0.043995,412494,372754
1121.15,0.044314,414909,374661
1124.77,0.045124,416559,375450
1128.38,0.046557,418532,375986
1131.99,0.048203,419956,375838
1135.6,0.049979,421946,376078
1139.2,0.051594,423881,376400
1143.99,0.053849,426786,377017
1147.58,0.054976,428617,377653
1151.17,0.056376,431169,378679
1154.75,0.057255,433579,380026
1158.33,0.058941,436264,380898
1161.91,0.060718,439132,381836
1165.48,0.063818,442389,381932
1169.04,0.066056,446101,383157
1173.79,0.069526,451929,385074
1177.34,0.072166,456026,386210
1180.9,0.073989,461306,389045
1184.44,0.076713,467657,391935
1187.99,0.076826,473969,397122
1191.52,0.076445,479856,402407
1195.06,0.076960,487372,408226
1199.76,0.075840,497347,417657
1203.29,0.075149,504311,424179
1206.81,0.073866,511507,431505
1210.33,0.073146,519078,438618
1213.84,0.072609,527163,446001
1217.35,0.071512,534208,453104
1220.85,0.071145,540472,458805
1225.51,0.070191,549929,467860
1229.01,0.069678,556888,474340
1232.5,0.068788,562180,479830
1235.98,0.068331,567975,485286
1239.46,0.066945,574815,492701
1242.94,0.066350,582782,500214
1246.41,0.065713,591476,508422
1251.03,0.065296,604016,519700
1254.5,0.065575,612289,526480
1257.96,0.066108,619125,531705
1261.41,0.066304,624551,536122
1264.86,0.067009,629900,539837
1268.31,0.067612,634345,542892
1271.75,0.068655,638574,545200
1276.33,0.069013,642499,548100
1279.76,0.068933,645905,551107
1283.19,0.067766,648307,554644
1286.61,0.068065,650446,556092
1290.03,0.067628,652132,558094
1293.44,0.067067,653907,560337
1296.85,0.067013,655963,562168
1301.39,0.066471,657349,564060
1304.8,0.066589,657558,564086
1308.19,0.066762,658515,564681
1311.58,0.066707,658804,565001
1314.97,0.067026,659011,564764
1318.36,0.067846,658272,563066
1321.73,0.067889,658022,562796
1326.23,0.069097,657870,561103
1329.6,0.069998,656482,558759
1332.97,0.070715,654926,556515
1336.33,0.071938,653727,553934
1339.69,0.073688,652497,550669
1343.04,0.075290,649913,546468
1346.39,0.077649,647671,541634
1349.73,0.079498,645338,537390
1354.18,0.082661,641175,530048
1357.52,0.085007,638376,524891
1360.85,0.087501,635805,519784
1364.17,0.089665,633413,515255
1367.49,0.091877,631026,510705
1370.81,0.094246,628050,505532
1374.12,0.096149,625034,500904
1378.54,0.099895,620272,492819
1381.84,0.103450,616892,486137
1385.14,0.106563,613613,480100
1388.43,0.111237,611526,473345
1391.72,0.115791,610663,467747
1395.01,0.120482,610634,462699
1398.29,0.125514,611700,458168
1402.66,0.132788,614051,452289
1405.93,0.137739,616268,448777
1409.2,0.142944,617795,444529
1412.46,0.148112,618872,440037
1415.72,0.152248,619795,436516
1418.98,0.156034,620495,433216
1422.23,0.159951,621087,429736
1426.56,0.163967,621375,425978
1429.8,0.166721,621616,423449
1433.04,0.169550,622129,421047
1436.27,0.171290,621526,418957
1439.5,0.174226,621113,415858
1442.72,0.176586,620921,413476
1445.94,0.178675,620270,411061
1450.23,0.182842,618860,406210
1453.44,0.185664,617697,402820
1456.64,0.188671,616264,399113
1459.85,0.191651,614413,395193
1463.04,0.194696,612307,391087
1466.24,0.198146,610032,386551
1469.43,0.202450,607345,381053
1473.67,0.208107,603789,373920
1476.85,0.214467,601175,366888
1480.02,0.220895,597737,359431
1483.19,0.227557,594479,352030
1486.36,0.234375,591232,344654
1489.52,0.239486,587853,338675
1492.68,0.242944,583875,333715
1496.89,0.245586,578062,328389
1500.03,0.246401,574159,325560
1503.18,0.246403,570285,323362
1506.32,0.245183,565444,321519
1509.45,0.244116,560571,319532
1512.58,0.242442,555821,318048
1515.71,0.240191,550344,316551
1519.87,0.236996,543983,315202
1522.99,0.233750,538764,314520
1526.1,0.231455,533692,313210
1529.21,0.228640,527902,311827
1532.32,0.225093,521886,310801
1535.42,0.222045,515888,309393
1538.51,0.219094,509987,307939
1541.6,0.215615,503936,306733
1545.72,0.211157,494694,304214
1548.8,0.207671,488378,302751
1551.88,0.205664,481832,300076
1554.95,0.203794,474989,297091
1558.02,0.201335,467818,294267
1561.08,0.200396,460730,290436
1564.15,0.199695,454170,286763
1568.22,0.198671,444181,281118
1571.27,0.198031,436947,276948
1574.32,0.197513,429598,272615
1577.36,0.196518,422039,268432
1580.4,0.193681,414375,265285
1583.43,0.192867,406354,260638
1586.46,0.190632,398475,256903
1590.49,0.188372,388982,252091
1593.51,0.186195,380708,247969
1596.53,0.184058,372727,243968
1599.54,0.182211,365060,239968
1602.55,0.179602,357543,236443
1605.55,0.177779,349495,232093
1608.55,0.174658,341154,228188
1612.54,0.173353,330877,221980
1615.53,0.170458,322904,218080
1618.51,0.169883,315116,213102
1621.49,0.169844,307217,207779
1624.47,0.166867,299481,203940
1627.44,0.166068,292112,199288
1630.41,0.165057,284245,194373
1634.36,0.163219,274079,188216
1637.32,0.162769,266916,183487
1640.27,0.161690,259612,178910
1643.22,0.160983,251804,173812
1646.16,0.160755,244348,168754
1649.1,0.159333,236703,164010
1652.04,0.157451,228171,158785
1655.95,0.155595,215408,150545
1658.88,0.152237,204937,144339
1661.8,0.147836,193395,137597
1664.72,0.141542,179728,129740
1667.63,0.129158,163642,121545
1670.54,0.116295,146312,111940
1673.44,0.102267,128451,101501
1677.31,0.085912,105080,86220
1680.21,0.075436,88906,74730
1683.1,0.070459,75033,63796
1685.99,0.075874,63520,53338
1688.87,0.078722,53714,44809
1691.75,0.082345,45653,37768
1694.62,0.091254,39137,31720
1697.49,0.096152,33776,27068
1701.31,0.087212,28175,23049