File: samples/wool/wool-000811/Column 1_050541_20150331_115541.csv
Method:,Column 1,,
Host Date-Time:,31/3/15 @ 11:55:41,,
Header Version:,1,,
System Temp (C):,32.41,,
Detector Temp (C):,30.73,,
Humidity (%):,2.92,,
Lamp PD:,3825,,
Shift Vector Coefficients:,-10.5391,0.0761263,-0.000134223,,
Pixel to Wavelength Coefficients:,1775.68,-0.916766,-0.000235065,,
Serial Number:,5510004,,
Scan Config Name:,Column 1,,
Scan Config Type:,Slew,,
Section 1,,
Start wavelength (nm):,900,,
End wavelength (nm):,1700,,
Pattern Pixel Width (nm):,   7.03,,,,
Exposure (ms):,  0.635,,,,
Digital Resolution:,228,,
Num Repeats:,6,,
PGA Gain:,64,,
Total Measurement Time in sec:,  2.732,,
Wavelength (nm),Absorbance (AU),Reference Signal (unitless),Sample Signal (unitless)
901.51,0.044055,108485,98020
905.376,0.050442,121306,108004
909.237,0.051062,131909,117277
913.095,0.052084,143299,127104
916.948,0.052295,156982,139173
922.079,0.051593,179937,159782
925.923,0.053037,200504,177454
929.762,0.053999,222660,196627
933.597,0.054940,244426,215381
937.427,0.053826,263972,233202
941.254,0.054350,281845,248691
945.076,0.054800,297271,262031
950.165,0.054715,315605,278246
953.978,0.054502,328029,289341
957.786,0.054646,340470,300215
961.59,0.055517,352317,310039
965.389,0.055435,363056,319550
969.185,0.055543,373162,328363
972.976,0.056345,382632,336075
976.763,0.056684,391202,343334
981.806,0.057612,400190,350473
985.583,0.058465,406088,354940
989.355,0.059184,410162,357908
993.124,0.058849,412868,360547
996.888,0.059928,414263,360868
1000.65,0.060968,415476,361059
1004.4,0.061738,415479,360422
1009.41,0.063124,414358,358304
1013.15,0.063677,412923,356609
1016.89,0.064240,411526,354942
1020.63,0.064088,409066,352944
1024.36,0.064023,406777,351021
1028.09,0.064027,404427,348990
1031.82,0.063420,401911,347304
1036.78,0.062948,398410,344653
1040.49,0.062267,396204,343283
1044.2,0.061731,394236,341999
1047.91,0.061481,392042,340292
1051.61,0.060467,389823,339157
1055.31,0.059476,388234,338546
1059,0.059077,387599,338303
1063.92,0.057437,386688,338785
1067.61,0.056227,386598,339651
1071.29,0.056493,387377,340127
1074.96,0.055428,388536,341982
1078.63,0.055252,389855,343282
1082.3,0.054521,391215,345060
1085.96,0.052632,393215,348336
1090.84,0.052385,396270,351242
1094.49,0.052202,398760,353598
1098.14,0.052061,400987,355688
1101.79,0.051331,403477,358499
1105.43,0.051284,406116,360883
1109.06,0.050918,407701,362597
1112.7,0.050425,409859,364930
1117.53,0.050997,412494,366793
1121.15,0.051375,414909,368619
1124.77,0.051919,416559,369622
1128.38,0.053442,418532,370072
1131.99,0.055293,419956,369752
1135.6,0.057316,421946,369778
1139.2,0.059275,423881,369802
1143.99,0.062330,426786,369726
1147.58,0.063836,428617,370027
1151.17,0.064437,431169,371715
1154.75,0.066372,433579,372131
1158.33,0.068074,436264,372971
1161.91,0.070532,439132,373304
1165.48,0.073862,442389,373201
1169.04,0.076617,446101,373952
1173.79,0.080241,451929,375690
1177.34,0.083526,456026,376239
1180.9,0.085987,461306,378444
1184.44,0.087965,467657,381911
1187.99,0.088997,473969,386147
1191.52,0.088338,479856,391537
1195.06,0.087811,487372,398153
1199.76,0.086187,497347,407824
1203.29,0.084898,504311,414763
1206.81,0.083836,511507,421712
1210.33,0.082328,519078,429442
1213.84,0.081448,527163,437016
1217.35,0.080194,534208,444136
1220.85,0.079387,540472,450180
1225.51,0.077863,549929,459667
1229.01,0.077432,556888,465946
1232.5,0.076250,562180,471656
1235.98,0.075107,567975,477774
1239.46,0.075010,574815,483635
1242.94,0.072631,582782,493032
1246.41,0.072492,591476,500547
1251.03,0.071944,604016,511805
1254.5,0.071827,612289,518955
1257.96,0.072459,619125,523986
1261.41,0.073154,624551,527732
1264.86,0.073540,629900,531779
1268.31,0.074238,634345,534672
1271.75,0.074977,638574,537321
1276.33,0.075299,642499,540223
1279.76,0.074822,645905,543684
1283.19,0.074808,648307,545724
1286.61,0.074477,650446,547941
1290.03,0.073974,652132,549999
1293.44,0.073339,653907,552303
1296.85,0.073241,655963,554164
1301.39,0.073067,657349,555558
1304.8,0.072752,657558,556137
1308.19,0.073402,658515,556114
1311.58,0.073389,658804,556374
1314.97,0.074106,659011,555631
1318.36,0.074633,658272,554335
1321.73,0.075135,658022,553485
1326.23,0.076295,657870,551880
1329.6,0.076918,656482,549927
1332.97,0.078471,654926,546665
1336.33,0.079773,653727,544031
1339.69,0.081417,652497,540956
1343.04,0.083345,649913,536427
1346.39,0.085595,647671,531814
1349.73,0.088226,645338,526698
1354.18,0.091622,641175,519224
1357.52,0.094201,638376,513896
1360.85,0.096806,635805,508766
1364.17,0.099153,633413,504120
1367.49,0.101853,631026,499108
1370.81,0.104741,628050,493461
1374.12,0.107883,625034,487552
1378.54,0.111247,620272,480104
1381.84,0.115178,616892,473185
1385.14,0.119910,613613,465570
1388.43,0.125080,611526,458495
1391.72,0.130927,610663,451725
1395.01,0.136640,610634,445801
1398.29,0.142883,611700,440206
1402.66,0.151459,614051,433257
1405.93,0.158288,616268,428037
1409.2,0.164497,617795,423007
1412.46,0.170488,618872,417939
1415.72,0.175692,619795,413577
1418.98,0.180717,620495,409281
1422.23,0.184790,621087,405847
1426.56,0.189642,621375,401524
1429.8,0.192424,621616,399115
1433.04,0.195544,622129,396585
1436.27,0.197884,621526,394072
1439.5,0.200427,621113,391511
1442.72,0.202968,620921,389106
1445.94,0.205088,620270,386806
1450.23,0.209128,618860,382353
1453.44,0.212447,617697,378729
1456.64,0.214986,616264,375648
1459.85,0.217836,614413,372070
1463.04,0.220379,612307,368630
1466.24,0.223449,610032,364673
1469.43,0.226648,607345,360402
1473.67,0.231553,603789,354268
1476.85,0.237014,601175,348327
1480.02,0.242985,597737,341606
1483.19,0.248603,594479,335377
1486.36,0.254689,591232,328904
1489.52,0.259608,587853,323341
1492.68,0.263052,583875,318616
1496.89,0.266128,578062,313218
1500.03,0.266843,574159,310591
1503.18,0.267555,570285,307990
1506.32,0.267157,565444,305656
1509.45,0.265550,560571,304145
1512.58,0.263733,555821,302832
1515.71,0.262411,550344,300762
1519.87,0.258930,543983,299678
1522.99,0.256556,538764,298430
1526.1,0.253648,533692,297607
1529.21,0.250366,527902,296611
1532.32,0.246964,521886,295537
1535.42,0.244257,515888,293967
1538.51,0.240517,509987,293118
1541.6,0.237440,503936,291699
1545.72,0.232826,494694,289408
1548.8,0.229543,488378,287881
1551.88,0.226832,481832,285801
1554.95,0.224285,474989,283399
1558.02,0.222494,467818,280274
1561.08,0.220902,460730,277041
1564.15,0.219580,454170,273929
1568.22,0.218389,444181,268640
1571.27,0.218333,436947,264299
1574.32,0.216072,429598,261210
1577.36,0.215769,422039,256793
1580.4,0.213851,414375,253246
1583.43,0.211425,406354,249735
1586.46,0.209911,398475,245748
1590.49,0.207451,388982,241256
1593.51,0.205152,380708,237378
1596.53,0.202647,372727,233746
1599.54,0.199629,365060,230534
1602.55,0.197704,357543,226790
1605.55,0.195119,349495,223009
1608.55,0.192560,341154,218973
1612.54,0.190405,330877,213433
1615.53,0.187107,322904,209878
1618.51,0.186759,315116,204980
1621.49,0.185782,307217,200292
1624.47,0.183865,299481,196112
1627.44,0.182676,292112,191811
1630.41,0.180629,284245,187527
1634.36,0.178430,274079,181738
1637.32,0.177832,266916,177232
1640.27,0.176738,259612,172817
1643.22,0.175575,251804,168069
1646.16,0.175973,244348,162943
1649.1,0.174794,236703,158274
1652.04,0.173212,228171,153126
1655.95,0.170659,215408,145413
1658.88,0.170208,204937,138488
1661.8,0.168276,193395,131271
1664.72,0.164516,179728,123055
1667.63,0.159868,163642,113247
1670.54,0.154925,146312,102413
1673.44,0.152564,128451,90401
1677.31,0.143067,105080,75588
1680.21,0.141545,88906,64178
1683.1,0.145529,75033,53669
1685.99,0.152710,63520,44689
1688.87,0.154415,53714,37642
1691.75,0.163495,45653,31331
1694.62,0.165475,39137,26737
1697.49,0.170464,33776,22811
1701.31,0.174645,28175,18846