File: samples/wool/wool-000811/Column 1_050541_20150331_115543.csv
Method:,Column 1,,
Host Date-Time:,31/3/15 @ 11:55:43,,
Header Version:,1,,
System Temp (C):,32.43,,
Detector Temp (C):,30.73,,
Humidity (%):,2.93,,
Lamp PD:,3824,,
Shift Vector Coefficients:,-10.5391,0.0761263,-0.000134223,,
Pixel to Wavelength Coefficients:,1775.68,-0.916766,-0.000235065,,
Serial Number:,5510004,,
Scan Config Name:,Column 1,,
Scan Config Type:,Slew,,
Section 1,,
Start wavelength (nm):,900,,
End wavelength (nm):,1700,,
Pattern Pixel Width (nm):,   7.03,,,,
Exposure (ms):,  0.635,,,,
Digital Resolution:,228,,
Num Repeats:,6,,
PGA Gain:,64,,
Total Measurement Time in sec:,  2.663,,
Wavelength (nm),Absorbance (AU),Reference Signal (unitless),Sample Signal (unitless)
901.51,0.045044,108485,97797
905.376,0.053210,121306,107318
909.237,0.053274,131909,116681
913.095,0.053494,143299,126692
916.948,0.051964,156982,139279
922.079,0.053197,179937,159193
925.923,0.054641,200504,176800
929.762,0.054041,222660,196608
933.597,0.055683,244426,215013
937.427,0.054851,263972,232652
941.254,0.054943,281845,248352
945.076,0.054215,297271,262384
950.165,0.055069,315605,278019
953.978,0.055099,328029,288944
957.786,0.055052,340470,299935
961.59,0.056281,352317,309494
965.389,0.055726,363056,319336
969.185,0.056843,373162,327382
972.976,0.057381,382632,335274
976.763,0.057359,391202,342801
981.806,0.058190,400190,350007
985.583,0.059183,406088,354354
989.355,0.059446,410162,357692
993.124,0.060064,412868,359540
996.888,0.060644,414263,360273
1000.65,0.061341,415476,360749
1004.4,0.062542,415479,359755
1009.41,0.063909,414358,357657
1013.15,0.064107,412923,356256
1016.89,0.064907,411526,354397
1020.63,0.064397,409066,352693
1024.36,0.064538,406777,350605
1028.09,0.064214,404427,348840
1031.82,0.064189,401911,346690
1036.78,0.062893,398410,344697
1040.49,0.062632,396204,342994
1044.2,0.062383,394236,341486
1047.91,0.061974,392042,339906
1051.61,0.060933,389823,338793
1055.31,0.059926,388234,338195
1059,0.059476,387599,337992
1063.92,0.058452,386688,337994
1067.61,0.057542,386598,338624
1071.29,0.056710,387377,339957
1074.96,0.056042,388536,341499
1078.63,0.054954,389855,343518
1082.3,0.054293,391215,345241
1085.96,0.053700,393215,347480
1090.84,0.053115,396270,350652
1094.49,0.052271,398760,353542
1098.14,0.052582,400987,355262
1101.79,0.052375,403477,357638
1105.43,0.051965,406116,360317
1109.06,0.051718,407701,361929
1112.7,0.051025,409859,364426
1117.53,0.050779,412494,366977
1121.15,0.052379,414909,367768
1124.77,0.053061,416559,368651
1128.38,0.054205,418532,369423
1131.99,0.055618,419956,369476
1135.6,0.057681,421946,369467
1139.2,0.060056,423881,369137
1143.99,0.062905,426786,369237
1147.58,0.064128,428617,369778
1151.17,0.065174,431169,371085
1154.75,0.066397,433579,372110
1158.33,0.068793,436264,372354
1161.91,0.071193,439132,372737
1165.48,0.073924,442389,373147
1169.04,0.077050,446101,373580
1173.79,0.081526,451929,374580
1177.34,0.083741,456026,376053
1180.9,0.086091,461306,378354
1184.44,0.088022,467657,381861
1187.99,0.089109,473969,386048
1191.52,0.088647,479856,391259
1195.06,0.087959,487372,398017
1199.76,0.086289,497347,407728
1203.29,0.084856,504311,414804
1206.81,0.084229,511507,421330
1210.33,0.083172,519078,428608
1213.84,0.082135,527163,436325
1217.35,0.080975,534208,443338
1220.85,0.079535,540472,450027
1225.51,0.078440,549929,459057
1229.01,0.077706,556888,465652
1232.5,0.076910,562180,470940
1235.98,0.076282,567975,476483
1239.46,0.074615,574815,484075
1242.94,0.073647,582782,491880
1246.41,0.072602,591476,500421
1251.03,0.072522,604016,511124
1254.5,0.072543,612289,518100
1257.96,0.072725,619125,523665
1261.41,0.073140,624551,527749
1264.86,0.073800,629900,531461
1268.31,0.074715,634345,534085
1271.75,0.075546,638574,536618
1276.33,0.075742,642499,539673
1279.76,0.075366,645905,543004
1283.19,0.074804,648307,545728
1286.61,0.074516,650446,547892
1290.03,0.074362,652132,549507
1293.44,0.073573,653907,552005
1296.85,0.073855,655963,553381
1301.39,0.073045,657349,555586
1304.8,0.072866,657558,555992
1308.19,0.073314,658515,556226
1311.58,0.073571,658804,556141
1314.97,0.074331,659011,555344
1318.36,0.074786,658272,554140
1321.73,0.075520,658022,552994
1326.23,0.076331,657870,551835
1329.6,0.077330,656482,549405
1332.97,0.078519,654926,546604
1336.33,0.079909,653727,543861
1339.69,0.082087,652497,540121
1343.04,0.083750,649913,535927
1346.39,0.086090,647671,531208
1349.73,0.088515,645338,526347
1354.18,0.092193,641175,518541
1357.52,0.094499,638376,513544
1360.85,0.097041,635805,508491
1364.17,0.099139,633413,504136
1367.49,0.102179,631026,498733
1370.81,0.104969,628050,493203
1374.12,0.107743,625034,487709
1378.54,0.111440,620272,479890
1381.84,0.115119,616892,473249
1385.14,0.119971,613613,465504
1388.43,0.125485,611526,458068
1391.72,0.130929,610663,451723
1395.01,0.137015,610634,445416
1398.29,0.143298,611700,439785
1402.66,0.151295,614051,433420
1405.93,0.158672,616268,427659
1409.2,0.165042,617795,422476
1412.46,0.170516,618872,417912
1415.72,0.175887,619795,413391
1418.98,0.180489,620495,409496
1422.23,0.185114,621087,405544
1426.56,0.189663,621375,401505
1429.8,0.192619,621616,398936
1433.04,0.195759,622129,396389
1436.27,0.198208,621526,393778
1439.5,0.200503,621113,391442
1442.72,0.203320,620921,388791
1445.94,0.205843,620270,386134
1450.23,0.209509,618860,382018
1453.44,0.212257,617697,378895
1456.64,0.215483,616264,375218
1459.85,0.218089,614413,371853
1463.04,0.220725,612307,368336
1466.24,0.223364,610032,364744
1469.43,0.226915,607345,360181
1473.67,0.231926,603789,353964
1476.85,0.237232,601175,348152
1480.02,0.242873,597737,341694
1483.19,0.249072,594479,335015
1486.36,0.254755,591232,328854
1489.52,0.260115,587853,322964
1492.68,0.263713,583875,318132
1496.89,0.266584,578062,312889
1500.03,0.267339,574159,310237
1503.18,0.268070,570285,307625
1506.32,0.267528,565444,305395
1509.45,0.266149,560571,303726
1512.58,0.264428,555821,302348
1515.71,0.262167,550344,300931
1519.87,0.259490,543983,299292
1522.99,0.255908,538764,298876
1526.1,0.254197,533692,297231
1529.21,0.250675,527902,296400
1532.32,0.247396,521886,295243
1535.42,0.243203,515888,294681
1538.51,0.241165,509987,292681
1541.6,0.237680,503936,291538
1545.72,0.232550,494694,289592
1548.8,0.229353,488378,288007
1551.88,0.226823,481832,285807
1554.95,0.224475,474989,283275
1558.02,0.222299,467818,280400
1561.08,0.220567,460730,277255
1564.15,0.219349,454170,274075
1568.22,0.218863,444181,268347
1571.27,0.218268,436947,264339
1574.32,0.217115,429598,260584
1577.36,0.215382,422039,257022
1580.4,0.213873,414375,253233
1583.43,0.211710,406354,249571
1586.46,0.210072,398475,245657
1590.49,0.207421,388982,241273
1593.51,0.205560,380708,237155
1596.53,0.203087,372727,233509
1599.54,0.200903,365060,229859
1602.55,0.198847,357543,226194
1605.55,0.195807,349495,222656
1608.55,0.193857,341154,218320
1612.54,0.190476,330877,213398
1615.53,0.187935,322904,209478
1618.51,0.187571,315116,204597
1621.49,0.185582,307217,200384
1624.47,0.184315,299481,195909
1627.44,0.183451,292112,191469
1630.41,0.180939,284245,187393
1634.36,0.179603,274079,181248
1637.32,0.178816,266916,176831
1640.27,0.178678,259612,172047
1643.22,0.176939,251804,167542
1646.16,0.175440,244348,163143
1649.1,0.176383,236703,157696
1652.04,0.173796,228171,152920
1655.95,0.172065,215408,144943
1658.88,0.171496,204937,138078
1661.8,0.168889,193395,131086
1664.72,0.166419,179728,122517
1667.63,0.160643,163642,113045
1670.54,0.155082,146312,102376
1673.44,0.149605,128451,91019
1677.31,0.144985,105080,75255
1680.21,0.141856,88906,64132
1683.1,0.146152,75033,53592
1685.99,0.152720,63520,44688
1688.87,0.159731,53714,37184
1691.75,0.163107,45653,31359
1694.62,0.166776,39137,26657
1697.49,0.164883,33776,23106
1701.31,0.168285,28175,19124