File: samples/wool/wool-000811/Column 1_050538_20150331_115424.csv
Method:,Column 1,,
Host Date-Time:,31/3/15 @ 11:54:24,,
Header Version:,1,,
System Temp (C):,31.98,,
Detector Temp (C):,30.32,,
Humidity (%):,3.27,,
Lamp PD:,3825,,
Shift Vector Coefficients:,-10.5391,0.0761263,-0.000134223,,
Pixel to Wavelength Coefficients:,1775.68,-0.916766,-0.000235065,,
Serial Number:,5510004,,
Scan Config Name:,Column 1,,
Scan Config Type:,Slew,,
Section 1,,
Start wavelength (nm):,900,,
End wavelength (nm):,1700,,
Pattern Pixel Width (nm):,   7.03,,,,
Exposure (ms):,  0.635,,,,
Digital Resolution:,228,,
Num Repeats:,6,,
PGA Gain:,64,,
Total Measurement Time in sec:,  2.693,,
Wavelength (nm),Absorbance (AU),Reference Signal (unitless),Sample Signal (unitless)
901.51,0.045364,108485,97725
905.376,0.048493,121306,108490
909.237,0.052085,131909,117001
913.095,0.050835,143299,127470
916.948,0.051977,156982,139275
922.079,0.051430,179937,159842
925.923,0.052164,200504,177811
929.762,0.052801,222660,197170
933.597,0.054559,244426,215570
937.427,0.053857,263972,233185
941.254,0.054516,281845,248596
945.076,0.054232,297271,262374
950.165,0.054378,315605,278462
953.978,0.053384,328029,290087
957.786,0.054806,340470,300105
961.59,0.055169,352317,310288
965.389,0.055383,363056,319588
969.185,0.055657,373162,328277
972.976,0.056408,382632,336026
976.763,0.056901,391202,343163
981.806,0.057640,400190,350450
985.583,0.058797,406088,354669
989.355,0.059031,410162,358034
993.124,0.059101,412868,360338
996.888,0.060069,414263,360751
1000.65,0.060566,415476,361393
1004.4,0.062015,415479,360192
1009.41,0.063228,414358,358218
1013.15,0.063629,412923,356648
1016.89,0.064761,411526,354516
1020.63,0.064318,409066,352757
1024.36,0.063453,406777,351482
1028.09,0.063617,404427,349320
1031.82,0.062896,401911,347723
1036.78,0.062970,398410,344636
1040.49,0.062363,396204,343207
1044.2,0.061601,394236,342102
1047.91,0.060923,392042,340729
1051.61,0.060701,389823,338974
1055.31,0.059833,388234,338268
1059,0.059208,387599,338201
1063.92,0.057662,386688,338609
1067.61,0.056663,386598,339310
1071.29,0.056267,387377,340304
1074.96,0.055822,388536,341672
1078.63,0.055089,389855,343411
1082.3,0.053921,391215,345537
1085.96,0.053091,393215,347968
1090.84,0.052761,396270,350938
1094.49,0.052283,398760,353532
1098.14,0.051423,400987,356211
1101.79,0.051292,403477,358531
1105.43,0.051384,406116,360800
1109.06,0.050499,407701,362947
1112.7,0.050718,409859,364684
1117.53,0.050507,412494,367207
1121.15,0.051640,414909,368394
1124.77,0.052483,416559,369142
1128.38,0.053765,418532,369797
1131.99,0.055365,419956,369691
1135.6,0.057490,421946,369630
1139.2,0.059148,423881,369910
1143.99,0.062443,426786,369630
1147.58,0.063233,428617,370541
1151.17,0.064623,431169,371556
1154.75,0.066773,433579,371788
1158.33,0.068547,436264,372565
1161.91,0.070937,439132,372956
1165.48,0.073841,442389,373219
1169.04,0.076319,446101,374209
1173.79,0.081370,451929,374714
1177.34,0.083945,456026,375876
1180.9,0.086273,461306,378195
1184.44,0.088458,467657,381478
1187.99,0.088814,473969,386310
1191.52,0.088671,479856,391237
1195.06,0.088315,487372,397691
1199.76,0.086360,497347,407661
1203.29,0.085262,504311,414416
1206.81,0.083952,511507,421599
1210.33,0.082940,519078,428837
1213.84,0.081686,527163,436776
1217.35,0.080877,534208,443438
1220.85,0.079357,540472,450211
1225.51,0.078368,549929,459133
1229.01,0.077615,556888,465750
1232.5,0.076894,562180,470957
1235.98,0.075848,567975,476959
1239.46,0.074635,574815,484053
1242.94,0.073348,582782,492219
1246.41,0.072583,591476,500443
1251.03,0.071956,604016,511791
1254.5,0.071955,612289,518802
1257.96,0.072407,619125,524048
1261.41,0.073269,624551,527593
1264.86,0.074018,629900,531194
1268.31,0.074738,634345,534057
1271.75,0.075292,638574,536932
1276.33,0.075478,642499,540001
1279.76,0.075421,645905,542935
1283.19,0.074980,648307,545507
1286.61,0.074454,650446,547970
1290.03,0.073870,652132,550130
1293.44,0.073405,653907,552218
1296.85,0.073479,655963,553860
1301.39,0.072908,657349,555761
1304.8,0.073171,657558,555601
1308.19,0.073475,658515,556020
1311.58,0.073535,658804,556187
1314.97,0.074406,659011,555248
1318.36,0.074669,658272,554289
1321.73,0.075148,658022,553468
1326.23,0.076412,657870,551732
1329.6,0.077386,656482,549335
1332.97,0.078916,654926,546105
1336.33,0.079817,653727,543975
1339.69,0.082122,652497,540078
1343.04,0.083850,649913,535803
1346.39,0.086811,647671,530327
1349.73,0.088717,645338,526102
1354.18,0.092580,641175,518080
1357.52,0.094951,638376,513010
1360.85,0.097535,635805,507913
1364.17,0.099553,633413,503656
1367.49,0.102562,631026,498294
1370.81,0.105198,628050,492942
1374.12,0.107675,625034,487785
1378.54,0.111641,620272,479669
1381.84,0.115738,616892,472575
1385.14,0.120716,613613,464706
1388.43,0.126270,611526,457241
1391.72,0.131403,610663,451231
1395.01,0.136903,610634,445531
1398.29,0.143603,611700,439476
1402.66,0.153143,614051,431580
1405.93,0.159848,616268,426503
1409.2,0.166068,617795,421479
1412.46,0.172333,618872,416167
1415.72,0.177721,619795,411649
1418.98,0.182336,620495,407758
1422.23,0.186723,621087,404045
1426.56,0.191147,621375,400135
1429.8,0.194964,621616,396788
1433.04,0.198009,622129,394341
1436.27,0.200365,621526,391827
1439.5,0.202551,621113,389601
1442.72,0.205325,620921,387000
1445.94,0.208074,620270,384155
1450.23,0.211997,618860,379835
1453.44,0.214430,617697,377004
1456.64,0.217427,616264,373542
1459.85,0.219961,614413,370254
1463.04,0.222272,612307,367026
1466.24,0.225179,610032,363223
1469.43,0.228731,607345,358678
1473.67,0.233253,603789,352884
1476.85,0.238205,601175,347373
1480.02,0.243966,597737,340835
1483.19,0.250541,594479,333884
1486.36,0.255484,591232,328302
1489.52,0.261151,587853,322194
1492.68,0.264738,583875,317382
1496.89,0.267258,578062,312404
1500.03,0.267641,574159,310021
1503.18,0.268774,570285,307127
1506.32,0.267922,565444,305118
1509.45,0.267108,560571,303056
1512.58,0.265885,555821,301335
1515.71,0.263365,550344,300102
1519.87,0.260176,543983,298820
1522.99,0.257704,538764,297642
1526.1,0.254600,533692,296955
1529.21,0.251383,527902,295917
1532.32,0.248688,521886,294366
1535.42,0.244959,515888,293492
1538.51,0.241764,509987,292277
1541.6,0.239501,503936,290318
1545.72,0.233905,494694,288690
1548.8,0.231244,488378,286756
1551.88,0.227591,481832,285302
1554.95,0.224797,474989,283065
1558.02,0.223218,467818,279807
1561.08,0.221729,460730,276514
1564.15,0.221489,454170,272728
1568.22,0.219871,444181,267725
1571.27,0.219073,436947,263849
1574.32,0.218216,429598,259924
1577.36,0.216346,422039,256452
1580.4,0.214644,414375,252784
1583.43,0.212613,406354,249053
1586.46,0.213038,398475,243985
1590.49,0.209082,388982,240352
1593.51,0.209463,380708,235033
1596.53,0.204570,372727,232713
1599.54,0.201983,365060,229288
1602.55,0.199514,357543,225847
1605.55,0.196842,349495,222126
1608.55,0.193674,341154,218412
1612.54,0.191660,330877,212817
1615.53,0.189378,322904,208783
1618.51,0.188066,315116,204364
1621.49,0.186157,307217,200119
1624.47,0.184022,299481,196041
1627.44,0.182594,292112,191847
1630.41,0.181891,284245,186983
1634.36,0.180334,274079,180943
1637.32,0.179849,266916,176411
1640.27,0.178806,259612,171996
1643.22,0.177613,251804,167282
1646.16,0.177220,244348,162476
1649.1,0.176036,236703,157822
1652.04,0.175929,228171,152171
1655.95,0.173469,215408,144475
1658.88,0.172100,204937,137886
1661.8,0.170628,193395,130562
1664.72,0.167616,179728,122180
1667.63,0.162750,163642,112498
1670.54,0.159576,146312,101322
1673.44,0.155287,128451,89836
1677.31,0.151719,105080,74097
1680.21,0.152738,88906,62545
1683.1,0.152479,75033,52817
1685.99,0.156821,63520,44268
1688.87,0.169249,53714,36378
1691.75,0.166639,45653,31105
1694.62,0.171313,39137,26380
1697.49,0.167712,33776,22956
1701.31,0.189030,28175,18232