File: samples/wool/wool-000811/Column 1_050560_20150331_120425.csv
Method:,Column 1,,
Host Date-Time:,31/3/15 @ 12:4:25,,
Header Version:,1,,
System Temp (C):,33.68,,
Detector Temp (C):,33.12,,
Humidity (%):,2.15,,
Lamp PD:,3819,,
Shift Vector Coefficients:,-10.5391,0.0761263,-0.000134223,,
Pixel to Wavelength Coefficients:,1775.68,-0.916766,-0.000235065,,
Serial Number:,5510004,,
Scan Config Name:,Column 1,,
Scan Config Type:,Slew,,
Section 1,,
Start wavelength (nm):,900,,
End wavelength (nm):,1700,,
Pattern Pixel Width (nm):,   7.03,,,,
Exposure (ms):,  0.635,,,,
Digital Resolution:,228,,
Num Repeats:,6,,
PGA Gain:,64,,
Total Measurement Time in sec:,  2.688,,
Wavelength (nm),Absorbance (AU),Reference Signal (unitless),Sample Signal (unitless)
901.51,0.034996,108485,100086
905.376,0.039966,121306,110641
909.237,0.041691,131909,119835
913.095,0.043615,143299,129607
916.948,0.043644,156982,141973
922.079,0.045233,179937,162139
925.923,0.045850,200504,180415
929.762,0.047319,222660,199675
933.597,0.048114,244426,218793
937.427,0.046890,263972,236956
941.254,0.046904,281845,252992
945.076,0.046776,297271,266917
950.165,0.046425,315605,283608
953.978,0.045759,328029,295225
957.786,0.045675,340470,306481
961.59,0.046509,352317,316537
965.389,0.046853,363056,325927
969.185,0.046605,373162,335191
972.976,0.047114,382632,343295
976.763,0.047766,391202,350457
981.806,0.048491,400190,357911
985.583,0.048840,406088,362894
989.355,0.049458,410162,366014
993.124,0.049666,412868,368252
996.888,0.050762,414263,368565
1000.65,0.051402,415476,369100
1004.4,0.052862,415479,367864
1009.41,0.053501,414358,366332
1013.15,0.054712,412923,364047
1016.89,0.055112,411526,362481
1020.63,0.054864,409066,360520
1024.36,0.055117,406777,358294
1028.09,0.054324,404427,356875
1031.82,0.054204,401911,354753
1036.78,0.053881,398410,351924
1040.49,0.053174,396204,350546
1044.2,0.053539,394236,348512
1047.91,0.053003,392042,347000
1051.61,0.052456,389823,345471
1055.31,0.052309,388234,344179
1059,0.051732,387599,344073
1063.92,0.050083,386688,344570
1067.61,0.049326,386598,345091
1071.29,0.049044,387377,346011
1074.96,0.048913,388536,347151
1078.63,0.047953,389855,349100
1082.3,0.046849,391215,351210
1085.96,0.046670,393215,353151
1090.84,0.045609,396270,356765
1094.49,0.045689,398760,358941
1098.14,0.045152,400987,361392
1101.79,0.044451,403477,364223
1105.43,0.044663,406116,366427
1109.06,0.044224,407701,368229
1112.7,0.044206,409859,370193
1117.53,0.043960,412494,372784
1121.15,0.045383,414909,373740
1124.77,0.045653,416559,374993
1128.38,0.047159,418532,375465
1131.99,0.048231,419956,375814
1135.6,0.049653,421946,376360
1139.2,0.052335,423881,375759
1143.99,0.054322,426786,376607
1147.58,0.055564,428617,377142
1151.17,0.056611,431169,378474
1154.75,0.057943,433579,379424
1158.33,0.059689,436264,380242
1161.91,0.061324,439132,381304
1165.48,0.064278,442389,381528
1169.04,0.067161,446101,382184
1173.79,0.070521,451929,384193
1177.34,0.073058,456026,385418
1180.9,0.075306,461306,387867
1184.44,0.076696,467657,391951
1187.99,0.077982,473969,396066
1191.52,0.077754,479856,401196
1195.06,0.077309,487372,407898
1199.76,0.076589,497347,416937
1203.29,0.075532,504311,423805
1206.81,0.075092,511507,430288
1210.33,0.073781,519078,437977
1213.84,0.073250,527163,445343
1217.35,0.072225,534208,452361
1220.85,0.071643,540472,458279
1225.51,0.070411,549929,467623
1229.01,0.070547,556888,473392
1232.5,0.069437,562180,479114
1235.98,0.068557,567975,485034
1239.46,0.067734,574815,491806
1242.94,0.066536,582782,500000
1246.41,0.066522,591476,507476
1251.03,0.066122,604016,518712
1254.5,0.066223,612289,525695
1257.96,0.066656,619125,531034
1261.41,0.067106,624551,535133
1264.86,0.067599,629900,539104
1268.31,0.068283,634345,542054
1271.75,0.069102,638574,544640
1276.33,0.069449,642499,547550
1279.76,0.069523,645905,550358
1283.19,0.068706,648307,553445
1286.61,0.068381,650446,555687
1290.03,0.068014,652132,557598
1293.44,0.067539,653907,559728
1296.85,0.067706,655963,561272
1301.39,0.067066,657349,563287
1304.8,0.067241,657558,563239
1308.19,0.067538,658515,563673
1311.58,0.067584,658804,563861
1314.97,0.068160,659011,563291
1318.36,0.068587,658272,562106
1321.73,0.069671,658022,560492
1326.23,0.070109,657870,559798
1329.6,0.071162,656482,557264
1332.97,0.072096,654926,554748
1336.33,0.073200,653727,552327
1339.69,0.075104,652497,548876
1343.04,0.076709,649913,544686
1346.39,0.079325,647671,539547
1349.73,0.081300,645338,535164
1354.18,0.084534,641175,527768
1357.52,0.086856,638376,522662
1360.85,0.089164,635805,517797
1364.17,0.091007,633413,513665
1367.49,0.093820,631026,508426
1370.81,0.095955,628050,503546
1374.12,0.098578,625034,498111
1378.54,0.101968,620272,490472
1381.84,0.105638,616892,483694
1385.14,0.109830,613613,476502
1388.43,0.114285,611526,470035
1391.72,0.119360,610663,463918
1395.01,0.124445,610634,458496
1398.29,0.129774,611700,453695
1402.66,0.137258,614051,447658
1405.93,0.142830,616268,443547
1409.2,0.148730,617795,438646
1412.46,0.154518,618872,433594
1415.72,0.159056,619795,429726
1418.98,0.163039,620495,426284
1422.23,0.166666,621087,423142
1426.56,0.171451,621375,418700
1429.8,0.174179,621616,416239
1433.04,0.176903,622129,413978
1436.27,0.180007,621526,410632
1439.5,0.181732,621113,408732
1442.72,0.184101,620921,406383
1445.94,0.187166,620270,403102
1450.23,0.190683,618860,398942
1453.44,0.193199,617697,395892
1456.64,0.196456,616264,392022
1459.85,0.199186,614413,388396
1463.04,0.202015,612307,384551
1466.24,0.205036,610032,380467
1469.43,0.208540,607345,375747
1473.67,0.214070,603789,368821
1476.85,0.219595,601175,362582
1480.02,0.225380,597737,355738
1483.19,0.232499,594479,348047
1486.36,0.238582,591232,341331
1489.52,0.242869,587853,336047
1492.68,0.246660,583875,330872
1496.89,0.248644,578062,326085
1500.03,0.249718,574159,323083
1503.18,0.249721,570285,320901
1506.32,0.248999,565444,318706
1509.45,0.247417,560571,317113
1512.58,0.246006,555821,315449
1515.71,0.243739,550344,313975
1519.87,0.240505,543983,312666
1522.99,0.237077,538764,312120
1526.1,0.235031,533692,310642
1529.21,0.231574,527902,309727
1532.32,0.229276,521886,307822
1535.42,0.225649,515888,306836
1538.51,0.222724,509987,305376
1541.6,0.219728,503936,303842
1545.72,0.215139,494694,301438
1548.8,0.211120,488378,300356
1551.88,0.209628,481832,297350
1554.95,0.206963,474989,294931
1558.02,0.205129,467818,291708
1561.08,0.203832,460730,288147
1564.15,0.203390,454170,284334
1568.22,0.202305,444181,278776
1571.27,0.202279,436947,274252
1574.32,0.200864,429598,270519
1577.36,0.198570,422039,267167
1580.4,0.198158,414375,262564
1583.43,0.195935,406354,258803
1586.46,0.193982,398475,254929
1590.49,0.191673,388982,250182
1593.51,0.189966,380708,245825
1596.53,0.186762,372727,242454
1599.54,0.184619,365060,238641
1602.55,0.182530,357543,234854
1605.55,0.181279,349495,230230
1608.55,0.178469,341154,226194
1612.54,0.175910,330877,220677
1615.53,0.173951,322904,216333
1618.51,0.172899,315116,211627
1621.49,0.171158,307217,207151
1624.47,0.170279,299481,202344
1627.44,0.169505,292112,197717
1630.41,0.168725,284245,192738
1634.36,0.166859,274079,186645
1637.32,0.165826,266916,182200
1640.27,0.166055,259612,177121
1643.22,0.164077,251804,172578
1646.16,0.163263,244348,167782
1649.1,0.162459,236703,162834
1652.04,0.160473,228171,157684
1655.95,0.158900,215408,149404
1658.88,0.156731,204937,142853
1661.8,0.152195,193395,136223
1664.72,0.146074,179728,128393
1667.63,0.136836,163642,119415
1670.54,0.124848,146312,109757
1673.44,0.114566,128451,98667
1677.31,0.101553,105080,83170
1680.21,0.094425,88906,71533
1683.1,0.091870,75033,60727
1685.99,0.098460,63520,50635
1688.87,0.106053,53714,42076
1691.75,0.105307,45653,35823
1694.62,0.114295,39137,30081
1697.49,0.114755,33776,25933
1701.31,0.120568,28175,21345