File: samples/wool/wool-000811/Column 1_050539_20150331_115427.csv
Method:,Column 1,,
Host Date-Time:,31/3/15 @ 11:54:27,,
Header Version:,1,,
System Temp (C):,32.02,,
Detector Temp (C):,30.32,,
Humidity (%):,3.22,,
Lamp PD:,3825,,
Shift Vector Coefficients:,-10.5391,0.0761263,-0.000134223,,
Pixel to Wavelength Coefficients:,1775.68,-0.916766,-0.000235065,,
Serial Number:,5510004,,
Scan Config Name:,Column 1,,
Scan Config Type:,Slew,,
Section 1,,
Start wavelength (nm):,900,,
End wavelength (nm):,1700,,
Pattern Pixel Width (nm):,   7.03,,,,
Exposure (ms):,  0.635,,,,
Digital Resolution:,228,,
Num Repeats:,6,,
PGA Gain:,64,,
Total Measurement Time in sec:,  2.679,,
Wavelength (nm),Absorbance (AU),Reference Signal (unitless),Sample Signal (unitless)
901.51,0.043856,108485,98065
905.376,0.050945,121306,107879
909.237,0.052048,131909,117011
913.095,0.051633,143299,127236
916.948,0.051811,156982,139328
922.079,0.051315,179937,159884
925.923,0.052225,200504,177786
929.762,0.052960,222660,197098
933.597,0.053412,244426,216140
937.427,0.053156,263972,233562
941.254,0.053821,281845,248994
945.076,0.053820,297271,262623
950.165,0.053963,315605,278728
953.978,0.053505,328029,290006
957.786,0.053943,340470,300702
961.59,0.054232,352317,310958
965.389,0.055098,363056,319798
969.185,0.055120,373162,328683
972.976,0.055880,382632,336435
976.763,0.056927,391202,343142
981.806,0.056964,400190,350996
985.583,0.057866,406088,355430
989.355,0.058809,410162,358217
993.124,0.058361,412868,360953
996.888,0.059578,414263,361159
1000.65,0.059794,415476,362036
1004.4,0.061586,415479,360548
1009.41,0.063522,414358,357976
1013.15,0.063884,412923,356439
1016.89,0.064082,411526,355071
1020.63,0.063424,409066,353484
1024.36,0.063532,406777,351418
1028.09,0.063267,404427,349601
1031.82,0.063125,401911,347540
1036.78,0.062973,398410,344633
1040.49,0.062107,396204,343409
1044.2,0.060937,394236,342625
1047.91,0.061457,392042,340311
1051.61,0.060449,389823,339171
1055.31,0.059813,388234,338283
1059,0.058489,387599,338761
1063.92,0.057284,386688,338904
1067.61,0.056305,386598,339590
1071.29,0.055672,387377,340770
1074.96,0.055226,388536,342141
1078.63,0.054330,389855,344012
1082.3,0.053302,391215,346030
1085.96,0.052632,393215,348336
1090.84,0.051925,396270,351614
1094.49,0.051857,398760,353879
1098.14,0.051847,400987,355863
1101.79,0.051085,403477,358702
1105.43,0.051156,406116,360989
1109.06,0.050740,407701,362745
1112.7,0.050280,409859,365052
1117.53,0.050391,412494,367305
1121.15,0.051524,414909,368493
1124.77,0.052191,416559,369390
1128.38,0.053595,418532,369942
1131.99,0.054862,419956,370119
1135.6,0.057114,421946,369950
1139.2,0.059278,423881,369799
1143.99,0.062087,426786,369933
1147.58,0.062903,428617,370823
1151.17,0.064738,431169,371458
1154.75,0.065821,433579,372604
1158.33,0.068282,436264,372793
1161.91,0.070246,439132,373550
1165.48,0.073583,442389,373440
1169.04,0.076274,446101,374248
1173.79,0.080451,451929,375508
1177.34,0.083477,456026,376281
1180.9,0.085583,461306,378797
1184.44,0.087827,467657,382033
1187.99,0.088368,473969,386707
1191.52,0.088216,479856,391647
1195.06,0.087579,487372,398365
1199.76,0.085931,497347,408064
1203.29,0.084435,504311,415206
1206.81,0.083415,511507,422121
1210.33,0.082181,519078,429587
1213.84,0.081090,527163,437376
1217.35,0.080371,534208,443955
1220.85,0.078606,540472,450990
1225.51,0.077543,549929,460006
1229.01,0.077162,556888,466236
1232.5,0.076149,562180,471766
1235.98,0.075083,567975,477800
1239.46,0.074125,574815,484622
1242.94,0.073194,582782,492393
1246.41,0.072246,591476,500831
1251.03,0.071439,604016,512400
1254.5,0.071926,612289,518836
1257.96,0.072195,619125,524304
1261.41,0.072768,624551,528202
1264.86,0.073413,629900,531935
1268.31,0.074059,634345,534892
1271.75,0.075118,638574,537147
1276.33,0.075017,642499,540574
1279.76,0.075319,645905,543062
1283.19,0.074559,648307,546036
1286.61,0.074225,650446,548260
1290.03,0.073400,652132,550726
1293.44,0.073166,653907,552522
1296.85,0.073105,655963,554337
1301.39,0.072977,657349,555673
1304.8,0.073005,657558,555813
1308.19,0.072993,658515,556638
1311.58,0.073192,658804,556627
1314.97,0.073828,659011,555987
1318.36,0.074607,658272,554368
1321.73,0.074928,658022,553748
1326.23,0.075860,657870,552433
1329.6,0.077353,656482,549376
1332.97,0.077958,654926,547311
1336.33,0.079695,653727,544128
1339.69,0.081465,652497,540896
1343.04,0.083396,649913,536363
1346.39,0.086079,647671,531221
1349.73,0.088376,645338,526516
1354.18,0.092039,641175,518725
1357.52,0.094370,638376,513697
1360.85,0.096984,635805,508557
1364.17,0.099445,633413,503781
1367.49,0.101705,631026,499278
1370.81,0.105163,628050,492982
1374.12,0.107673,625034,487787
1378.54,0.111507,620272,479816
1381.84,0.115803,616892,472505
1385.14,0.119897,613613,465584
1388.43,0.126132,611526,457386
1391.72,0.131252,610663,451388
1395.01,0.137601,610634,444816
1398.29,0.143545,611700,439535
1402.66,0.152739,614051,431982
1405.93,0.159182,616268,427157
1409.2,0.166079,617795,421469
1412.46,0.171887,618872,416595
1415.72,0.177523,619795,411837
1418.98,0.182296,620495,407795
1422.23,0.186486,621087,404265
1426.56,0.190931,621375,400334
1429.8,0.194247,621616,397443
1433.04,0.197624,622129,394690
1436.27,0.199848,621526,392294
1439.5,0.201670,621113,390392
1442.72,0.205156,620921,387151
1445.94,0.207489,620270,384673
1450.23,0.210872,618860,380821
1453.44,0.214083,617697,377305
1456.64,0.217090,616264,373832
1459.85,0.219532,614413,370620
1463.04,0.222253,612307,367042
1466.24,0.225314,610032,363110
1469.43,0.228358,607345,358986
1473.67,0.233435,603789,352736
1476.85,0.238584,601175,347070
1480.02,0.243821,597737,340949
1483.19,0.250147,594479,334187
1486.36,0.255307,591232,328436
1489.52,0.260576,587853,322621
1492.68,0.264270,583875,317724
1496.89,0.267654,578062,312119
1500.03,0.267658,574159,310009
1503.18,0.268839,570285,307081
1506.32,0.267963,565444,305089
1509.45,0.266343,560571,303590
1512.58,0.265730,555821,301443
1515.71,0.263080,550344,300299
1519.87,0.259663,543983,299173
1522.99,0.256913,538764,298185
1526.1,0.254324,533692,297144
1529.21,0.251953,527902,295529
1532.32,0.248566,521886,294449
1535.42,0.244554,515888,293766
1538.51,0.241197,509987,292659
1541.6,0.238553,503936,290953
1545.72,0.233068,494694,289247
1548.8,0.229757,488378,287739
1551.88,0.226802,481832,285821
1554.95,0.225987,474989,282291
1558.02,0.223268,467818,279775
1561.08,0.221080,460730,276928
1564.15,0.221353,454170,272813
1568.22,0.219121,444181,268188
1571.27,0.218863,436947,263977
1574.32,0.217717,429598,260223
1577.36,0.216077,422039,256611
1580.4,0.214945,414375,252609
1583.43,0.212489,406354,249124
1586.46,0.210473,398475,245430
1590.49,0.207790,388982,241068
1593.51,0.206374,380708,236711
1596.53,0.203344,372727,233371
1599.54,0.201339,365060,229628
1602.55,0.199256,357543,225981
1605.55,0.195846,349495,222636
1608.55,0.194143,341154,218176
1612.54,0.191626,330877,212834
1615.53,0.188944,322904,208992
1618.51,0.187454,315116,204652
1621.49,0.184909,307217,200695
1624.47,0.183748,299481,196165
1627.44,0.183016,292112,191661
1630.41,0.181359,284245,187212
1634.36,0.180649,274079,180812
1637.32,0.178716,266916,176872
1640.27,0.177750,259612,172415
1643.22,0.176537,251804,167697
1646.16,0.176530,244348,162734
1649.1,0.175819,236703,157901
1652.04,0.174621,228171,152630
1655.95,0.173493,215408,144467
1658.88,0.171549,204937,138061
1661.8,0.169801,193395,130811
1664.72,0.167868,179728,122109
1667.63,0.163608,163642,112276
1670.54,0.158314,146312,101617
1673.44,0.154929,128451,89910
1677.31,0.151585,105080,74120
1680.21,0.153086,88906,62495
1683.1,0.152692,75033,52791
1685.99,0.163175,63520,43625
1688.87,0.161499,53714,37033
1691.75,0.168150,45653,30997
1694.62,0.172450,39137,26311
1697.49,0.176136,33776,22515
1701.31,0.177721,28175,18713