File: samples/wool/wool-000811/Column 1_050594_20150331_122036.csv
Method:,Column 1,,
Host Date-Time:,31/3/15 @ 12:20:36,,
Header Version:,1,,
System Temp (C):,33.93,,
Detector Temp (C):,34.67,,
Humidity (%):,1.76,,
Lamp PD:,3818,,
Shift Vector Coefficients:,-10.5391,0.0761263,-0.000134223,,
Pixel to Wavelength Coefficients:,1775.68,-0.916766,-0.000235065,,
Serial Number:,5510004,,
Scan Config Name:,Column 1,,
Scan Config Type:,Slew,,
Section 1,,
Start wavelength (nm):,900,,
End wavelength (nm):,1700,,
Pattern Pixel Width (nm):,   7.03,,,,
Exposure (ms):,  0.635,,,,
Digital Resolution:,228,,
Num Repeats:,6,,
PGA Gain:,64,,
Total Measurement Time in sec:,  2.679,,
Wavelength (nm),Absorbance (AU),Reference Signal (unitless),Sample Signal (unitless)
901.51,0.069557,108485,92430
905.376,0.075286,121306,101999
909.237,0.079842,131909,109757
913.095,0.076990,143299,120020
916.948,0.079674,156982,130670
922.079,0.081145,179937,149271
925.923,0.082308,200504,165888
929.762,0.083271,222660,183811
933.597,0.083338,244426,201748
937.427,0.081552,263972,218779
941.254,0.081943,281845,233382
945.076,0.080106,297271,247199
950.165,0.079262,315605,262955
953.978,0.078312,328029,273905
957.786,0.078751,340470,284006
961.59,0.079432,352317,293428
965.389,0.078538,363056,302995
969.185,0.079155,373162,310987
972.976,0.079264,382632,318799
976.763,0.080401,391202,325087
981.806,0.079740,400190,333063
985.583,0.080682,406088,337239
989.355,0.081652,410162,339863
993.124,0.081917,412868,341896
996.888,0.082486,414263,342602
1000.65,0.082983,415476,343212
1004.4,0.083918,415479,342477
1009.41,0.085219,414358,340531
1013.15,0.085765,412923,338925
1016.89,0.085954,411526,337632
1020.63,0.086162,409066,335453
1024.36,0.086073,406777,333644
1028.09,0.085966,404427,331798
1031.82,0.085929,401911,329762
1036.78,0.085177,398410,327456
1040.49,0.085161,396204,325655
1044.2,0.085610,394236,323703
1047.91,0.084733,392042,322552
1051.61,0.084881,389823,320617
1055.31,0.084144,388234,319852
1059,0.083917,387599,319496
1063.92,0.083003,386688,319417
1067.61,0.082400,386598,319786
1071.29,0.081535,387377,321069
1074.96,0.081790,388536,321841
1078.63,0.080409,389855,323962
1082.3,0.079975,391215,325417
1085.96,0.078928,393215,327870
1090.84,0.078413,396270,330810
1094.49,0.077612,398760,333503
1098.14,0.077355,400987,335564
1101.79,0.076869,403477,338026
1105.43,0.076745,406116,340334
1109.06,0.075662,407701,342515
1112.7,0.075631,409859,344353
1117.53,0.074743,412494,347276
1121.15,0.076160,414909,348171
1124.77,0.075274,416559,350270
1128.38,0.076663,418532,350805
1131.99,0.077918,419956,350983
1135.6,0.079129,421946,351664
1139.2,0.080145,423881,352451
1143.99,0.083123,426786,352442
1147.58,0.082851,428617,354175
1151.17,0.084435,431169,354987
1154.75,0.085082,433579,356440
1158.33,0.086961,436264,357099
1161.91,0.088394,439132,358262
1165.48,0.090336,442389,359309
1169.04,0.092448,446101,360566
1173.79,0.095804,451929,362465
1177.34,0.098012,456026,363896
1180.9,0.100165,461306,366289
1184.44,0.102138,467657,369649
1187.99,0.103168,473969,373751
1191.52,0.102902,479856,378625
1195.06,0.103131,487372,384352
1199.76,0.102557,497347,392738
1203.29,0.101237,504311,399449
1206.81,0.101123,511507,405255
1210.33,0.100346,519078,411990
1213.84,0.099997,527163,418743
1217.35,0.099318,534208,425003
1220.85,0.098506,540472,430792
1225.51,0.097720,549929,439123
1229.01,0.097451,556888,444956
1232.5,0.096998,562180,449653
1235.98,0.095875,567975,455464
1239.46,0.095043,574815,461833
1242.94,0.094232,582782,469109
1246.41,0.093564,591476,476841
1251.03,0.093602,604016,486907
1254.5,0.093918,612289,493218
1257.96,0.094444,619125,498120
1261.41,0.094234,624551,502729
1264.86,0.095224,629900,505880
1268.31,0.095595,634345,509015
1271.75,0.096304,638574,511573
1276.33,0.096014,642499,515061
1279.76,0.096630,645905,517057
1283.19,0.095775,648307,520003
1286.61,0.095533,650446,522009
1290.03,0.095056,652132,523938
1293.44,0.094738,653907,525749
1296.85,0.094678,655963,527474
1301.39,0.094438,657349,528881
1304.8,0.094039,657558,529535
1308.19,0.094305,658515,529982
1311.58,0.094891,658804,529499
1314.97,0.094914,659011,529637
1318.36,0.095290,658272,528586
1321.73,0.095781,658022,527788
1326.23,0.096648,657870,526614
1329.6,0.097392,656482,524603
1332.97,0.098309,654926,522256
1336.33,0.099460,653727,519920
1339.69,0.100918,652497,517202
1343.04,0.102264,649913,513560
1346.39,0.104957,647671,508625
1349.73,0.106575,645338,504908
1354.18,0.109550,641175,498226
1357.52,0.111772,638376,493520
1360.85,0.113144,635805,489982
1364.17,0.115457,633413,485545
1367.49,0.117209,631026,481768
1370.81,0.119580,628050,476886
1374.12,0.121945,625034,472018
1378.54,0.125101,620272,465030
1381.84,0.128228,616892,459178
1385.14,0.131340,613613,453476
1388.43,0.135070,611526,448069
1391.72,0.139801,610663,442589
1395.01,0.143985,610634,438325
1398.29,0.148082,611700,434967
1402.66,0.155107,614051,429633
1405.93,0.160906,616268,425465
1409.2,0.165594,617795,421940
1412.46,0.170102,618872,418311
1415.72,0.174286,619795,414918
1418.98,0.177819,620495,412021
1422.23,0.181228,621087,409189
1426.56,0.185437,621375,405431
1429.8,0.188298,621616,402925
1433.04,0.190802,622129,400939
1436.27,0.193034,621526,398497
1439.5,0.195218,621113,396235
1442.72,0.197315,620921,394204
1445.94,0.200057,620270,391313
1450.23,0.203147,618860,387655
1453.44,0.205653,617697,384700
1456.64,0.208339,616264,381441
1459.85,0.211248,614413,377757
1463.04,0.214462,612307,373686
1466.24,0.217426,610032,369766
1469.43,0.220818,607345,365273
1473.67,0.226558,603789,358366
1476.85,0.232287,601175,352139
1480.02,0.237434,597737,346000
1483.19,0.243503,594479,339339
1486.36,0.248938,591232,333288
1489.52,0.253943,587853,327586
1492.68,0.256740,583875,323281
1496.89,0.258744,578062,318589
1500.03,0.259113,574159,316169
1503.18,0.259083,570285,314057
1506.32,0.258582,565444,311751
1509.45,0.257147,560571,310087
1512.58,0.256250,555821,308095
1515.71,0.252994,550344,307355
1519.87,0.250115,543983,305823
1522.99,0.248018,538764,304355
1526.1,0.245252,533692,303416
1529.21,0.242423,527902,302086
1532.32,0.240473,521886,299987
1535.42,0.237012,515888,298912
1538.51,0.234290,509987,297351
1541.6,0.231006,503936,296053
1545.72,0.227251,494694,293147
1548.8,0.224186,488378,291454
1551.88,0.222414,481832,288723
1554.95,0.220205,474989,286074
1558.02,0.218794,467818,282672
1561.08,0.216819,460730,279658
1564.15,0.217002,454170,275560
1568.22,0.215937,444181,270161
1571.27,0.214961,436947,266359
1574.32,0.214998,429598,261857
1577.36,0.213395,422039,258201
1580.4,0.211639,414375,254539
1583.43,0.210133,406354,250479
1586.46,0.208630,398475,246474
1590.49,0.206574,388982,241744
1593.51,0.205113,380708,237399
1596.53,0.201967,372727,234112
1599.54,0.200550,365060,230046
1602.55,0.198905,357543,226164
1605.55,0.196863,349495,222115
1608.55,0.194923,341154,217785
1612.54,0.193363,330877,211984
1615.53,0.191557,322904,207738
1618.51,0.190369,315116,203283
1621.49,0.189396,307217,198632
1624.47,0.188924,299481,193841
1627.44,0.186373,292112,190185
1630.41,0.186563,284245,184982
1634.36,0.184766,274079,179106
1637.32,0.184467,266916,174545
1640.27,0.183095,259612,170306
1643.22,0.183008,251804,165217
1646.16,0.182997,244348,160329
1649.1,0.180009,236703,156385
1652.04,0.179882,228171,150792
1655.95,0.174893,215408,144002
1658.88,0.171370,204937,138118
1661.8,0.166965,193395,131668
1664.72,0.158471,179728,124780
1667.63,0.147487,163642,116522
1670.54,0.134437,146312,107360
1673.44,0.118665,128451,97740
1677.31,0.098634,105080,83731
1680.21,0.087576,88906,72670
1683.1,0.080715,75033,62307
1685.99,0.085848,63520,52127
1688.87,0.086418,53714,44022
1691.75,0.093681,45653,36795
1694.62,0.101702,39137,30966
1697.49,0.108256,33776,26324
1701.31,0.106239,28175,22061