File: samples/wool/wool-000811/Column 1_050603_20150331_122458.csv
Method:,Column 1,,
Host Date-Time:,31/3/15 @ 12:24:58,,
Header Version:,1,,
System Temp (C):,34.01,,
Detector Temp (C):,34.76,,
Humidity (%):,1.66,,
Lamp PD:,3818,,
Shift Vector Coefficients:,-10.5391,0.0761263,-0.000134223,,
Pixel to Wavelength Coefficients:,1775.68,-0.916766,-0.000235065,,
Serial Number:,5510004,,
Scan Config Name:,Column 1,,
Scan Config Type:,Slew,,
Section 1,,
Start wavelength (nm):,900,,
End wavelength (nm):,1700,,
Pattern Pixel Width (nm):,   7.03,,,,
Exposure (ms):,  0.635,,,,
Digital Resolution:,228,,
Num Repeats:,6,,
PGA Gain:,64,,
Total Measurement Time in sec:,  2.728,,
Wavelength (nm),Absorbance (AU),Reference Signal (unitless),Sample Signal (unitless)
901.51,0.070328,108485,92266
905.376,0.076053,121306,101819
909.237,0.077353,131909,110388
913.095,0.078131,143299,119705
916.948,0.079667,156982,130672
922.079,0.079232,179937,149930
925.923,0.082269,200504,165903
929.762,0.082393,222660,184183
933.597,0.082154,244426,202299
937.427,0.080398,263972,219361
941.254,0.080678,281845,234063
945.076,0.079888,297271,247323
950.165,0.078373,315605,263494
953.978,0.078013,328029,274094
957.786,0.077722,340470,284680
961.59,0.077596,352317,294671
965.389,0.077858,363056,303470
969.185,0.078819,373162,311228
972.976,0.078340,382632,319478
976.763,0.078882,391202,326226
981.806,0.078872,400190,333729
985.583,0.080223,406088,337596
989.355,0.080553,410162,340724
993.124,0.081505,412868,342221
996.888,0.081356,414263,343495
1000.65,0.082627,415476,343494
1004.4,0.083375,415479,342905
1009.41,0.084037,414358,341459
1013.15,0.084898,412923,339603
1016.89,0.085294,411526,338145
1020.63,0.085607,409066,335882
1024.36,0.084867,406777,334572
1028.09,0.084988,404427,332546
1031.82,0.085131,401911,330369
1036.78,0.085553,398410,327173
1040.49,0.084233,396204,326352
1044.2,0.084061,394236,324859
1047.91,0.084110,392042,323015
1051.61,0.083303,389823,321784
1055.31,0.083486,388234,320337
1059,0.082635,387599,320441
1063.92,0.081908,386688,320223
1067.61,0.081368,386598,320547
1071.29,0.081242,387377,321286
1074.96,0.080270,388536,322969
1078.63,0.079737,389855,324464
1082.3,0.078555,391215,326483
1085.96,0.078498,393215,328195
1090.84,0.077630,396270,331407
1094.49,0.076935,398760,334023
1098.14,0.076308,400987,336374
1101.79,0.076170,403477,338570
1105.43,0.075122,406116,341608
1109.06,0.074563,407701,343383
1112.7,0.074205,409859,345485
1117.53,0.074207,412494,347705
1121.15,0.074124,414909,349807
1124.77,0.074231,416559,351112
1128.38,0.076117,418532,351246
1131.99,0.077143,419956,351610
1135.6,0.078438,421946,352224
1139.2,0.079411,423881,353047
1143.99,0.081353,426786,353881
1147.58,0.082885,428617,354148
1151.17,0.082829,431169,356302
1154.75,0.084630,433579,356811
1158.33,0.085951,436264,357930
1161.91,0.087276,439132,359186
1165.48,0.088844,442389,360546
1169.04,0.091162,446101,361636
1173.79,0.094720,451929,363371
1177.34,0.096415,456026,365237
1180.9,0.099178,461306,367123
1184.44,0.100795,467657,370794
1187.99,0.101932,473969,374816
1191.52,0.102016,479856,379398
1195.06,0.101838,487372,385498
1199.76,0.100578,497347,394531
1203.29,0.100306,504311,400306
1206.81,0.100064,511507,406245
1210.33,0.099359,519078,412927
1213.84,0.098421,527163,420266
1217.35,0.098232,534208,426067
1220.85,0.097694,540472,431598
1225.51,0.096664,549929,440192
1229.01,0.096200,556888,446239
1232.5,0.095546,562180,451159
1235.98,0.095048,567975,456332
1239.46,0.093781,574815,463177
1242.94,0.093152,582782,470277
1246.41,0.092633,591476,477864
1251.03,0.092318,604016,488349
1254.5,0.092112,612289,495273
1257.96,0.092966,619125,499818
1261.41,0.093728,624551,503315
1264.86,0.093619,629900,507753
1268.31,0.094426,634345,510387
1271.75,0.095278,638574,512782
1276.33,0.095211,642499,516014
1279.76,0.095432,645905,518486
1283.19,0.094322,648307,521745
1286.61,0.094303,650446,523490
1290.03,0.093932,652132,525295
1293.44,0.093247,653907,527556
1296.85,0.093497,655963,528911
1301.39,0.093281,657349,530292
1304.8,0.092783,657558,531069
1308.19,0.093217,658515,531311
1311.58,0.093218,658804,531543
1314.97,0.093577,659011,531270
1318.36,0.094046,658272,530102
1321.73,0.094322,658022,529564
1326.23,0.095504,657870,528003
1329.6,0.095991,656482,526298
1332.97,0.096724,654926,524165
1336.33,0.097615,653727,522133
1339.69,0.099156,652497,519305
1343.04,0.100777,649913,515322
1346.39,0.102647,647671,511337
1349.73,0.104735,645338,507052
1354.18,0.107593,641175,500476
1357.52,0.109583,638376,496013
1360.85,0.111864,635805,491428
1364.17,0.113714,633413,487498
1367.49,0.115937,631026,483182
1370.81,0.117571,628050,479097
1374.12,0.119937,625034,474206
1378.54,0.122787,620272,467515
1381.84,0.125821,616892,461730
1385.14,0.129140,613613,455779
1388.43,0.133208,611526,449994
1391.72,0.136850,610663,445607
1395.01,0.141147,610634,441198
1398.29,0.145367,611700,437695
1402.66,0.152087,614051,432631
1405.93,0.156976,616268,429332
1409.2,0.161392,617795,426042
1412.46,0.166134,618872,422150
1415.72,0.170124,619795,418913
1418.98,0.173498,620495,416141
1422.23,0.177094,621087,413103
1426.56,0.180814,621375,409770
1429.8,0.183653,621616,407258
1433.04,0.185846,622129,405541
1436.27,0.188621,621526,402567
1439.5,0.190113,621113,400920
1442.72,0.192817,620921,398308
1445.94,0.194821,620270,396059
1450.23,0.198738,618860,391611
1453.44,0.200941,617697,388897
1456.64,0.203839,616264,385414
1459.85,0.206961,614413,381504
1463.04,0.209487,612307,377992
1466.24,0.213105,610032,373463
1469.43,0.216415,607345,368995
1473.67,0.222854,603789,361436
1476.85,0.228199,601175,355469
1480.02,0.233822,597737,348890
1483.19,0.240100,594479,342008
1486.36,0.246296,591232,335322
1489.52,0.251085,587853,329749
1492.68,0.254748,583875,324767
1496.89,0.256772,578062,320039
1500.03,0.257057,574159,317669
1503.18,0.257295,570285,315353
1506.32,0.256288,565444,313402
1509.45,0.254639,560571,311883
1512.58,0.253213,555821,310257
1515.71,0.251138,550344,308671
1519.87,0.247224,543983,307866
1522.99,0.244933,538764,306525
1526.1,0.243216,533692,304842
1529.21,0.239840,527902,303888
1532.32,0.237211,521886,302249
1535.42,0.234138,515888,300897
1538.51,0.231461,509987,299294
1541.6,0.227962,503936,298135
1545.72,0.224375,494694,295095
1548.8,0.221926,488378,292975
1551.88,0.219485,481832,290677
1554.95,0.216872,474989,288278
1558.02,0.215391,467818,284896
1561.08,0.214692,460730,281031
1564.15,0.214184,454170,277354
1568.22,0.212959,444181,272020
1571.27,0.212829,436947,267670
1574.32,0.211651,429598,263883
1577.36,0.210571,422039,259885
1580.4,0.209359,414375,255879
1583.43,0.207320,406354,252107
1586.46,0.206375,398475,247757
1590.49,0.204550,388982,242873
1593.51,0.202430,380708,238870
1596.53,0.200967,372727,234652
1599.54,0.198504,365060,231132
1602.55,0.196217,357543,227568
1605.55,0.194476,349495,223339
1608.55,0.192657,341154,218924
1612.54,0.190379,330877,213446
1615.53,0.189497,322904,208726
1618.51,0.187648,315116,204561
1621.49,0.187683,307217,199417
1624.47,0.186099,299481,195106
1627.44,0.185080,292112,190752
1630.41,0.183911,284245,186115
1634.36,0.182656,274079,179978
1637.32,0.181979,266916,175548
1640.27,0.182124,259612,170687
1643.22,0.180298,251804,166251
1646.16,0.179807,244348,161511
1649.1,0.179257,236703,156656
1652.04,0.177435,228171,151644
1655.95,0.174966,215408,143978
1658.88,0.169525,204937,138706
1661.8,0.164662,193395,132368
1664.72,0.157404,179728,125087
1667.63,0.145698,163642,117003
1670.54,0.131997,146312,107965
1673.44,0.116219,128451,98292
1677.31,0.093893,105080,84650
1680.21,0.081416,88906,73708
1683.1,0.078588,75033,62613
1685.99,0.079726,63520,52867
1688.87,0.080305,53714,44646
1691.75,0.086099,45653,37443
1694.62,0.095713,39137,31396
1697.49,0.098307,33776,26934
1701.31,0.101092,28175,22324