File: samples/wool/wool-000811/Column 1_050562_20150331_120541.csv
Method:,Column 1,,
Host Date-Time:,31/3/15 @ 12:5:41,,
Header Version:,1,,
System Temp (C):,33.79,,
Detector Temp (C):,33.4,,
Humidity (%):,2.05,,
Lamp PD:,3819,,
Shift Vector Coefficients:,-10.5391,0.0761263,-0.000134223,,
Pixel to Wavelength Coefficients:,1775.68,-0.916766,-0.000235065,,
Serial Number:,5510004,,
Scan Config Name:,Column 1,,
Scan Config Type:,Slew,,
Section 1,,
Start wavelength (nm):,900,,
End wavelength (nm):,1700,,
Pattern Pixel Width (nm):,   7.03,,,,
Exposure (ms):,  0.635,,,,
Digital Resolution:,228,,
Num Repeats:,6,,
PGA Gain:,64,,
Total Measurement Time in sec:,  2.672,,
Wavelength (nm),Absorbance (AU),Reference Signal (unitless),Sample Signal (unitless)
901.51,0.033100,108485,100524
905.376,0.037621,121306,111240
909.237,0.041234,131909,119961
913.095,0.042744,143299,129867
916.948,0.044235,156982,141780
922.079,0.045244,179937,162135
925.923,0.045997,200504,180354
929.762,0.047436,222660,199621
933.597,0.047559,244426,219073
937.427,0.046571,263972,237130
941.254,0.046325,281845,253329
945.076,0.045313,297271,267818
950.165,0.045807,315605,284012
953.978,0.045242,328029,295577
957.786,0.045623,340470,306518
961.59,0.046416,352317,316605
965.389,0.045971,363056,326590
969.185,0.046351,373162,335387
972.976,0.046951,382632,343424
976.763,0.047713,391202,350500
981.806,0.047513,400190,358718
985.583,0.048362,406088,363294
989.355,0.049441,410162,366028
993.124,0.049628,412868,368284
996.888,0.050522,414263,368769
1000.65,0.051328,415476,369163
1004.4,0.052178,415479,368444
1009.41,0.053155,414358,366624
1013.15,0.054004,412923,364641
1016.89,0.054468,411526,363019
1020.63,0.054339,409066,360956
1024.36,0.054191,406777,359059
1028.09,0.053803,404427,357303
1031.82,0.053542,401911,355294
1036.78,0.053149,398410,352518
1040.49,0.053028,396204,350664
1044.2,0.053164,394236,348813
1047.91,0.052948,392042,347044
1051.61,0.051571,389823,346176
1055.31,0.050794,388234,345382
1059,0.050440,387599,345098
1063.92,0.050020,386688,344620
1067.61,0.049501,386598,344952
1071.29,0.048600,387377,346365
1074.96,0.047639,388536,348171
1078.63,0.047503,389855,349462
1082.3,0.046230,391215,351711
1085.96,0.046391,393215,353378
1090.84,0.045397,396270,356939
1094.49,0.044769,398760,359702
1098.14,0.044185,400987,362197
1101.79,0.044226,403477,364412
1105.43,0.044918,406116,366212
1109.06,0.043848,407701,368548
1112.7,0.043648,409859,370669
1117.53,0.043290,412494,373360
1121.15,0.044763,414909,374274
1124.77,0.044786,416559,375743
1128.38,0.046533,418532,376007
1131.99,0.047561,419956,376394
1135.6,0.049914,421946,376134
1139.2,0.051195,423881,376746
1143.99,0.053596,426786,377237
1147.58,0.055143,428617,377508
1151.17,0.056241,431169,378797
1154.75,0.056927,433579,380313
1158.33,0.058914,436264,380921
1161.91,0.061219,439132,381396
1165.48,0.063590,442389,382133
1169.04,0.065851,446101,383338
1173.79,0.069720,451929,384902
1177.34,0.072329,456026,386065
1180.9,0.074434,461306,388647
1184.44,0.076547,467657,392085
1187.99,0.076873,473969,397079
1191.52,0.076498,479856,402358
1195.06,0.077345,487372,407864
1199.76,0.075752,497347,417741
1203.29,0.074409,504311,424903
1206.81,0.074351,511507,431023
1210.33,0.073381,519078,438381
1213.84,0.072494,527163,446119
1217.35,0.071833,534208,452770
1220.85,0.070813,540472,459156
1225.51,0.069978,549929,468089
1229.01,0.069707,556888,474308
1232.5,0.068975,562180,479623
1235.98,0.068728,567975,484843
1239.46,0.067142,574815,492477
1242.94,0.066157,582782,500437
1246.41,0.065650,591476,508495
1251.03,0.065129,604016,519900
1254.5,0.065655,612289,526382
1257.96,0.065779,619125,532108
1261.41,0.066674,624551,535666
1264.86,0.067170,629900,539637
1268.31,0.067854,634345,542590
1271.75,0.068585,638574,545288
1276.33,0.069041,642499,548064
1279.76,0.068740,645905,551351
1283.19,0.068102,648307,554216
1286.61,0.067825,650446,556399
1290.03,0.067852,652132,557807
1293.44,0.067380,653907,559933
1296.85,0.067220,655963,561900
1301.39,0.066780,657349,563658
1304.8,0.066716,657558,563921
1308.19,0.067305,658515,563976
1311.58,0.067015,658804,564600
1314.97,0.067536,659011,564101
1318.36,0.068294,658272,562486
1321.73,0.068673,658022,561781
1326.23,0.069401,657870,560711
1329.6,0.070666,656482,557900
1332.97,0.071625,654926,555350
1336.33,0.073016,653727,552561
1339.69,0.074525,652497,549608
1343.04,0.076538,649913,544901
1346.39,0.078818,647671,540178
1349.73,0.080354,645338,536331
1354.18,0.084047,641175,528360
1357.52,0.086025,638376,523663
1360.85,0.088401,635805,518708
1364.17,0.090746,633413,513974
1367.49,0.092723,631026,509711
1370.81,0.095647,628050,503903
1374.12,0.097460,625034,499394
1378.54,0.101767,620272,490699
1381.84,0.104805,616892,484623
1385.14,0.108945,613613,477474
1388.43,0.112929,611526,471505
1391.72,0.118065,610663,465304
1395.01,0.122708,610634,460334
1398.29,0.128226,611700,455316
1402.66,0.136040,614051,448915
1405.93,0.141510,616268,444897
1409.2,0.147408,617795,439984
1412.46,0.152558,618872,435555
1415.72,0.157076,619795,431690
1418.98,0.161446,620495,427851
1422.23,0.164530,621087,425229
1426.56,0.169734,621375,420358
1429.8,0.171667,621616,418654
1433.04,0.174826,622129,415963
1436.27,0.177663,621526,412854
1439.5,0.179452,621113,410883
1442.72,0.182605,620921,407785
1445.94,0.184810,620270,405295
1450.23,0.188550,618860,400906
1453.44,0.191636,617697,397319
1456.64,0.193928,616264,394311
1459.85,0.197689,614413,389737
1463.04,0.199935,612307,386397
1466.24,0.203412,610032,381892
1469.43,0.206806,607345,377250
1473.67,0.212743,603789,369949
1476.85,0.218395,601175,363585
1480.02,0.224115,597737,356776
1483.19,0.230660,594479,349524
1486.36,0.236631,591232,342868
1489.52,0.241656,587853,336987
1492.68,0.244899,583875,332216
1496.89,0.248014,578062,326558
1500.03,0.248594,574159,323920
1503.18,0.248812,570285,321573
1506.32,0.248064,565444,319393
1509.45,0.246426,560571,317837
1512.58,0.244664,555821,316425
1515.71,0.242226,550344,315071
1519.87,0.239443,543983,313431
1522.99,0.236900,538764,312247
1526.1,0.234246,533692,311204
1529.21,0.231126,527902,310047
1532.32,0.227890,521886,308806
1535.42,0.224839,515888,307409
1538.51,0.223471,509987,304851
1541.6,0.218849,503936,304457
1545.72,0.214400,494694,301951
1548.8,0.210546,488378,300753
1551.88,0.207537,481832,298785
1554.95,0.205571,474989,295878
1558.02,0.204027,467818,292449
1561.08,0.202845,460730,288803
1564.15,0.202299,454170,285049
1568.22,0.201781,444181,279112
1571.27,0.200168,436947,275588
1574.32,0.199922,429598,271107
1577.36,0.197043,422039,268108
1580.4,0.196984,414375,263275
1583.43,0.194742,406354,259515
1586.46,0.193109,398475,255442
1590.49,0.191115,388982,250504
1593.51,0.188814,380708,246478
1596.53,0.185897,372727,242937
1599.54,0.184110,365060,238921
1602.55,0.181710,357543,235298
1605.55,0.178991,349495,231446
1608.55,0.176835,341154,227047
1612.54,0.175088,330877,221095
1615.53,0.173056,322904,216779
1618.51,0.172313,315116,211913
1621.49,0.170630,307217,207403
1624.47,0.169696,299481,202616
1627.44,0.169016,292112,197940
1630.41,0.166243,284245,193843
1634.36,0.165477,274079,187240
1637.32,0.164788,266916,182636
1640.27,0.164977,259612,177561
1643.22,0.162257,251804,173303
1646.16,0.161247,244348,168563
1649.1,0.161555,236703,163173
1652.04,0.160387,228171,157715
1655.95,0.156835,215408,150116
1658.88,0.153466,204937,143931
1661.8,0.148759,193395,137305
1664.72,0.144144,179728,128965
1667.63,0.134258,163642,120126
1670.54,0.122771,146312,110283
1673.44,0.109707,128451,99777
1677.31,0.098655,105080,83727
1680.21,0.087546,88906,72675
1683.1,0.084876,75033,61713
1685.99,0.088086,63520,51859
1688.87,0.093499,53714,43310
1691.75,0.096879,45653,36525
1694.62,0.103938,39137,30807
1697.49,0.110522,33776,26187
1701.31,0.110254,28175,21858