File: samples/wool/wool-000811/Column 1_050590_20150331_121904.csv
Method:,Column 1,,
Host Date-Time:,31/3/15 @ 12:19:4,,
Header Version:,1,,
System Temp (C):,33.88,,
Detector Temp (C):,34.56,,
Humidity (%):,1.86,,
Lamp PD:,3818,,
Shift Vector Coefficients:,-10.5391,0.0761263,-0.000134223,,
Pixel to Wavelength Coefficients:,1775.68,-0.916766,-0.000235065,,
Serial Number:,5510004,,
Scan Config Name:,Column 1,,
Scan Config Type:,Slew,,
Section 1,,
Start wavelength (nm):,900,,
End wavelength (nm):,1700,,
Pattern Pixel Width (nm):,   7.03,,,,
Exposure (ms):,  0.635,,,,
Digital Resolution:,228,,
Num Repeats:,6,,
PGA Gain:,64,,
Total Measurement Time in sec:,  2.727,,
Wavelength (nm),Absorbance (AU),Reference Signal (unitless),Sample Signal (unitless)
901.51,0.070408,108485,92249
905.376,0.076779,121306,101649
909.237,0.076405,131909,110629
913.095,0.078454,143299,119616
916.948,0.078764,156982,130944
922.079,0.081264,179937,149230
925.923,0.083196,200504,165549
929.762,0.082435,222660,184165
933.597,0.082588,244426,202097
937.427,0.081304,263972,218904
941.254,0.081331,281845,233711
945.076,0.080763,297271,246825
950.165,0.079510,315605,262805
953.978,0.078779,328029,273611
957.786,0.078528,340470,284152
961.59,0.079314,352317,293508
965.389,0.079270,363056,302485
969.185,0.078842,373162,311211
972.976,0.079275,382632,318791
976.763,0.079982,391202,325401
981.806,0.080503,400190,332478
985.583,0.080012,406088,337760
989.355,0.081291,410162,340145
993.124,0.081766,412868,342015
996.888,0.081983,414263,342999
1000.65,0.083130,415476,343096
1004.4,0.084321,415479,342159
1009.41,0.085288,414358,340477
1013.15,0.085047,412923,339486
1016.89,0.086163,411526,337469
1020.63,0.086014,409066,335567
1024.36,0.086406,406777,333388
1028.09,0.085921,404427,331833
1031.82,0.085508,401911,330082
1036.78,0.085429,398410,327266
1040.49,0.085294,396204,325555
1044.2,0.085109,394236,324076
1047.91,0.084987,392042,322363
1051.61,0.084488,389823,320907
1055.31,0.084427,388234,319644
1059,0.083909,387599,319502
1063.92,0.083418,386688,319112
1067.61,0.082570,386598,319661
1071.29,0.082692,387377,320215
1074.96,0.081280,388536,322219
1078.63,0.080437,389855,323941
1082.3,0.079391,391215,325855
1085.96,0.079301,393215,327589
1090.84,0.078335,396270,330869
1094.49,0.077682,398760,333449
1098.14,0.077063,400987,335790
1101.79,0.077244,403477,337734
1105.43,0.076149,406116,340801
1109.06,0.075542,407701,342610
1112.7,0.075199,409859,344695
1117.53,0.075460,412494,346703
1121.15,0.075724,414909,348521
1124.77,0.075949,416559,349726
1128.38,0.076751,418532,350734
1131.99,0.078019,419956,350901
1135.6,0.079354,421946,351482
1139.2,0.081067,423881,351704
1143.99,0.083074,426786,352481
1147.58,0.083592,428617,353572
1151.17,0.084005,431169,355339
1154.75,0.085915,433579,355757
1158.33,0.086498,436264,357480
1161.91,0.089132,439132,357654
1165.48,0.090532,442389,359147
1169.04,0.092855,446101,360229
1173.79,0.096292,451929,362058
1177.34,0.098218,456026,363724
1180.9,0.100209,461306,366252
1184.44,0.102086,467657,369693
1187.99,0.103611,473969,373370
1191.52,0.103055,479856,378491
1195.06,0.103066,487372,384410
1199.76,0.102561,497347,392734
1203.29,0.102099,504311,398657
1206.81,0.101073,511507,405302
1210.33,0.100683,519078,411670
1213.84,0.100307,527163,418445
1217.35,0.099667,534208,424662
1220.85,0.098803,540472,430497
1225.51,0.098049,549929,438791
1229.01,0.097606,556888,444797
1232.5,0.097345,562180,449294
1235.98,0.096438,567975,454874
1239.46,0.095461,574815,461389
1242.94,0.094396,582782,468932
1246.41,0.093936,591476,476432
1251.03,0.093992,604016,486470
1254.5,0.093983,612289,493144
1257.96,0.094532,619125,498020
1261.41,0.094817,624551,502054
1264.86,0.095634,629900,505403
1268.31,0.095900,634345,508657
1271.75,0.096091,638574,511824
1276.33,0.097006,642499,513886
1279.76,0.096626,645905,517062
1283.19,0.096336,648307,519331
1286.61,0.096079,650446,521353
1290.03,0.095460,652132,523450
1293.44,0.095074,653907,525342
1296.85,0.094948,655963,527146
1301.39,0.094618,657349,528662
1304.8,0.094726,657558,528698
1308.19,0.095138,658515,528966
1311.58,0.094789,658804,529623
1314.97,0.095518,659011,528901
1318.36,0.095736,658272,528043
1321.73,0.096179,658022,527304
1326.23,0.097290,657870,525836
1329.6,0.098158,656482,523678
1332.97,0.099145,654926,521251
1336.33,0.100207,653727,519026
1339.69,0.101412,652497,516615
1343.04,0.103051,649913,512630
1346.39,0.105191,647671,508351
1349.73,0.106815,645338,504629
1354.18,0.109986,641175,497726
1357.52,0.111821,638376,493464
1360.85,0.114199,635805,488793
1364.17,0.116139,633413,484784
1367.49,0.118075,631026,480809
1370.81,0.120596,628050,475771
1374.12,0.122867,625034,471017
1378.54,0.125316,620272,464800
1381.84,0.128529,616892,458860
1385.14,0.132368,613613,452404
1388.43,0.136019,611526,447091
1391.72,0.140864,610663,441507
1395.01,0.145248,610634,437052
1398.29,0.149806,611700,433244
1402.66,0.156838,614051,427924
1405.93,0.162408,616268,423996
1409.2,0.167256,617795,420328
1412.46,0.172251,618872,416246
1415.72,0.176209,619795,413085
1418.98,0.179992,620495,409965
1422.23,0.183252,621087,407287
1426.56,0.187347,621375,403652
1429.8,0.190342,621616,401033
1433.04,0.192459,622129,399412
1436.27,0.195035,621526,396665
1439.5,0.197039,621113,394577
1442.72,0.198940,620921,392732
1445.94,0.201308,620270,390187
1450.23,0.204911,618860,386084
1453.44,0.206751,617697,383729
1456.64,0.210312,616264,379712
1459.85,0.212748,614413,376454
1463.04,0.215751,612307,372579
1466.24,0.219116,610032,368330
1469.43,0.221911,607345,364355
1473.67,0.228135,603789,357067
1476.85,0.233512,601175,351147
1480.02,0.239128,597737,344653
1483.19,0.244506,594479,338556
1486.36,0.250022,591232,332457
1489.52,0.254607,587853,327086
1492.68,0.258375,583875,322066
1496.89,0.259867,578062,317766
1500.03,0.260387,574159,315243
1503.18,0.260727,570285,312871
1506.32,0.259177,565444,311324
1509.45,0.258627,560571,309032
1512.58,0.256651,555821,307811
1515.71,0.254412,550344,306353
1519.87,0.251315,543983,304979
1522.99,0.249359,538764,303417
1526.1,0.246475,533692,302563
1529.21,0.243242,527902,301517
1532.32,0.241600,521886,299210
1535.42,0.237631,515888,298486
1538.51,0.234863,509987,296959
1541.6,0.231555,503936,295679
1545.72,0.228163,494694,292532
1548.8,0.225422,488378,290626
1551.88,0.222641,481832,288572
1554.95,0.220801,474989,285682
1558.02,0.220131,467818,281803
1561.08,0.218459,460730,278604
1564.15,0.217382,454170,275319
1568.22,0.216286,444181,269944
1571.27,0.215970,436947,265741
1574.32,0.215421,429598,261602
1577.36,0.213997,422039,257843
1580.4,0.212907,414375,253797
1583.43,0.210763,406354,250116
1586.46,0.208961,398475,246286
1590.49,0.207522,388982,241217
1593.51,0.205571,380708,237149
1596.53,0.203554,372727,233258
1599.54,0.201462,365060,229563
1602.55,0.201192,357543,224976
1605.55,0.197517,349495,221781
1608.55,0.195783,341154,217354
1612.54,0.192989,330877,212167
1615.53,0.192491,322904,207292
1618.51,0.191278,315116,202858
1621.49,0.189991,307217,198360
1624.47,0.187434,299481,194507
1627.44,0.187597,292112,189650
1630.41,0.186803,284245,184880
1634.36,0.185003,274079,179008
1637.32,0.184798,266916,174412
1640.27,0.183710,259612,170065
1643.22,0.182997,251804,165221
1646.16,0.182528,244348,160502
1649.1,0.182197,236703,155599
1652.04,0.179606,228171,150888
1655.95,0.177158,215408,143253
1658.88,0.173716,204937,137374
1661.8,0.167992,193395,131357
1664.72,0.161292,179728,123972
1667.63,0.148517,163642,116246
1670.54,0.134964,146312,107230
1673.44,0.119248,128451,97609
1677.31,0.097888,105080,83875
1680.21,0.087815,88906,72630
1683.1,0.085178,75033,61670
1685.99,0.082975,63520,52473
1688.87,0.089745,53714,43686
1691.75,0.093256,45653,36831
1694.62,0.091213,39137,31723
1697.49,0.094726,33776,27157
1701.31,0.108647,28175,21939