File: samples/wool/wool-000811/Column 1_050591_20150331_121913.csv
Method:,Column 1,,
Host Date-Time:,31/3/15 @ 12:19:13,,
Header Version:,1,,
System Temp (C):,33.87,,
Detector Temp (C):,34.64,,
Humidity (%):,1.81,,
Lamp PD:,3818,,
Shift Vector Coefficients:,-10.5391,0.0761263,-0.000134223,,
Pixel to Wavelength Coefficients:,1775.68,-0.916766,-0.000235065,,
Serial Number:,5510004,,
Scan Config Name:,Column 1,,
Scan Config Type:,Slew,,
Section 1,,
Start wavelength (nm):,900,,
End wavelength (nm):,1700,,
Pattern Pixel Width (nm):,   7.03,,,,
Exposure (ms):,  0.635,,,,
Digital Resolution:,228,,
Num Repeats:,6,,
PGA Gain:,64,,
Total Measurement Time in sec:,  2.735,,
Wavelength (nm),Absorbance (AU),Reference Signal (unitless),Sample Signal (unitless)
901.51,0.069735,108485,92392
905.376,0.075810,121306,101876
909.237,0.077301,131909,110401
913.095,0.078755,143299,119533
916.948,0.080063,156982,130553
922.079,0.081777,179937,149054
925.923,0.082038,200504,165991
929.762,0.082148,222660,184287
933.597,0.082334,244426,202215
937.427,0.081924,263972,218592
941.254,0.081629,281845,233551
945.076,0.079637,297271,247466
950.165,0.079578,315605,262764
953.978,0.079082,328029,273420
957.786,0.078884,340470,283919
961.59,0.078713,352317,293914
965.389,0.079399,363056,302395
969.185,0.078812,373162,311233
972.976,0.079001,382632,318992
976.763,0.079990,391202,325395
981.806,0.080270,400190,332657
985.583,0.081007,406088,336987
989.355,0.081552,410162,339941
993.124,0.081830,412868,341965
996.888,0.082242,414263,342795
1000.65,0.083234,415476,343014
1004.4,0.084722,415479,341843
1009.41,0.085086,414358,340635
1013.15,0.085668,412923,339001
1016.89,0.086761,411526,337005
1020.63,0.086321,409066,335330
1024.36,0.085849,406777,333816
1028.09,0.086270,404427,331566
1031.82,0.086376,401911,329423
1036.78,0.085567,398410,327162
1040.49,0.085245,396204,325592
1044.2,0.085057,394236,324115
1047.91,0.084550,392042,322688
1051.61,0.084467,389823,320923
1055.31,0.084722,388234,319427
1059,0.084123,387599,319345
1063.92,0.083502,386688,319050
1067.61,0.081926,386598,320135
1071.29,0.082207,387377,320573
1074.96,0.081345,388536,322171
1078.63,0.081040,389855,323492
1082.3,0.080179,391215,325264
1085.96,0.079570,393215,327386
1090.84,0.078096,396270,331051
1094.49,0.077874,398760,333302
1098.14,0.077499,400987,335453
1101.79,0.076919,403477,337987
1105.43,0.076885,406116,340224
1109.06,0.075710,407701,342477
1112.7,0.075216,409859,344682
1117.53,0.075377,412494,346769
1121.15,0.076147,414909,348182
1124.77,0.075980,416559,349701
1128.38,0.076912,418532,350604
1131.99,0.077804,419956,351075
1135.6,0.079173,421946,351628
1139.2,0.080648,423881,352043
1143.99,0.083175,426786,352399
1147.58,0.083687,428617,353494
1151.17,0.084770,431169,354713
1154.75,0.085318,433579,356246
1158.33,0.086653,436264,357352
1161.91,0.088918,439132,357830
1165.48,0.090902,442389,358841
1169.04,0.092970,446101,360133
1173.79,0.095893,451929,362391
1177.34,0.098785,456026,363249
1180.9,0.100489,461306,366016
1184.44,0.102489,467657,369350
1187.99,0.103092,473969,373816
1191.52,0.103249,479856,378322
1195.06,0.103233,487372,384262
1199.76,0.102405,497347,392875
1203.29,0.102132,504311,398627
1206.81,0.101937,511507,404496
1210.33,0.100851,519078,411511
1213.84,0.100054,527163,418688
1217.35,0.099596,534208,424731
1220.85,0.098726,540472,430573
1225.51,0.097942,549929,438899
1229.01,0.097869,556888,444528
1232.5,0.096613,562180,450052
1235.98,0.096278,567975,455042
1239.46,0.095313,574815,461546
1242.94,0.094636,582782,468673
1246.41,0.093910,591476,476461
1251.03,0.093705,604016,486792
1254.5,0.093719,612289,493443
1257.96,0.094298,619125,498288
1261.41,0.094549,624551,502365
1264.86,0.095261,629900,505837
1268.31,0.096576,634345,507866
1271.75,0.096741,638574,511058
1276.33,0.097045,642499,513840
1279.76,0.096697,645905,516977
1283.19,0.095985,648307,519751
1286.61,0.095715,650446,521790
1290.03,0.095504,652132,523397
1293.44,0.094914,653907,525535
1296.85,0.094784,655963,527346
1301.39,0.094832,657349,528402
1304.8,0.094462,657558,529020
1308.19,0.094562,658515,529668
1311.58,0.094971,658804,529402
1314.97,0.095348,659011,529109
1318.36,0.095837,658272,527920
1321.73,0.096342,658022,527107
1326.23,0.097188,657870,525959
1329.6,0.098081,656482,523772
1332.97,0.098757,654926,521717
1336.33,0.099827,653727,519481
1339.69,0.101587,652497,516406
1343.04,0.103139,649913,512526
1346.39,0.105123,647671,508430
1349.73,0.106896,645338,504535
1354.18,0.109753,641175,497993
1357.52,0.111723,638376,493575
1360.85,0.114333,635805,488642
1364.17,0.116075,633413,484855
1367.49,0.118093,631026,480789
1370.81,0.120254,628050,476146
1374.12,0.122697,625034,471202
1378.54,0.125817,620272,464264
1381.84,0.128807,616892,458566
1385.14,0.132024,613613,452763
1388.43,0.135796,611526,447321
1391.72,0.140799,610663,441573
1395.01,0.144974,610634,437328
1398.29,0.150013,611700,433037
1402.66,0.156284,614051,428470
1405.93,0.162173,616268,424225
1409.2,0.167122,617795,420458
1412.46,0.172126,618872,416366
1415.72,0.176005,619795,413279
1418.98,0.179745,620495,410198
1422.23,0.183640,621087,406923
1426.56,0.187621,621375,403397
1429.8,0.189779,621616,401553
1433.04,0.192634,622129,399251
1436.27,0.194792,621526,396887
1439.5,0.197116,621113,394507
1442.72,0.199461,620921,392261
1445.94,0.201916,620270,389641
1450.23,0.204867,618860,386123
1453.44,0.207601,617697,382979
1456.64,0.210009,616264,379977
1459.85,0.212777,614413,376429
1463.04,0.215538,612307,372762
1466.24,0.218935,610032,368483
1469.43,0.222800,607345,363610
1473.67,0.227757,603789,357378
1476.85,0.233250,601175,351359
1480.02,0.238665,597737,345021
1483.19,0.244677,594479,338423
1486.36,0.250254,591232,332280
1489.52,0.254672,587853,327037
1492.68,0.257586,583875,322652
1496.89,0.260057,578062,317627
1500.03,0.259989,574159,315532
1503.18,0.260254,570285,313212
1506.32,0.259438,565444,311137
1509.45,0.258683,560571,308992
1512.58,0.255704,555821,308483
1515.71,0.254073,550344,306592
1519.87,0.251210,543983,305053
1522.99,0.249425,538764,303371
1526.1,0.246828,533692,302317
1529.21,0.244231,527902,300831
1532.32,0.240672,521886,299850
1535.42,0.237797,515888,298372
1538.51,0.235173,509987,296747
1541.6,0.232651,503936,294934
1545.72,0.228499,494694,292306
1548.8,0.224817,488378,291031
1551.88,0.222857,481832,288429
1554.95,0.220991,474989,285557
1558.02,0.219178,467818,282422
1561.08,0.218306,460730,278702
1564.15,0.217633,454170,275160
1568.22,0.216502,444181,269810
1571.27,0.215650,436947,265937
1574.32,0.214724,429598,262022
1577.36,0.213585,422039,258088
1580.4,0.212097,414375,254271
1583.43,0.212113,406354,249340
1586.46,0.209895,398475,245757
1590.49,0.206531,388982,241768
1593.51,0.205765,380708,237043
1596.53,0.203754,372727,233151
1599.54,0.202019,365060,229269
1602.55,0.199181,357543,226020
1605.55,0.198054,349495,221507
1608.55,0.195869,341154,217311
1612.54,0.194796,330877,211286
1615.53,0.191823,322904,207611
1618.51,0.191002,315116,202987
1621.49,0.189354,307217,198651
1624.47,0.188171,299481,194177
1627.44,0.188046,292112,189454
1630.41,0.186277,284245,185104
1634.36,0.185134,274079,178954
1637.32,0.183771,266916,174825
1640.27,0.184050,259612,169932
1643.22,0.183095,251804,165184
1646.16,0.182312,244348,160582
1649.1,0.181505,236703,155847
1652.04,0.179309,228171,150991
1655.95,0.175959,215408,143649
1658.88,0.173675,204937,137387
1661.8,0.170173,193395,130699
1664.72,0.160008,179728,124339
1667.63,0.147573,163642,116499
1670.54,0.134611,146312,107317
1673.44,0.120839,128451,97252
1677.31,0.101235,105080,83231
1680.21,0.087737,88906,72643
1683.1,0.082553,75033,62044
1685.99,0.089118,63520,51736
1688.87,0.084646,53714,44202
1691.75,0.094969,45653,36686
1694.62,0.095672,39137,31399
1697.49,0.103694,33776,26602
1701.31,0.103179,28175,22217