File: samples/wool/wool-000811/Column 1_050533_20150331_115156.csv
Method:,Column 1,,
Host Date-Time:,31/3/15 @ 11:51:56,,
Header Version:,1,,
System Temp (C):,30.83,,
Detector Temp (C):,30.69,,
Humidity (%):,4.39,,
Lamp PD:,3829,,
Shift Vector Coefficients:,-10.5391,0.0761263,-0.000134223,,
Pixel to Wavelength Coefficients:,1775.68,-0.916766,-0.000235065,,
Serial Number:,5510004,,
Scan Config Name:,Column 1,,
Scan Config Type:,Slew,,
Section 1,,
Start wavelength (nm):,900,,
End wavelength (nm):,1700,,
Pattern Pixel Width (nm):,   7.03,,,,
Exposure (ms):,  0.635,,,,
Digital Resolution:,228,,
Num Repeats:,6,,
PGA Gain:,64,,
Total Measurement Time in sec:,  2.692,,
Wavelength (nm),Absorbance (AU),Reference Signal (unitless),Sample Signal (unitless)
901.51,0.043634,108485,98115
905.376,0.048252,121306,108550
909.237,0.048341,131909,118014
913.095,0.050866,143299,127461
916.948,0.050187,156982,139850
922.079,0.050070,179937,160343
925.923,0.051011,200504,178284
929.762,0.051706,222660,197668
933.597,0.052467,244426,216611
937.427,0.051719,263972,234336
941.254,0.052816,281845,249571
945.076,0.052497,297271,263424
950.165,0.053208,315605,279213
953.978,0.052934,328029,290388
957.786,0.053214,340470,301207
961.59,0.053953,352317,311158
965.389,0.054236,363056,320433
969.185,0.054572,373162,329098
972.976,0.055142,382632,337007
976.763,0.056589,391202,343409
981.806,0.056289,400190,351542
985.583,0.057218,406088,355961
989.355,0.057891,410162,358975
993.124,0.058677,412868,360690
996.888,0.059187,414263,361484
1000.65,0.059679,415476,362132
1004.4,0.060859,415479,361152
1009.41,0.062867,414358,358516
1013.15,0.062217,412923,357810
1016.89,0.063516,411526,355534
1020.63,0.063446,409066,353466
1024.36,0.063586,406777,351375
1028.09,0.062736,404427,350029
1031.82,0.062722,401911,347863
1036.78,0.062164,398410,345276
1040.49,0.061271,396204,344071
1044.2,0.060955,394236,342611
1047.91,0.059782,392042,341626
1051.61,0.059438,389823,339961
1055.31,0.058907,388234,338990
1059,0.057932,387599,339196
1063.92,0.056093,386688,339835
1067.61,0.055922,386598,339889
1071.29,0.055200,387377,341141
1074.96,0.054885,388536,342410
1078.63,0.054240,389855,344083
1082.3,0.052976,391215,346290
1085.96,0.052396,393215,348525
1090.84,0.051868,396270,351660
1094.49,0.051274,398760,354354
1098.14,0.051071,400987,356500
1101.79,0.050863,403477,358885
1105.43,0.051080,406116,361052
1109.06,0.049688,407701,363625
1112.7,0.050127,409859,365180
1117.53,0.050223,412494,367447
1121.15,0.050967,414909,368966
1124.77,0.051429,416559,370039
1128.38,0.053363,418532,370140
1131.99,0.054793,419956,370178
1135.6,0.057269,421946,369818
1139.2,0.058830,423881,370181
1143.99,0.061987,426786,370018
1147.58,0.063090,428617,370663
1151.17,0.064423,431169,371727
1154.75,0.066635,433579,371906
1158.33,0.068287,436264,372788
1161.91,0.070223,439132,373570
1165.48,0.073338,442389,373651
1169.04,0.076114,446101,374386
1173.79,0.080625,451929,375358
1177.34,0.082937,456026,376749
1180.9,0.086066,461306,378376
1184.44,0.087852,467657,382011
1187.99,0.088296,473969,386771
1191.52,0.087993,479856,391848
1195.06,0.087650,487372,398300
1199.76,0.086400,497347,407624
1203.29,0.084311,504311,415324
1206.81,0.083510,511507,422028
1210.33,0.082203,519078,429566
1213.84,0.081012,527163,437455
1217.35,0.080240,534208,444089
1220.85,0.079186,540472,450388
1225.51,0.077525,549929,460025
1229.01,0.077489,556888,465885
1232.5,0.076356,562180,471541
1235.98,0.075657,567975,477169
1239.46,0.074180,574815,484561
1242.94,0.072984,582782,492631
1246.41,0.072398,591476,500656
1251.03,0.072057,604016,511672
1254.5,0.071939,612289,518821
1257.96,0.072247,619125,524242
1261.41,0.072721,624551,528259
1264.86,0.073035,629900,532398
1268.31,0.073966,634345,535007
1271.75,0.074590,638574,537800
1276.33,0.074833,642499,540803
1279.76,0.074964,645905,543507
1283.19,0.074427,648307,546202
1286.61,0.074423,650446,548010
1290.03,0.073682,652132,550369
1293.44,0.073133,653907,552564
1296.85,0.073272,655963,554124
1301.39,0.072972,657349,555679
1304.8,0.072913,657558,555931
1308.19,0.073286,658515,556262
1311.58,0.073398,658804,556363
1314.97,0.074182,659011,555534
1318.36,0.074762,658272,554170
1321.73,0.075020,658022,553631
1326.23,0.076433,657870,551705
1329.6,0.077004,656482,549818
1332.97,0.078478,654926,546656
1336.33,0.080331,653727,543332
1339.69,0.082096,652497,540110
1343.04,0.083745,649913,535933
1346.39,0.086312,647671,530936
1349.73,0.088687,645338,526139
1354.18,0.092624,641175,518027
1357.52,0.094942,638376,513020
1360.85,0.097246,635805,508251
1364.17,0.099631,633413,503565
1367.49,0.102750,631026,498078
1370.81,0.105258,628050,492874
1374.12,0.107943,625034,487484
1378.54,0.112368,620272,478866
1381.84,0.116469,616892,471781
1385.14,0.120394,613613,465051
1388.43,0.126682,611526,456807
1391.72,0.132342,610663,450256
1395.01,0.138892,610634,443495
1398.29,0.145330,611700,437732
1402.66,0.154262,614051,430470
1405.93,0.161892,616268,424500
1409.2,0.167855,617795,419749
1412.46,0.174880,618872,413734
1415.72,0.180062,619795,409436
1418.98,0.185196,620495,405081
1422.23,0.189808,621087,401185
1426.56,0.195177,621375,396439
1429.8,0.198151,621616,393887
1433.04,0.201476,622129,391205
1436.27,0.203933,621526,388621
1439.5,0.206053,621113,386472
1442.72,0.208923,620921,383807
1445.94,0.211986,620270,380710
1450.23,0.215416,618860,376857
1453.44,0.217564,617697,374293
1456.64,0.220845,616264,370614
1459.85,0.223648,614413,367124
1463.04,0.225844,612307,364020
1466.24,0.229135,610032,359930
1469.43,0.232153,607345,355863
1473.67,0.236516,603789,350243
1476.85,0.240993,601175,345150
1480.02,0.246687,597737,338706
1483.19,0.252363,594479,332486
1486.36,0.257596,591232,326710
1489.52,0.263244,587853,320645
1492.68,0.265710,583875,316672
1496.89,0.268321,578062,311640
1500.03,0.269583,574159,308638
1503.18,0.270219,570285,306107
1506.32,0.269453,565444,304044
1509.45,0.267993,560571,302439
1512.58,0.267273,555821,300374
1515.71,0.264692,550344,299187
1519.87,0.261687,543983,297782
1522.99,0.259459,538764,296442
1526.1,0.256250,533692,295829
1529.21,0.253352,527902,294579
1532.32,0.250434,521886,293185
1535.42,0.246893,515888,292188
1538.51,0.244382,509987,290521
1541.6,0.240617,503936,289573
1545.72,0.235604,494694,287563
1548.8,0.232572,488378,285880
1551.88,0.229435,481832,284093
1554.95,0.226755,474989,281792
1558.02,0.224924,467818,278710
1561.08,0.223076,460730,275658
1564.15,0.222498,454170,272095
1568.22,0.221508,444181,266718
1571.27,0.220903,436947,262740
1574.32,0.219535,429598,259136
1577.36,0.218196,422039,255362
1580.4,0.216479,414375,251718
1583.43,0.214733,406354,247840
1586.46,0.212657,398475,244199
1590.49,0.209747,388982,239984
1593.51,0.207174,380708,236275
1596.53,0.204453,372727,232776
1599.54,0.202599,365060,228963
1602.55,0.200885,357543,225135
1605.55,0.197910,349495,221580
1608.55,0.195226,341154,217633
1612.54,0.193259,330877,212035
1615.53,0.190868,322904,208068
1618.51,0.189880,315116,203512
1621.49,0.186726,307217,199857
1624.47,0.185987,299481,195156
1627.44,0.184155,292112,191159
1630.41,0.183646,284245,186229
1634.36,0.181979,274079,180259
1637.32,0.181020,266916,175936
1640.27,0.180687,259612,171253
1643.22,0.177743,251804,167232
1646.16,0.177474,244348,162381
1649.1,0.177345,236703,157347
1652.04,0.176280,228171,152048
1655.95,0.174628,215408,144090
1658.88,0.173463,204937,137454
1661.8,0.172829,193395,129902
1664.72,0.173326,179728,120584
1667.63,0.167892,163642,111174
1670.54,0.163784,146312,100345
1673.44,0.161147,128451,88632
1677.31,0.159198,105080,72832
1680.21,0.159428,88906,61589
1683.1,0.159951,75033,51916
1685.99,0.173246,63520,42625
1688.87,0.174292,53714,35958
1691.75,0.184220,45653,29871
1694.62,0.182671,39137,25699
1697.49,0.182882,33776,22168
1701.31,0.200837,28175,17743