File: samples/wool/wool-000811/Column 1_050538_20150331_115404.csv
Method:,Column 1,,
Host Date-Time:,31/3/15 @ 11:54:4,,
Header Version:,1,,
System Temp (C):,31.85,,
Detector Temp (C):,30.2,,
Humidity (%):,3.41,,
Lamp PD:,3825,,
Shift Vector Coefficients:,-10.5391,0.0761263,-0.000134223,,
Pixel to Wavelength Coefficients:,1775.68,-0.916766,-0.000235065,,
Serial Number:,5510004,,
Scan Config Name:,Column 1,,
Scan Config Type:,Slew,,
Section 1,,
Start wavelength (nm):,900,,
End wavelength (nm):,1700,,
Pattern Pixel Width (nm):,   7.03,,,,
Exposure (ms):,  0.635,,,,
Digital Resolution:,228,,
Num Repeats:,6,,
PGA Gain:,64,,
Total Measurement Time in sec:,  2.670,,
Wavelength (nm),Absorbance (AU),Reference Signal (unitless),Sample Signal (unitless)
901.51,0.044676,108485,97880
905.376,0.050640,121306,107955
909.237,0.052783,131909,116813
913.095,0.051193,143299,127365
916.948,0.051123,156982,139549
922.079,0.051579,179937,159787
925.923,0.052761,200504,177567
929.762,0.052843,222660,197151
933.597,0.053095,244426,216298
937.427,0.052960,263972,233667
941.254,0.054048,281845,248864
945.076,0.053492,297271,262821
950.165,0.053549,315605,278994
953.978,0.053742,328029,289848
957.786,0.053927,340470,300713
961.59,0.054836,352317,310526
965.389,0.054714,363056,320081
969.185,0.055346,373162,328512
972.976,0.056146,382632,336229
976.763,0.057455,391202,342725
981.806,0.057451,400190,350603
985.583,0.057988,406088,355330
989.355,0.058412,410162,358545
993.124,0.059038,412868,360390
996.888,0.059946,414263,360853
1000.65,0.060781,415476,361214
1004.4,0.061469,415479,360645
1009.41,0.062771,414358,358595
1013.15,0.063672,412923,356613
1016.89,0.063780,411526,355318
1020.63,0.063950,409066,353056
1024.36,0.063415,406777,351513
1028.09,0.062907,404427,349891
1031.82,0.063094,401911,347565
1036.78,0.062641,398410,344897
1040.49,0.061667,396204,343757
1044.2,0.061895,394236,341870
1047.91,0.061125,392042,340571
1051.61,0.060447,389823,339172
1055.31,0.059053,388234,338876
1059,0.058197,387599,338989
1063.92,0.056997,386688,339128
1067.61,0.056591,386598,339366
1071.29,0.055486,387377,340916
1074.96,0.055012,388536,342310
1078.63,0.054540,389855,343845
1082.3,0.054259,391215,345268
1085.96,0.052749,393215,348242
1090.84,0.052089,396270,351481
1094.49,0.051625,398760,354068
1098.14,0.051529,400987,356124
1101.79,0.051310,403477,358516
1105.43,0.050959,406116,361153
1109.06,0.050148,407701,363240
1112.7,0.050561,409859,364816
1117.53,0.050962,412494,366822
1121.15,0.051814,414909,368247
1124.77,0.051782,416559,369738
1128.38,0.053791,418532,369775
1131.99,0.054487,419956,370439
1135.6,0.057268,421946,369819
1139.2,0.059169,423881,369892
1143.99,0.061836,426786,370147
1147.58,0.063198,428617,370571
1151.17,0.064703,431169,371488
1154.75,0.066047,433579,372410
1158.33,0.068693,436264,372440
1161.91,0.070579,439132,373264
1165.48,0.073561,442389,373459
1169.04,0.076461,446101,374087
1173.79,0.081113,451929,374936
1177.34,0.083973,456026,375852
1180.9,0.085571,461306,378807
1184.44,0.088114,467657,381780
1187.99,0.088654,473969,386452
1191.52,0.087644,479856,392163
1195.06,0.087486,487372,398451
1199.76,0.086707,497347,407336
1203.29,0.085285,504311,414394
1206.81,0.083355,511507,422179
1210.33,0.082038,519078,429729
1213.84,0.081727,527163,436735
1217.35,0.080162,534208,444169
1220.85,0.079106,540472,450471
1225.51,0.077709,549929,459830
1229.01,0.077333,556888,466052
1232.5,0.076473,562180,471414
1235.98,0.075268,567975,477597
1239.46,0.074236,574815,484498
1242.94,0.073079,582782,492524
1246.41,0.072366,591476,500692
1251.03,0.072045,604016,511686
1254.5,0.072270,612289,518426
1257.96,0.072233,619125,524258
1261.41,0.072966,624551,527961
1264.86,0.073582,629900,531728
1268.31,0.074022,634345,534938
1271.75,0.075052,638574,537229
1276.33,0.075343,642499,540169
1279.76,0.075373,645905,542995
1283.19,0.074669,648307,545898
1286.61,0.074377,650446,548068
1290.03,0.073574,652132,550505
1293.44,0.073280,653907,552378
1296.85,0.073063,655963,554391
1301.39,0.072969,657349,555683
1304.8,0.072752,657558,556137
1308.19,0.073097,658515,556505
1311.58,0.073327,658804,556454
1314.97,0.074040,659011,555716
1318.36,0.074573,658272,554412
1321.73,0.074993,658022,553666
1326.23,0.075805,657870,552504
1329.6,0.077373,656482,549351
1332.97,0.078399,654926,546756
1336.33,0.079738,653727,544075
1339.69,0.081606,652497,540720
1343.04,0.083763,649913,535910
1346.39,0.086271,647671,530986
1349.73,0.088960,645338,525808
1354.18,0.092008,641175,518762
1357.52,0.094315,638376,513762
1360.85,0.097107,635805,508413
1364.17,0.099785,633413,503387
1367.49,0.102292,631026,498603
1370.81,0.104946,628050,493229
1374.12,0.107824,625034,487618
1378.54,0.111735,620272,479565
1381.84,0.115394,616892,472950
1385.14,0.119996,613613,465477
1388.43,0.125725,611526,457815
1391.72,0.132105,610663,450502
1395.01,0.137815,610634,444596
1398.29,0.143857,611700,439219
1402.66,0.152635,614051,432085
1405.93,0.159631,616268,426716
1409.2,0.166473,617795,421087
1412.46,0.172543,618872,415966
1415.72,0.177608,619795,411756
1418.98,0.182533,620495,407573
1422.23,0.186997,621087,403790
1426.56,0.191780,621375,399552
1429.8,0.194691,621616,397037
1433.04,0.197935,622129,394408
1436.27,0.200435,621526,391764
1439.5,0.203387,621113,388851
1442.72,0.205261,620921,387057
1445.94,0.207825,620270,384376
1450.23,0.211961,618860,379867
1453.44,0.214389,617697,377039
1456.64,0.216952,616264,373951
1459.85,0.220073,614413,370158
1463.04,0.222687,612307,366676
1466.24,0.225985,610032,362550
1469.43,0.228631,607345,358760
1473.67,0.234289,603789,352043
1476.85,0.239432,601175,346393
1480.02,0.244443,597737,340461
1483.19,0.250208,594479,334140
1486.36,0.255617,591232,328202
1489.52,0.261279,587853,322099
1492.68,0.264902,583875,317262
1496.89,0.267222,578062,312430
1500.03,0.268181,574159,309636
1503.18,0.269095,570285,306900
1506.32,0.268288,565444,304861
1509.45,0.266752,560571,303304
1512.58,0.265479,555821,301617
1515.71,0.263620,550344,299926
1519.87,0.260327,543983,298716
1522.99,0.257061,538764,298083
1526.1,0.254714,533692,296877
1529.21,0.251648,527902,295737
1532.32,0.248448,521886,294529
1535.42,0.245556,515888,293089
1538.51,0.241772,509987,292272
1541.6,0.238779,503936,290801
1545.72,0.233770,494694,288780
1548.8,0.230162,488378,287471
1551.88,0.227192,481832,285564
1554.95,0.225455,474989,282637
1558.02,0.223501,467818,279625
1561.08,0.221649,460730,276565
1564.15,0.220933,454170,273077
1568.22,0.219015,444181,268253
1571.27,0.218945,436947,263927
1574.32,0.218258,429598,259899
1577.36,0.216838,422039,256162
1580.4,0.214799,414375,252694
1583.43,0.213313,406354,248652
1586.46,0.210693,398475,245306
1590.49,0.208233,388982,240822
1593.51,0.206363,380708,236717
1596.53,0.203828,372727,233111
1599.54,0.201544,365060,229520
1602.55,0.199181,357543,226020
1605.55,0.197229,349495,221928
1608.55,0.193939,341154,218279
1612.54,0.192056,330877,212623
1615.53,0.189499,322904,208725
1618.51,0.188202,315116,204300
1621.49,0.186935,307217,199761
1624.47,0.185663,299481,195302
1627.44,0.183585,292112,191410
1630.41,0.181993,284245,186939
1634.36,0.180819,274079,180741
1637.32,0.178897,266916,176798
1640.27,0.179595,259612,171684
1643.22,0.176934,251804,167544
1646.16,0.176336,244348,162807
1649.1,0.177199,236703,157400
1652.04,0.174572,228171,152647
1655.95,0.173424,215408,144490
1658.88,0.172169,204937,137864
1661.8,0.171634,193395,130260
1664.72,0.168484,179728,121936
1667.63,0.166149,163642,111621
1670.54,0.161066,146312,100975
1673.44,0.157196,128451,89442
1677.31,0.153994,105080,73710
1680.21,0.154227,88906,62331
1683.1,0.160370,75033,51866
1685.99,0.161893,63520,43754
1688.87,0.172881,53714,36075
1691.75,0.170961,45653,30797
1694.62,0.176830,39137,26047
1697.49,0.180829,33776,22273
1701.31,0.175175,28175,18823