File: samples/wool/wool-000811/Column 1_050533_20150331_115136.csv
Method:,Column 1,,
Host Date-Time:,31/3/15 @ 11:51:36,,
Header Version:,1,,
System Temp (C):,30.62,,
Detector Temp (C):,30.89,,
Humidity (%):,4.63,,
Lamp PD:,3830,,
Shift Vector Coefficients:,-10.5391,0.0761263,-0.000134223,,
Pixel to Wavelength Coefficients:,1775.68,-0.916766,-0.000235065,,
Serial Number:,5510004,,
Scan Config Name:,Column 1,,
Scan Config Type:,Slew,,
Section 1,,
Start wavelength (nm):,900,,
End wavelength (nm):,1700,,
Pattern Pixel Width (nm):,   7.03,,,,
Exposure (ms):,  0.635,,,,
Digital Resolution:,228,,
Num Repeats:,6,,
PGA Gain:,64,,
Total Measurement Time in sec:,  2.677,,
Wavelength (nm),Absorbance (AU),Reference Signal (unitless),Sample Signal (unitless)
901.51,0.042688,108485,98329
905.376,0.049820,121306,108159
909.237,0.047947,131909,118121
913.095,0.050011,143299,127712
916.948,0.050051,156982,139894
922.079,0.049884,179937,160412
925.923,0.049348,200504,178968
929.762,0.050753,222660,198102
933.597,0.051522,244426,217083
937.427,0.051187,263972,234623
941.254,0.052849,281845,249552
945.076,0.052365,297271,263504
950.165,0.052953,315605,279377
953.978,0.052844,328029,290448
957.786,0.053727,340470,300851
961.59,0.054341,352317,310880
965.389,0.054106,363056,320529
969.185,0.054581,373162,329091
972.976,0.054957,382632,337151
976.763,0.055892,391202,343961
981.806,0.056578,400190,351308
985.583,0.057606,406088,355643
989.355,0.058082,410162,358817
993.124,0.058446,412868,360882
996.888,0.059238,414263,361442
1000.65,0.059764,415476,362061
1004.4,0.061228,415479,360845
1009.41,0.062569,414358,358762
1013.15,0.063195,412923,357005
1016.89,0.062917,411526,356025
1020.63,0.063059,409066,353781
1024.36,0.062974,406777,351870
1028.09,0.062659,404427,350091
1031.82,0.062883,401911,347734
1036.78,0.062071,398410,345350
1040.49,0.061344,396204,344013
1044.2,0.060893,394236,342660
1047.91,0.060586,392042,340994
1051.61,0.059553,389823,339871
1055.31,0.059157,388234,338795
1059,0.058150,387599,339026
1063.92,0.056932,386688,339179
1067.61,0.055722,386598,340046
1071.29,0.055054,387377,341256
1074.96,0.054567,388536,342661
1078.63,0.054263,389855,344065
1082.3,0.052875,391215,346370
1085.96,0.052123,393215,348744
1090.84,0.051695,396270,351800
1094.49,0.051048,398760,354539
1098.14,0.050618,400987,356872
1101.79,0.050125,403477,359496
1105.43,0.050704,406116,361365
1109.06,0.049566,407701,363727
1112.7,0.050063,409859,365234
1117.53,0.049918,412494,367705
1121.15,0.051389,414909,368607
1124.77,0.051413,416559,370053
1128.38,0.052699,418532,370706
1131.99,0.054711,419956,370248
1135.6,0.056632,421946,370361
1139.2,0.059073,423881,369974
1143.99,0.061836,426786,370147
1147.58,0.062831,428617,370884
1151.17,0.064941,431169,371284
1154.75,0.066410,433579,372099
1158.33,0.068004,436264,373031
1161.91,0.071324,439132,372624
1165.48,0.073572,442389,373450
1169.04,0.076550,446101,374010
1173.79,0.080934,451929,375091
1177.34,0.083317,456026,376420
1180.9,0.086060,461306,378381
1184.44,0.087495,467657,382325
1187.99,0.088870,473969,386260
1191.52,0.087933,479856,391902
1195.06,0.087644,487372,398306
1199.76,0.086291,497347,407726
1203.29,0.084517,504311,415127
1206.81,0.083508,511507,422030
1210.33,0.082643,519078,429131
1213.84,0.081461,527163,437002
1217.35,0.079899,534208,444438
1220.85,0.079336,540472,450233
1225.51,0.077790,549929,459745
1229.01,0.077000,556888,466410
1232.5,0.076420,562180,471471
1235.98,0.075400,567975,477451
1239.46,0.074441,574815,484269
1242.94,0.072997,582782,492617
1246.41,0.072077,591476,501026
1251.03,0.072166,604016,511543
1254.5,0.072061,612289,518675
1257.96,0.072615,619125,523798
1261.41,0.073053,624551,527855
1264.86,0.073722,629900,531557
1268.31,0.074085,634345,534860
1271.75,0.074886,638574,537434
1276.33,0.075197,642499,540350
1279.76,0.074890,645905,543599
1283.19,0.074843,648307,545680
1286.61,0.074443,650446,547985
1290.03,0.073827,652132,550185
1293.44,0.073108,653907,552596
1296.85,0.072876,655963,554630
1301.39,0.072960,657349,555695
1304.8,0.073027,657558,555785
1308.19,0.073430,658515,556078
1311.58,0.073442,658804,556307
1314.97,0.073933,659011,555852
1318.36,0.074619,658272,554353
1321.73,0.075102,658022,553526
1326.23,0.076337,657870,551827
1329.6,0.077411,656482,549303
1332.97,0.078869,654926,546164
1336.33,0.079914,653727,543854
1339.69,0.082350,652497,539794
1343.04,0.084079,649913,535521
1346.39,0.086412,647671,530814
1349.73,0.089024,645338,525731
1354.18,0.092702,641175,517934
1357.52,0.095145,638376,512781
1360.85,0.097579,635805,507861
1364.17,0.100168,633413,502943
1367.49,0.102911,631026,497893
1370.81,0.105441,628050,492667
1374.12,0.108283,625034,487103
1378.54,0.111890,620272,479394
1381.84,0.115903,616892,472396
1385.14,0.121117,613613,464277
1388.43,0.126540,611526,456957
1391.72,0.132382,610663,450215
1395.01,0.138131,610634,444273
1398.29,0.144926,611700,438140
1402.66,0.154378,614051,430355
1405.93,0.161594,616268,424791
1409.2,0.168597,617795,419032
1412.46,0.175209,618872,413420
1415.72,0.180334,619795,409180
1418.98,0.185514,620495,404785
1422.23,0.190091,621087,400923
1426.56,0.195047,621375,396558
1429.8,0.199013,621616,393106
1433.04,0.201840,622129,390877
1436.27,0.204555,621526,388065
1439.5,0.206700,621113,385896
1442.72,0.209663,620921,383154
1445.94,0.212150,620270,380567
1450.23,0.216000,618860,376350
1453.44,0.218480,617697,373504
1456.64,0.221834,616264,369771
1459.85,0.224190,614413,366666
1463.04,0.226613,612307,363376
1466.24,0.229498,610032,359629
1469.43,0.232077,607345,355925
1473.67,0.236710,603789,350086
1476.85,0.241284,601175,344919
1480.02,0.246683,597737,338709
1483.19,0.252267,594479,332560
1486.36,0.257916,591232,326469
1489.52,0.263350,587853,320567
1492.68,0.266339,583875,316214
1496.89,0.269397,578062,310869
1500.03,0.268724,574159,309249
1503.18,0.270619,570285,305825
1506.32,0.269476,565444,304028
1509.45,0.269080,560571,301683
1512.58,0.267393,555821,300291
1515.71,0.265056,550344,298936
1519.87,0.261747,543983,297741
1522.99,0.258942,538764,296795
1526.1,0.256622,533692,295576
1529.21,0.253241,527902,294654
1532.32,0.251036,521886,292779
1535.42,0.246908,515888,292178
1538.51,0.243909,509987,290837
1541.6,0.240028,503936,289966
1545.72,0.235697,494694,287501
1548.8,0.232419,488378,285981
1551.88,0.230428,481832,283444
1554.95,0.226817,474989,281752
1558.02,0.224993,467818,278666
1561.08,0.223412,460730,275445
1564.15,0.223086,454170,271727
1568.22,0.221456,444181,266750
1571.27,0.221331,436947,262481
1574.32,0.218702,429598,259633
1577.36,0.217503,422039,255770
1580.4,0.215841,414375,252088
1583.43,0.214554,406354,247942
1586.46,0.212307,398475,244396
1590.49,0.209702,388982,240009
1593.51,0.207755,380708,235959
1596.53,0.204529,372727,232735
1599.54,0.203317,365060,228585
1602.55,0.199831,357543,225682
1605.55,0.198526,349495,221266
1608.55,0.195943,341154,217274
1612.54,0.193275,330877,212027
1615.53,0.190918,322904,208044
1618.51,0.188238,315116,204283
1621.49,0.187100,307217,199685
1624.47,0.185921,299481,195186
1627.44,0.184673,292112,190931
1630.41,0.182851,284245,186570
1634.36,0.180752,274079,180769
1637.32,0.180223,266916,176259
1640.27,0.178809,259612,171995
1643.22,0.177767,251804,167223
1646.16,0.176816,244348,162627
1649.1,0.177558,236703,157270
1652.04,0.175558,228171,152301
1655.95,0.173989,215408,144302
1658.88,0.172813,204937,137660
1661.8,0.171104,193395,130419
1664.72,0.170340,179728,121416
1667.63,0.165601,163642,111762
1670.54,0.163187,146312,100483
1673.44,0.159948,128451,88877
1677.31,0.155505,105080,73454
1680.21,0.154039,88906,62358
1683.1,0.160805,75033,51814
1685.99,0.168081,63520,43135
1688.87,0.167093,53714,36559
1691.75,0.173592,45653,30611
1694.62,0.172632,39137,26300
1697.49,0.180401,33776,22295
1701.31,0.181169,28175,18565