File: samples/wool/wool-000811/Column 1_050585_20150331_121631.csv
Method:,Column 1,,
Host Date-Time:,31/3/15 @ 12:16:31,,
Header Version:,1,,
System Temp (C):,33.82,,
Detector Temp (C):,34.54,,
Humidity (%):,1.86,,
Lamp PD:,3819,,
Shift Vector Coefficients:,-10.5391,0.0761263,-0.000134223,,
Pixel to Wavelength Coefficients:,1775.68,-0.916766,-0.000235065,,
Serial Number:,5510004,,
Scan Config Name:,Column 1,,
Scan Config Type:,Slew,,
Section 1,,
Start wavelength (nm):,900,,
End wavelength (nm):,1700,,
Pattern Pixel Width (nm):,   7.03,,,,
Exposure (ms):,  0.635,,,,
Digital Resolution:,228,,
Num Repeats:,6,,
PGA Gain:,64,,
Total Measurement Time in sec:,  2.672,,
Wavelength (nm),Absorbance (AU),Reference Signal (unitless),Sample Signal (unitless)
901.51,0.070856,108485,92154
905.376,0.076664,121306,101676
909.237,0.076818,131909,110524
913.095,0.080448,143299,119068
916.948,0.080912,156982,130298
922.079,0.081037,179937,149308
925.923,0.083215,200504,165542
929.762,0.083294,222660,183801
933.597,0.083788,244426,201539
937.427,0.083263,263972,217919
941.254,0.081649,281845,233540
945.076,0.080943,297271,246723
950.165,0.080505,315605,262204
953.978,0.080026,328029,272826
957.786,0.079582,340470,283463
961.59,0.080214,352317,292900
965.389,0.079870,363056,302067
969.185,0.079709,373162,310591
972.976,0.080241,382632,318083
976.763,0.080482,391202,325027
981.806,0.080863,400190,332203
985.583,0.082114,406088,336129
989.355,0.081796,410162,339750
993.124,0.082354,412868,341552
996.888,0.083331,414263,341936
1000.65,0.083542,415476,342771
1004.4,0.084881,415479,341718
1009.41,0.086602,414358,339448
1013.15,0.086729,412923,338174
1016.89,0.087155,411526,336699
1020.63,0.086658,409066,335070
1024.36,0.086973,406777,332953
1028.09,0.086443,404427,331434
1031.82,0.086590,401911,329261
1036.78,0.086390,398410,326543
1040.49,0.086528,396204,324632
1044.2,0.086214,394236,323253
1047.91,0.085942,392042,321655
1051.61,0.085182,389823,320395
1055.31,0.085144,388234,319117
1059,0.084610,387599,318987
1063.92,0.083867,386688,318782
1067.61,0.083401,386598,319050
1071.29,0.083065,387377,319940
1074.96,0.082821,388536,321078
1078.63,0.082009,389855,322771
1082.3,0.080921,391215,324709
1085.96,0.080060,393215,327017
1090.84,0.079123,396270,330269
1094.49,0.078712,398760,332659
1098.14,0.078371,400987,334780
1101.79,0.078635,403477,336654
1105.43,0.077854,406116,339466
1109.06,0.076867,407701,341566
1112.7,0.076537,409859,343635
1117.53,0.076476,412494,345893
1121.15,0.076722,414909,347721
1124.77,0.076699,416559,349122
1128.38,0.078202,418532,349564
1131.99,0.078810,419956,350263
1135.6,0.080610,421946,350467
1139.2,0.081793,423881,351116
1143.99,0.083818,426786,351878
1147.58,0.084490,428617,352841
1151.17,0.086139,431169,353597
1154.75,0.086391,433579,355367
1158.33,0.088523,436264,355817
1161.91,0.090028,439132,356917
1165.48,0.092039,442389,357903
1169.04,0.094463,446101,358897
1173.79,0.097663,451929,360917
1177.34,0.099745,456026,362447
1180.9,0.101941,461306,364794
1184.44,0.103092,467657,368838
1187.99,0.104620,473969,372503
1191.52,0.104070,479856,377608
1195.06,0.104074,487372,383519
1199.76,0.103811,497347,391605
1203.29,0.102511,504311,398279
1206.81,0.102566,511507,403911
1210.33,0.101935,519078,410485
1213.84,0.100859,527163,417913
1217.35,0.100600,534208,423751
1220.85,0.099995,540472,429317
1225.51,0.099360,549929,437468
1229.01,0.098358,556888,444027
1232.5,0.098005,562180,448611
1235.98,0.098028,567975,453212
1239.46,0.096970,574815,459789
1242.94,0.096173,582782,467018
1246.41,0.095279,591476,474961
1251.03,0.094864,604016,485495
1254.5,0.095118,612289,491857
1257.96,0.095801,619125,496566
1261.41,0.095928,624551,500772
1264.86,0.096469,629900,504432
1268.31,0.097001,634345,507370
1271.75,0.097782,638574,509835
1276.33,0.097632,642499,513145
1279.76,0.097776,645905,515695
1283.19,0.097437,648307,518017
1286.61,0.096389,650446,520982
1290.03,0.096591,652132,522089
1293.44,0.096210,653907,523970
1296.85,0.096242,655963,525578
1301.39,0.095819,657349,527202
1304.8,0.095774,657558,527424
1308.19,0.096079,658515,527821
1311.58,0.095830,658804,528355
1314.97,0.096288,659011,527964
1318.36,0.097426,658272,525992
1321.73,0.097726,658022,525430
1326.23,0.098427,657870,524461
1329.6,0.099394,656482,522190
1332.97,0.100034,654926,520185
1336.33,0.101275,653727,517751
1339.69,0.103305,652497,514368
1343.04,0.104893,649913,510461
1346.39,0.106760,647671,506517
1349.73,0.108511,645338,502662
1354.18,0.111536,641175,495953
1357.52,0.114136,638376,490841
1360.85,0.115873,635805,486912
1364.17,0.117813,633413,482919
1367.49,0.119954,631026,478733
1370.81,0.122329,628050,473877
1374.12,0.123992,625034,469798
1378.54,0.127131,620272,462862
1381.84,0.130209,616892,457088
1385.14,0.134194,613613,450506
1388.43,0.138644,611526,444397
1391.72,0.142698,610663,439646
1395.01,0.147514,610634,434777
1398.29,0.152668,611700,430398
1402.66,0.159704,614051,425109
1405.93,0.165315,616268,421167
1409.2,0.170974,617795,416745
1412.46,0.175215,618872,413415
1415.72,0.179893,619795,409595
1418.98,0.184260,620495,405955
1422.23,0.187984,621087,402873
1426.56,0.191848,621375,399490
1429.8,0.194170,621616,397514
1433.04,0.197022,622129,395238
1436.27,0.199676,621526,392449
1439.5,0.201590,621113,390464
1442.72,0.203580,620921,388558
1445.94,0.205813,620270,386160
1450.23,0.208933,618860,382525
1453.44,0.211862,617697,379239
1456.64,0.214935,616264,375692
1459.85,0.217024,614413,372766
1463.04,0.220220,612307,368765
1466.24,0.222960,610032,365084
1469.43,0.226535,607345,360496
1473.67,0.231682,603789,354163
1476.85,0.236055,601175,349097
1480.02,0.241853,597737,342497
1483.19,0.247370,594479,336331
1486.36,0.252977,591232,330203
1489.52,0.257556,587853,324872
1492.68,0.259919,583875,320923
1496.89,0.262381,578062,315932
1500.03,0.262448,574159,313750
1503.18,0.263142,570285,311136
1506.32,0.261218,565444,309864
1509.45,0.260098,560571,307987
1512.58,0.259066,555821,306104
1515.71,0.256762,550344,304700
1519.87,0.253850,543983,303204
1522.99,0.251350,538764,302029
1526.1,0.249133,533692,300717
1529.21,0.246068,527902,299561
1532.32,0.242685,521886,298463
1535.42,0.239999,515888,296863
1538.51,0.237337,509987,295272
1541.6,0.235253,503936,293172
1545.72,0.230771,494694,290781
1548.8,0.227741,488378,289078
1551.88,0.225842,481832,286453
1554.95,0.224085,474989,283530
1558.02,0.221957,467818,280621
1561.08,0.220290,460730,277432
1564.15,0.220015,454170,273655
1568.22,0.219631,444181,267873
1571.27,0.218557,436947,264163
1574.32,0.216878,429598,260726
1577.36,0.216967,422039,256086
1580.4,0.214720,414375,252740
1583.43,0.213550,406354,248516
1586.46,0.211469,398475,244868
1590.49,0.209501,388982,240120
1593.51,0.207963,380708,235846
1596.53,0.205529,372727,232200
1599.54,0.204188,365060,228127
1602.55,0.202207,357543,224451
1605.55,0.199810,349495,220613
1608.55,0.197936,341154,216279
1612.54,0.196745,330877,210340
1615.53,0.194995,322904,206100
1618.51,0.193760,315116,201702
1621.49,0.193001,307217,196990
1624.47,0.191490,299481,192699
1627.44,0.190349,292112,188452
1630.41,0.189510,284245,183731
1634.36,0.188452,274079,177592
1637.32,0.187073,266916,173501
1640.27,0.186595,259612,168939
1643.22,0.185113,251804,164418
1646.16,0.183962,244348,159973
1649.1,0.183091,236703,155279
1652.04,0.181758,228171,150142
1655.95,0.179734,215408,142406
1658.88,0.175303,204937,136873
1661.8,0.169708,193395,130839
1664.72,0.162942,179728,123502
1667.63,0.150479,163642,115722
1670.54,0.136936,146312,106744
1673.44,0.122781,128451,96818
1677.31,0.102060,105080,83073
1680.21,0.089366,88906,72371
1683.1,0.086413,75033,61495
1685.99,0.085598,63520,52157
1688.87,0.095036,53714,43157
1691.75,0.100317,45653,36237
1694.62,0.101716,39137,30965
1697.49,0.101593,33776,26731
1701.31,0.114546,28175,21643