File: samples/wool/wool-000811/Column 1_050569_20150331_120906.csv
Method:,Column 1,,
Host Date-Time:,31/3/15 @ 12:9:6,,
Header Version:,1,,
System Temp (C):,34.06,,
Detector Temp (C):,34.02,,
Humidity (%):,1.76,,
Lamp PD:,3818,,
Shift Vector Coefficients:,-10.5391,0.0761263,-0.000134223,,
Pixel to Wavelength Coefficients:,1775.68,-0.916766,-0.000235065,,
Serial Number:,5510004,,
Scan Config Name:,Column 1,,
Scan Config Type:,Slew,,
Section 1,,
Start wavelength (nm):,900,,
End wavelength (nm):,1700,,
Pattern Pixel Width (nm):,   7.03,,,,
Exposure (ms):,  0.635,,,,
Digital Resolution:,228,,
Num Repeats:,6,,
PGA Gain:,64,,
Total Measurement Time in sec:,  2.668,,
Wavelength (nm),Absorbance (AU),Reference Signal (unitless),Sample Signal (unitless)
901.51,0.034814,108485,100128
905.376,0.039507,121306,110758
909.237,0.042685,131909,119561
913.095,0.044443,143299,129360
916.948,0.044247,156982,141776
922.079,0.046722,179937,161584
925.923,0.047971,200504,179536
929.762,0.048669,222660,199055
933.597,0.048789,244426,218453
937.427,0.047393,263972,236682
941.254,0.047907,281845,252408
945.076,0.047545,297271,266445
950.165,0.046468,315605,283580
953.978,0.046454,328029,294753
957.786,0.046278,340470,306056
961.59,0.047581,352317,315757
965.389,0.046464,363056,326219
969.185,0.046934,373162,334937
972.976,0.047886,382632,342685
976.763,0.048077,391202,350206
981.806,0.048689,400190,357748
985.583,0.049331,406088,362484
989.355,0.049573,410162,365917
993.124,0.049849,412868,368097
996.888,0.050555,414263,368741
1000.65,0.051683,415476,368861
1004.4,0.052542,415479,368135
1009.41,0.054001,414358,365910
1013.15,0.054750,412923,364015
1016.89,0.055149,411526,362450
1020.63,0.054571,409066,360763
1024.36,0.055437,406777,358030
1028.09,0.054637,404427,356618
1031.82,0.055074,401911,354043
1036.78,0.053585,398410,352164
1040.49,0.053473,396204,350305
1044.2,0.053728,394236,348360
1047.91,0.052672,392042,347265
1051.61,0.052168,389823,345700
1055.31,0.052067,388234,344371
1059,0.051688,387599,344108
1063.92,0.050711,386688,344072
1067.61,0.049531,386598,344928
1071.29,0.048955,387377,346082
1074.96,0.048187,388536,347732
1078.63,0.048225,389855,348882
1082.3,0.047319,391215,350830
1085.96,0.046654,393215,353164
1090.84,0.045929,396270,356502
1094.49,0.045670,398760,358956
1098.14,0.045282,400987,361284
1101.79,0.044785,403477,363943
1105.43,0.044660,406116,366429
1109.06,0.043999,407701,368420
1112.7,0.044017,409859,370354
1117.53,0.043865,412494,372866
1121.15,0.045787,414909,373393
1124.77,0.045415,416559,375199
1128.38,0.046711,418532,375853
1131.99,0.047831,419956,376160
1135.6,0.049823,421946,376213
1139.2,0.052321,423881,375771
1143.99,0.054087,426786,376811
1147.58,0.055400,428617,377285
1151.17,0.056818,431169,378294
1154.75,0.057416,433579,379885
1158.33,0.059173,436264,380694
1161.91,0.060989,439132,381598
1165.48,0.064028,442389,381748
1169.04,0.066095,446101,383123
1173.79,0.070372,451929,384325
1177.34,0.072497,456026,385916
1180.9,0.075034,461306,388110
1184.44,0.076850,467657,391812
1187.99,0.077724,473969,396302
1191.52,0.077477,479856,401452
1195.06,0.077054,487372,408138
1199.76,0.075927,497347,417573
1203.29,0.075074,504311,424253
1206.81,0.074331,511507,431043
1210.33,0.073564,519078,438196
1213.84,0.072570,527163,446041
1217.35,0.071651,534208,452960
1220.85,0.071352,540472,458586
1225.51,0.070673,549929,467341
1229.01,0.070076,556888,473906
1232.5,0.069190,562180,479386
1235.98,0.068720,567975,484852
1239.46,0.067279,574815,492322
1242.94,0.066447,582782,500103
1246.41,0.065657,591476,508487
1251.03,0.065422,604016,519549
1254.5,0.066019,612289,525942
1257.96,0.066235,619125,531549
1261.41,0.066740,624551,535584
1264.86,0.067503,629900,539223
1268.31,0.068083,634345,542304
1271.75,0.068868,638574,544933
1276.33,0.069567,642499,547401
1279.76,0.069064,645905,550941
1283.19,0.068463,648307,553755
1286.61,0.068198,650446,555921
1290.03,0.067478,652132,558287
1293.44,0.067523,653907,559748
1296.85,0.067354,655963,561727
1301.39,0.067022,657349,563344
1304.8,0.066621,657558,564044
1308.19,0.066956,658515,564430
1311.58,0.067326,658804,564196
1314.97,0.067979,659011,563526
1318.36,0.068116,658272,562716
1321.73,0.068599,658022,561877
1326.23,0.069067,657870,561143
1329.6,0.070442,656482,558189
1332.97,0.071337,654926,555719
1336.33,0.072402,653727,553343
1339.69,0.074389,652497,549781
1343.04,0.075935,649913,545658
1346.39,0.078236,647671,540902
1349.73,0.079960,645338,536818
1354.18,0.083271,641175,529305
1357.52,0.085514,638376,524279
1360.85,0.087671,635805,519581
1364.17,0.090318,633413,514480
1367.49,0.092628,631026,509823
1370.81,0.095126,628050,504508
1374.12,0.097291,625034,499589
1378.54,0.100702,620272,491904
1381.84,0.104228,616892,485267
1385.14,0.107681,613613,478865
1388.43,0.112495,611526,471976
1391.72,0.116955,610663,466495
1395.01,0.121785,610634,461313
1398.29,0.126669,611700,456951
1402.66,0.133916,614051,451116
1405.93,0.139816,616268,446636
1409.2,0.144995,617795,442435
1412.46,0.149793,618872,438337
1415.72,0.154198,619795,434560
1418.98,0.158325,620495,430937
1422.23,0.161843,621087,427868
1426.56,0.166055,621375,423935
1429.8,0.168560,621616,421660
1433.04,0.171423,622129,419235
1436.27,0.173782,621526,416560
1439.5,0.176108,621113,414059
1442.72,0.178478,620921,411679
1445.94,0.181418,620270,408472
1450.23,0.185150,618860,404057
1453.44,0.187923,617697,400731
1456.64,0.191379,616264,396632
1459.85,0.194130,614413,392944
1463.04,0.196779,612307,389216
1466.24,0.200265,610032,384669
1469.43,0.203736,607345,379926
1473.67,0.210147,603789,372167
1476.85,0.216068,601175,365538
1480.02,0.222037,597737,358487
1483.19,0.229122,594479,350764
1486.36,0.234757,591232,344351
1489.52,0.240383,587853,337976
1492.68,0.243951,583875,332942
1496.89,0.246364,578062,327801
1500.03,0.247821,574159,324497
1503.18,0.247437,570285,322593
1506.32,0.246614,565444,320461
1509.45,0.245917,560571,318210
1512.58,0.243403,555821,317345
1515.71,0.240995,550344,315965
1519.87,0.237991,543983,314481
1522.99,0.235974,538764,312914
1526.1,0.232150,533692,312709
1529.21,0.229003,527902,311566
1532.32,0.226748,521886,309619
1535.42,0.223355,515888,308461
1538.51,0.220384,509987,307026
1541.6,0.217268,503936,305568
1545.72,0.212348,494694,303381
1548.8,0.208922,488378,301880
1551.88,0.206441,481832,299540
1554.95,0.204843,474989,296374
1558.02,0.203141,467818,293046
1561.08,0.201399,460730,289766
1564.15,0.200716,454170,286090
1568.22,0.200073,444181,280212
1571.27,0.198355,436947,276741
1574.32,0.198372,429598,272076
1577.36,0.196988,422039,268142
1580.4,0.196120,414375,263799
1583.43,0.194513,406354,259652
1586.46,0.192198,398475,255978
1590.49,0.189471,388982,251454
1593.51,0.187285,380708,247347
1596.53,0.185002,372727,243438
1599.54,0.183420,365060,239301
1602.55,0.180632,357543,235883
1605.55,0.179194,349495,231338
1608.55,0.176068,341154,227448
1612.54,0.174907,330877,221187
1615.53,0.172028,322904,217293
1618.51,0.170762,315116,212671
1621.49,0.169520,307217,207934
1624.47,0.167365,299481,203706
1627.44,0.167820,292112,198486
1630.41,0.165835,284245,194025
1634.36,0.165162,274079,187376
1637.32,0.163077,266916,183357
1640.27,0.162132,259612,178728
1643.22,0.162101,251804,173365
1646.16,0.161272,244348,168553
1649.1,0.159768,236703,163846
1652.04,0.158747,228171,158312
1655.95,0.155783,215408,150480
1658.88,0.152854,204937,144134
1661.8,0.148070,193395,137523
1664.72,0.140873,179728,129940
1667.63,0.131056,163642,121015
1670.54,0.120282,146312,110917
1673.44,0.106239,128451,100577
1677.31,0.089422,105080,85526
1680.21,0.080475,88906,73868
1683.1,0.073663,75033,63327
1685.99,0.078323,63520,53038
1688.87,0.085127,53714,44153
1691.75,0.087912,45653,37287
1694.62,0.093822,39137,31533
1697.49,0.105166,33776,26512
1701.31,0.101442,28175,22306