File: samples/wool/wool-000811/Column 1_050601_20150331_122352.csv
Method:,Column 1,,
Host Date-Time:,31/3/15 @ 12:23:52,,
Header Version:,1,,
System Temp (C):,33.97,,
Detector Temp (C):,34.8,,
Humidity (%):,1.76,,
Lamp PD:,3818,,
Shift Vector Coefficients:,-10.5391,0.0761263,-0.000134223,,
Pixel to Wavelength Coefficients:,1775.68,-0.916766,-0.000235065,,
Serial Number:,5510004,,
Scan Config Name:,Column 1,,
Scan Config Type:,Slew,,
Section 1,,
Start wavelength (nm):,900,,
End wavelength (nm):,1700,,
Pattern Pixel Width (nm):,   7.03,,,,
Exposure (ms):,  0.635,,,,
Digital Resolution:,228,,
Num Repeats:,6,,
PGA Gain:,64,,
Total Measurement Time in sec:,  2.676,,
Wavelength (nm),Absorbance (AU),Reference Signal (unitless),Sample Signal (unitless)
901.51,0.067597,108485,92848
905.376,0.072325,121306,102697
909.237,0.076916,131909,110499
913.095,0.077026,143299,120010
916.948,0.078589,156982,130997
922.079,0.079194,179937,149943
925.923,0.080307,200504,166654
929.762,0.082131,222660,184294
933.597,0.081692,244426,202514
937.427,0.079382,263972,219875
941.254,0.079346,281845,234782
945.076,0.079284,297271,247667
950.165,0.078601,315605,263356
953.978,0.077321,328029,274531
957.786,0.077699,340470,284695
961.59,0.077931,352317,294444
965.389,0.077662,363056,303607
969.185,0.078243,373162,311641
972.976,0.078245,382632,319548
976.763,0.078477,391202,326531
981.806,0.078725,400190,333842
985.583,0.079665,406088,338030
989.355,0.079876,410162,341255
993.124,0.080413,412868,343082
996.888,0.081291,414263,343546
1000.65,0.081722,415476,344210
1004.4,0.082906,415479,343276
1009.41,0.083601,414358,341802
1013.15,0.084630,412923,339812
1016.89,0.085319,411526,338126
1020.63,0.084533,409066,336713
1024.36,0.085024,406777,334451
1028.09,0.084530,404427,332897
1031.82,0.085463,401911,330116
1036.78,0.084679,398410,327832
1040.49,0.084262,396204,326330
1044.2,0.083802,394236,325053
1047.91,0.083630,392042,323372
1051.61,0.083512,389823,321629
1055.31,0.082955,388234,320729
1059,0.082814,387599,320309
1063.92,0.081561,386688,320479
1067.61,0.080918,386598,320879
1071.29,0.080603,387377,321759
1074.96,0.080176,388536,323039
1078.63,0.079734,389855,324466
1082.3,0.078463,391215,326552
1085.96,0.078424,393215,328251
1090.84,0.077081,396270,331826
1094.49,0.076092,398760,334672
1098.14,0.076258,400987,336413
1101.79,0.075515,403477,339081
1105.43,0.075201,406116,341546
1109.06,0.073884,407701,343920
1112.7,0.074091,409859,345576
1117.53,0.073951,412494,347910
1121.15,0.074191,414909,349753
1124.77,0.074133,416559,351191
1128.38,0.075824,418532,351483
1131.99,0.076475,419956,352151
1135.6,0.077626,421946,352883
1139.2,0.079212,423881,353209
1143.99,0.081483,426786,353775
1147.58,0.082176,428617,354726
1151.17,0.082523,431169,356553
1154.75,0.084485,433579,356930
1158.33,0.085740,436264,358104
1161.91,0.087081,439132,359347
1165.48,0.089168,442389,360277
1169.04,0.091420,446101,361421
1173.79,0.094577,451929,363491
1177.34,0.096805,456026,364909
1180.9,0.099027,461306,367250
1184.44,0.100890,467657,370713
1187.99,0.101274,473969,375384
1191.52,0.101603,479856,379759
1195.06,0.101418,487372,385871
1199.76,0.101072,497347,394083
1203.29,0.100352,504311,400264
1206.81,0.099957,511507,406345
1210.33,0.098917,519078,413348
1213.84,0.098545,527163,420146
1217.35,0.098078,534208,426219
1220.85,0.097405,540472,431885
1225.51,0.096417,549929,440443
1229.01,0.096209,556888,446230
1232.5,0.095166,562180,451554
1235.98,0.095069,567975,456310
1239.46,0.094024,574815,462918
1242.94,0.093001,582782,470441
1246.41,0.092153,591476,478392
1251.03,0.092247,604016,488429
1254.5,0.092538,612289,494787
1257.96,0.092985,619125,499797
1261.41,0.093652,624551,503403
1264.86,0.094138,629900,507147
1268.31,0.094548,634345,510244
1271.75,0.094815,638574,513329
1276.33,0.094906,642499,516377
1279.76,0.095146,645905,518827
1283.19,0.094506,648307,521524
1286.61,0.094185,650446,523632
1290.03,0.093943,652132,525282
1293.44,0.093574,653907,527159
1296.85,0.093452,655963,528966
1301.39,0.093261,657349,530316
1304.8,0.093168,657558,530598
1308.19,0.093168,658515,531371
1311.58,0.093502,658804,531195
1314.97,0.093933,659011,530835
1318.36,0.094321,658272,529766
1321.73,0.094744,658022,529050
1326.23,0.095597,657870,527889
1329.6,0.096023,656482,526259
1332.97,0.096907,654926,523944
1336.33,0.098010,653727,521659
1339.69,0.099237,652497,519208
1343.04,0.101192,649913,514829
1346.39,0.103265,647671,510610
1349.73,0.104963,645338,506785
1354.18,0.107877,641175,500149
1357.52,0.110083,638376,495443
1360.85,0.111673,635805,491644
1364.17,0.113787,633413,487416
1367.49,0.115697,631026,483449
1370.81,0.117850,628050,478789
1374.12,0.120299,625034,473811
1378.54,0.122898,620272,467395
1381.84,0.126249,616892,461275
1385.14,0.129052,613613,455872
1388.43,0.132831,611526,450385
1391.72,0.137379,610663,445064
1395.01,0.140928,610634,441421
1398.29,0.145743,611700,437316
1402.66,0.152075,614051,432643
1405.93,0.157285,616268,429027
1409.2,0.162227,617795,425224
1412.46,0.166419,618872,421873
1415.72,0.170907,619795,418159
1418.98,0.174541,620495,415143
1422.23,0.177612,621087,412611
1426.56,0.181571,621375,409056
1429.8,0.184001,621616,406931
1433.04,0.187240,622129,404241
1436.27,0.188828,621526,402375
1439.5,0.191194,621113,399923
1442.72,0.193253,620921,397909
1445.94,0.195484,620270,395455
1450.23,0.198743,618860,391606
1453.44,0.201426,617697,388463
1456.64,0.204739,616264,384616
1459.85,0.207735,614413,380825
1463.04,0.210175,612307,377393
1466.24,0.213601,610032,373037
1469.43,0.216944,607345,368546
1473.67,0.223289,603789,361074
1476.85,0.228338,601175,355355
1480.02,0.234035,597737,348719
1483.19,0.241396,594479,340989
1486.36,0.245944,591232,335594
1489.52,0.250848,587853,329929
1492.68,0.254112,583875,325243
1496.89,0.255969,578062,320631
1500.03,0.256658,574159,317961
1503.18,0.256417,570285,315991
1506.32,0.255933,565444,313658
1509.45,0.254544,560571,311951
1512.58,0.253493,555821,310057
1515.71,0.250934,550344,308816
1519.87,0.247205,543983,307879
1522.99,0.245525,538764,306107
1526.1,0.242762,533692,305161
1529.21,0.239157,527902,304366
1532.32,0.237461,521886,302075
1535.42,0.234292,515888,300790
1538.51,0.230507,509987,299952
1541.6,0.228168,503936,297994
1545.72,0.224292,494694,295151
1548.8,0.221851,488378,293025
1551.88,0.219174,481832,290885
1554.95,0.217205,474989,288057
1558.02,0.215950,467818,284529
1561.08,0.214376,460730,281236
1564.15,0.213458,454170,277818
1568.22,0.213641,444181,271593
1571.27,0.212521,436947,267860
1574.32,0.211420,429598,264023
1577.36,0.210037,422039,260205
1580.4,0.211962,414375,254350
1583.43,0.208330,406354,251521
1586.46,0.205750,398475,248114
1590.49,0.203431,388982,243500
1593.51,0.201448,380708,239411
1596.53,0.199883,372727,235238
1599.54,0.197641,365060,231592
1602.55,0.197050,357543,227132
1605.55,0.194685,349495,223232
1608.55,0.192615,341154,218945
1612.54,0.190143,330877,213562
1615.53,0.188190,322904,209355
1618.51,0.187412,315116,204672
1621.49,0.186374,307217,200019
1624.47,0.185096,299481,195557
1627.44,0.185363,292112,190628
1630.41,0.183902,284245,186119
1634.36,0.182960,274079,179852
1637.32,0.181704,266916,175659
1640.27,0.181501,259612,170932
1643.22,0.179526,251804,166547
1646.16,0.179782,244348,161520
1649.1,0.179370,236703,156615
1652.04,0.176457,228171,151986
1655.95,0.174387,215408,144170
1658.88,0.169823,204937,138611
1661.8,0.164420,193395,132442
1664.72,0.156280,179728,125411
1667.63,0.144142,163642,117423
1670.54,0.129494,146312,108589
1673.44,0.112958,128451,99033
1677.31,0.093319,105080,84762
1680.21,0.081723,88906,73656
1683.1,0.076450,75033,62922
1685.99,0.074703,63520,53482
1688.87,0.082333,53714,44438
1691.75,0.082944,45653,37716
1694.62,0.081614,39137,32432
1697.49,0.089433,33776,27490
1701.31,0.094796,28175,22650