File: samples/wool/wool-000811/Column 1_050537_20150331_115330.csv
Method:,Column 1,,
Host Date-Time:,31/3/15 @ 11:53:30,,
Header Version:,1,,
System Temp (C):,31.62,,
Detector Temp (C):,30.17,,
Humidity (%):,3.56,,
Lamp PD:,3827,,
Shift Vector Coefficients:,-10.5391,0.0761263,-0.000134223,,
Pixel to Wavelength Coefficients:,1775.68,-0.916766,-0.000235065,,
Serial Number:,5510004,,
Scan Config Name:,Column 1,,
Scan Config Type:,Slew,,
Section 1,,
Start wavelength (nm):,900,,
End wavelength (nm):,1700,,
Pattern Pixel Width (nm):,   7.03,,,,
Exposure (ms):,  0.635,,,,
Digital Resolution:,228,,
Num Repeats:,6,,
PGA Gain:,64,,
Total Measurement Time in sec:,  2.673,,
Wavelength (nm),Absorbance (AU),Reference Signal (unitless),Sample Signal (unitless)
901.51,0.041378,108485,98626
905.376,0.045648,121306,109203
909.237,0.048315,131909,118021
913.095,0.049913,143299,127741
916.948,0.048538,156982,140382
922.079,0.047707,179937,161218
925.923,0.047892,200504,179569
929.762,0.049051,222660,198880
933.597,0.050341,244426,217674
937.427,0.050505,263972,234992
941.254,0.051480,281845,250340
945.076,0.051874,297271,263802
950.165,0.051336,315605,280419
953.978,0.051514,328029,291339
957.786,0.051935,340470,302095
961.59,0.052378,352317,312288
965.389,0.052782,363056,321508
969.185,0.053110,373162,330208
972.976,0.053817,382632,338037
976.763,0.054280,391202,345240
981.806,0.055505,400190,352177
985.583,0.056460,406088,356583
989.355,0.056679,410162,359978
993.124,0.057316,412868,361822
996.888,0.057683,414263,362738
1000.65,0.058766,415476,362894
1004.4,0.059471,415479,362308
1009.41,0.061671,414358,359505
1013.15,0.061420,412923,358467
1016.89,0.061744,411526,356988
1020.63,0.061866,409066,354754
1024.36,0.061996,406777,352663
1028.09,0.061585,404427,350958
1031.82,0.061204,401911,349081
1036.78,0.060660,398410,346474
1040.49,0.059926,396204,345138
1044.2,0.059785,394236,343535
1047.91,0.059243,392042,342050
1051.61,0.057886,389823,341178
1055.31,0.057762,388234,339885
1059,0.056905,387599,339999
1063.92,0.055485,386688,340311
1067.61,0.055002,386598,340610
1071.29,0.054219,387377,341912
1074.96,0.053491,388536,343511
1078.63,0.052558,389855,345418
1082.3,0.051634,391215,347361
1085.96,0.050790,393215,349816
1090.84,0.050428,396270,352828
1094.49,0.050026,398760,355374
1098.14,0.049630,400987,357685
1101.79,0.049277,403477,360198
1105.43,0.048857,406116,362905
1109.06,0.048754,407701,364408
1112.7,0.048628,409859,366443
1117.53,0.048470,412494,368933
1121.15,0.050118,414909,369688
1124.77,0.050380,416559,370934
1128.38,0.051758,418532,371510
1131.99,0.053625,419956,371175
1135.6,0.056096,421946,370818
1139.2,0.058139,423881,370770
1143.99,0.060435,426786,371343
1147.58,0.061699,428617,371852
1151.17,0.063680,431169,372364
1154.75,0.064840,433579,373446
1158.33,0.066715,436264,374140
1161.91,0.069270,439132,374391
1165.48,0.071940,442389,374856
1169.04,0.075203,446101,375172
1173.79,0.079580,451929,376262
1177.34,0.082213,456026,377378
1180.9,0.084272,461306,379942
1184.44,0.086196,467657,383470
1187.99,0.087224,473969,387727
1191.52,0.086976,479856,392767
1195.06,0.086377,487372,399469
1199.76,0.084915,497347,409020
1203.29,0.083445,504311,416153
1206.81,0.082059,511507,423441
1210.33,0.081100,519078,430658
1213.84,0.079715,527163,438763
1217.35,0.079093,534208,445264
1220.85,0.077872,540472,451753
1225.51,0.076869,549929,460721
1229.01,0.075776,556888,467726
1232.5,0.074634,562180,473414
1235.98,0.074162,567975,478814
1239.46,0.073152,574815,485709
1242.94,0.071728,582782,494058
1246.41,0.070789,591476,502514
1251.03,0.070356,604016,513680
1254.5,0.070713,612289,520288
1257.96,0.070808,619125,525981
1261.41,0.071585,624551,529643
1264.86,0.072065,629900,533589
1268.31,0.072944,634345,536268
1271.75,0.073266,638574,539443
1276.33,0.073904,642499,541961
1279.76,0.073701,645905,545089
1283.19,0.073059,648307,547926
1286.61,0.072879,650446,549961
1290.03,0.072809,652132,551476
1293.44,0.072012,653907,553992
1296.85,0.071822,655963,555978
1301.39,0.071331,657349,557783
1304.8,0.071624,657558,557584
1308.19,0.071808,658515,558159
1311.58,0.071988,658804,558172
1314.97,0.073004,659011,557043
1318.36,0.073412,658272,555896
1321.73,0.073843,658022,555133
1326.23,0.075056,657870,553457
1329.6,0.075913,656482,551201
1332.97,0.077319,654926,548117
1336.33,0.078610,653727,545489
1339.69,0.080563,652497,542020
1343.04,0.082807,649913,537091
1346.39,0.084817,647671,532767
1349.73,0.087305,645338,527816
1354.18,0.090953,641175,520024
1357.52,0.093660,638376,514537
1360.85,0.096070,635805,509629
1364.17,0.098351,633413,505052
1367.49,0.101097,631026,499977
1370.81,0.103948,628050,494363
1374.12,0.106913,625034,488642
1378.54,0.110694,620272,480716
1381.84,0.114224,616892,474226
1385.14,0.119415,613613,466101
1388.43,0.124663,611526,458936
1391.72,0.130728,610663,451933
1395.01,0.136568,610634,445875
1398.29,0.142979,611700,440108
1402.66,0.152145,614051,432573
1405.93,0.159063,616268,427274
1409.2,0.165718,617795,421819
1412.46,0.171890,618872,416592
1415.72,0.177105,619795,412233
1418.98,0.182121,620495,407960
1422.23,0.186437,621087,404311
1426.56,0.190818,621375,400438
1429.8,0.193984,621616,397684
1433.04,0.197588,622129,394723
1436.27,0.200228,621526,391951
1439.5,0.202429,621113,389710
1442.72,0.204625,620921,387625
1445.94,0.207429,620270,384726
1450.23,0.211140,618860,380586
1453.44,0.214431,617697,377003
1456.64,0.217312,616264,373641
1459.85,0.219820,614413,370374
1463.04,0.222639,612307,366716
1466.24,0.225849,610032,362663
1469.43,0.228455,607345,358906
1473.67,0.233778,603789,352458
1476.85,0.238570,601175,347081
1480.02,0.243604,597737,341119
1483.19,0.249294,594479,334844
1486.36,0.255398,591232,328367
1489.52,0.260468,587853,322701
1492.68,0.264665,583875,317435
1496.89,0.266695,578062,312809
1500.03,0.267368,574159,310216
1503.18,0.267962,570285,307702
1506.32,0.266611,565444,306040
1509.45,0.265778,560571,303985
1512.58,0.263934,555821,302692
1515.71,0.262242,550344,300879
1519.87,0.258968,543983,299652
1522.99,0.256830,538764,298242
1526.1,0.253538,533692,297682
1529.21,0.250327,527902,296638
1532.32,0.247661,521886,295063
1535.42,0.244021,515888,294127
1538.51,0.240831,509987,292906
1541.6,0.237734,503936,291502
1545.72,0.232618,494694,289547
1548.8,0.229788,488378,287719
1551.88,0.226735,481832,285865
1554.95,0.224443,474989,283296
1558.02,0.221827,467818,280705
1561.08,0.220898,460730,277044
1564.15,0.220179,454170,273552
1568.22,0.218562,444181,268533
1571.27,0.218039,436947,264478
1574.32,0.216610,429598,260887
1577.36,0.215676,422039,256848
1580.4,0.213297,414375,253569
1583.43,0.211926,406354,249447
1586.46,0.209807,398475,245807
1590.49,0.207057,388982,241475
1593.51,0.204954,380708,237486
1596.53,0.202181,372727,233997
1599.54,0.199801,365060,230443
1602.55,0.197616,357543,226836
1605.55,0.195963,349495,222576
1608.55,0.192899,341154,218802
1612.54,0.189651,330877,213804
1615.53,0.187759,322904,209563
1618.51,0.187325,315116,204713
1621.49,0.185415,307217,200461
1624.47,0.183480,299481,196286
1627.44,0.182354,292112,191953
1630.41,0.181106,284245,187321
1634.36,0.179514,274079,181285
1637.32,0.178176,266916,177092
1640.27,0.177702,259612,172434
1643.22,0.175857,251804,167960
1646.16,0.174488,244348,163501
1649.1,0.174811,236703,158268
1652.04,0.173498,228171,153025
1655.95,0.171819,215408,145025
1658.88,0.169347,204937,138763
1661.8,0.170472,193395,130609
1664.72,0.168306,179728,121986
1667.63,0.163809,163642,112224
1670.54,0.161234,146312,100936
1673.44,0.157662,128451,89346
1677.31,0.157436,105080,73128
1680.21,0.156434,88906,62015
1683.1,0.157765,75033,52178
1685.99,0.161317,63520,43812
1688.87,0.167271,53714,36544
1691.75,0.173932,45653,30587
1694.62,0.173508,39137,26247
1697.49,0.171741,33776,22744
1701.31,0.178882,28175,18663