File: samples/wool/wool-000811/Column 1_050569_20150331_120847.csv
Method:,Column 1,,
Host Date-Time:,31/3/15 @ 12:8:47,,
Header Version:,1,,
System Temp (C):,34.01,,
Detector Temp (C):,33.99,,
Humidity (%):,1.76,,
Lamp PD:,3818,,
Shift Vector Coefficients:,-10.5391,0.0761263,-0.000134223,,
Pixel to Wavelength Coefficients:,1775.68,-0.916766,-0.000235065,,
Serial Number:,5510004,,
Scan Config Name:,Column 1,,
Scan Config Type:,Slew,,
Section 1,,
Start wavelength (nm):,900,,
End wavelength (nm):,1700,,
Pattern Pixel Width (nm):,   7.03,,,,
Exposure (ms):,  0.635,,,,
Digital Resolution:,228,,
Num Repeats:,6,,
PGA Gain:,64,,
Total Measurement Time in sec:,  2.669,,
Wavelength (nm),Absorbance (AU),Reference Signal (unitless),Sample Signal (unitless)
901.51,0.035196,108485,100040
905.376,0.040953,121306,110390
909.237,0.042097,131909,119723
913.095,0.045028,143299,129186
916.948,0.045483,156982,141373
922.079,0.047728,179937,161210
925.923,0.048068,200504,179496
929.762,0.048962,222660,198921
933.597,0.049402,244426,218145
937.427,0.048357,263972,236157
941.254,0.048741,281845,251924
945.076,0.047892,297271,266232
950.165,0.046899,315605,283299
953.978,0.046192,328029,294931
957.786,0.046431,340470,305948
961.59,0.047227,352317,316014
965.389,0.046780,363056,325982
969.185,0.047082,373162,334823
972.976,0.047485,382632,343002
976.763,0.048478,391202,349883
981.806,0.048474,400190,357925
985.583,0.049355,406088,362464
989.355,0.049764,410162,365756
993.124,0.050400,412868,367630
996.888,0.050934,414263,368419
1000.65,0.051357,415476,369138
1004.4,0.053039,415479,367714
1009.41,0.054239,414358,365710
1013.15,0.054947,412923,363850
1016.89,0.055557,411526,362110
1020.63,0.055139,409066,360292
1024.36,0.054971,406777,358414
1028.09,0.054960,404427,356353
1031.82,0.055232,401911,353914
1036.78,0.054621,398410,351325
1040.49,0.053665,396204,350150
1044.2,0.054097,394236,348064
1047.91,0.053569,392042,346548
1051.61,0.052638,389823,345326
1055.31,0.051940,388234,344472
1059,0.051625,387599,344158
1063.92,0.050115,386688,344545
1067.61,0.049831,386598,344690
1071.29,0.049118,387377,345952
1074.96,0.048299,388536,347642
1078.63,0.048155,389855,348938
1082.3,0.047197,391215,350928
1085.96,0.046889,393215,352973
1090.84,0.046018,396270,356429
1094.49,0.046187,398760,358529
1098.14,0.045137,400987,361404
1101.79,0.045257,403477,363548
1105.43,0.045167,406116,366002
1109.06,0.044367,407701,368108
1112.7,0.044650,409859,369815
1117.53,0.044087,412494,372675
1121.15,0.045537,414909,373608
1124.77,0.046072,416559,374632
1128.38,0.046640,418532,375914
1131.99,0.048092,419956,375934
1135.6,0.049907,421946,376140
1139.2,0.052107,423881,375956
1143.99,0.054588,426786,376376
1147.58,0.055294,428617,377377
1151.17,0.056333,431169,378717
1154.75,0.058062,433579,379320
1158.33,0.059178,436264,380690
1161.91,0.061423,439132,381217
1165.48,0.063826,442389,381925
1169.04,0.066960,446101,382361
1173.79,0.070123,451929,384545
1177.34,0.071846,456026,386495
1180.9,0.075146,461306,388010
1184.44,0.076781,467657,391874
1187.99,0.077708,473969,396316
1191.52,0.077497,479856,401434
1195.06,0.077037,487372,408154
1199.76,0.075986,497347,417516
1203.29,0.075486,504311,423850
1206.81,0.074449,511507,430926
1210.33,0.073947,519078,437810
1213.84,0.073090,527163,445507
1217.35,0.072141,534208,452449
1220.85,0.071173,540472,458776
1225.51,0.070535,549929,467489
1229.01,0.070469,556888,473477
1232.5,0.069232,562180,479340
1235.98,0.069151,567975,484371
1239.46,0.067395,574815,492190
1242.94,0.066036,582782,500576
1246.41,0.066179,591476,507877
1251.03,0.065837,604016,519053
1254.5,0.066189,612289,525736
1257.96,0.066519,619125,531201
1261.41,0.067136,624551,535096
1264.86,0.067637,629900,539057
1268.31,0.068168,634345,542198
1271.75,0.069095,638574,544648
1276.33,0.069450,642499,547548
1279.76,0.069477,645905,550417
1283.19,0.068440,648307,553784
1286.61,0.068403,650446,555659
1290.03,0.067712,652132,557986
1293.44,0.067324,653907,560005
1296.85,0.067299,655963,561798
1301.39,0.067019,657349,563348
1304.8,0.067042,657558,563498
1308.19,0.067083,658515,564264
1311.58,0.067194,658804,564368
1314.97,0.067963,659011,563546
1318.36,0.068294,658272,562485
1321.73,0.068675,658022,561779
1326.23,0.069661,657870,560376
1329.6,0.070454,656482,558173
1332.97,0.071522,654926,555482
1336.33,0.072374,653727,553379
1339.69,0.074344,652497,549838
1343.04,0.076256,649913,545255
1346.39,0.078080,647671,541096
1349.73,0.079969,645338,536807
1354.18,0.083247,641175,529334
1357.52,0.085628,638376,524142
1360.85,0.087884,635805,519326
1364.17,0.090171,633413,514655
1367.49,0.092873,631026,509535
1370.81,0.095535,628050,504033
1374.12,0.097539,625034,499304
1378.54,0.101121,620272,491429
1381.84,0.104443,616892,485027
1385.14,0.108154,613613,478344
1388.43,0.111986,611526,472530
1391.72,0.117045,610663,466398
1395.01,0.122171,610634,460903
1398.29,0.127160,611700,456434
1402.66,0.133995,614051,451034
1405.93,0.140366,616268,446071
1409.2,0.145201,617795,442225
1412.46,0.150135,618872,437992
1415.72,0.154757,619795,434001
1418.98,0.158833,620495,430433
1422.23,0.162413,621087,427306
1426.56,0.166565,621375,423437
1429.8,0.169572,621616,420678
1433.04,0.172080,622129,418601
1436.27,0.174463,621526,415907
1439.5,0.176744,621113,413453
1442.72,0.179225,620921,410971
1445.94,0.181644,620270,408260
1450.23,0.185734,618860,403514
1453.44,0.188271,617697,400410
1456.64,0.191716,616264,396324
1459.85,0.194365,614413,392731
1463.04,0.197319,612307,388732
1466.24,0.200857,610032,384145
1469.43,0.204073,607345,379632
1473.67,0.210053,603789,372248
1476.85,0.216409,601175,365251
1480.02,0.223079,597737,357628
1483.19,0.229470,594479,350483
1486.36,0.235594,591232,343688
1489.52,0.240824,587853,337633
1492.68,0.244109,583875,332821
1496.89,0.246872,578062,327418
1500.03,0.248111,574159,324281
1503.18,0.247526,570285,322527
1506.32,0.246952,565444,320212
1509.45,0.245764,560571,318322
1512.58,0.244545,555821,316512
1515.71,0.241680,550344,315467
1519.87,0.238950,543983,313787
1522.99,0.236064,538764,312849
1526.1,0.233124,533692,312009
1529.21,0.229803,527902,310993
1532.32,0.226605,521886,309721
1535.42,0.223647,515888,308254
1538.51,0.220395,509987,307018
1541.6,0.217057,503936,305716
1545.72,0.212709,494694,303129
1548.8,0.209450,488378,301513
1551.88,0.207362,481832,298905
1554.95,0.205147,474989,296167
1558.02,0.202463,467818,293504
1561.08,0.201639,460730,289606
1564.15,0.201670,454170,285462
1568.22,0.199466,444181,280604
1571.27,0.199679,436947,275899
1574.32,0.197755,429598,272463
1577.36,0.197297,422039,267951
1580.4,0.195226,414375,264343
1583.43,0.194362,406354,259742
1586.46,0.192263,398475,255940
1590.49,0.189455,388982,251463
1593.51,0.188016,380708,246931
1596.53,0.184985,372727,243448
1599.54,0.183148,365060,239451
1602.55,0.180849,357543,235765
1605.55,0.178333,349495,231797
1608.55,0.176751,341154,227091
1612.54,0.173962,330877,221669
1615.53,0.172342,322904,217136
1618.51,0.172114,315116,212010
1621.49,0.170302,307217,207560
1624.47,0.169104,299481,202892
1627.44,0.167931,292112,198435
1630.41,0.166216,284245,193855
1634.36,0.164951,274079,187467
1637.32,0.163582,266916,183144
1640.27,0.163980,259612,177969
1643.22,0.161250,251804,173705
1646.16,0.161095,244348,168622
1649.1,0.160455,236703,163587
1652.04,0.158791,228171,158296
1655.95,0.155696,215408,150510
1658.88,0.151858,204937,144465
1661.8,0.148465,193395,137398
1664.72,0.141840,179728,129651
1667.63,0.131911,163642,120777
1670.54,0.120070,146312,110971
1673.44,0.105182,128451,100822
1677.31,0.089463,105080,85518
1680.21,0.080322,88906,73894
1683.1,0.077791,75033,62728
1685.99,0.081405,63520,52663
1688.87,0.087168,53714,43946
1691.75,0.091749,45653,36959
1694.62,0.093932,39137,31525
1697.49,0.096891,33776,27022
1701.31,0.108984,28175,21922