File: samples/wool/wool-000811/Column 1_050602_20150331_122438.csv
Method:,Column 1,,
Host Date-Time:,31/3/15 @ 12:24:38,,
Header Version:,1,,
System Temp (C):,34.03,,
Detector Temp (C):,34.75,,
Humidity (%):,1.76,,
Lamp PD:,3818,,
Shift Vector Coefficients:,-10.5391,0.0761263,-0.000134223,,
Pixel to Wavelength Coefficients:,1775.68,-0.916766,-0.000235065,,
Serial Number:,5510004,,
Scan Config Name:,Column 1,,
Scan Config Type:,Slew,,
Section 1,,
Start wavelength (nm):,900,,
End wavelength (nm):,1700,,
Pattern Pixel Width (nm):,   7.03,,,,
Exposure (ms):,  0.635,,,,
Digital Resolution:,228,,
Num Repeats:,6,,
PGA Gain:,64,,
Total Measurement Time in sec:,  2.671,,
Wavelength (nm),Absorbance (AU),Reference Signal (unitless),Sample Signal (unitless)
901.51,0.069214,108485,92503
905.376,0.073019,121306,102533
909.237,0.076739,131909,110544
913.095,0.077913,143299,119765
916.948,0.080496,156982,130423
922.079,0.079815,179937,149729
925.923,0.082586,200504,165782
929.762,0.081603,222660,184518
933.597,0.081660,244426,202529
937.427,0.081155,263972,218979
941.254,0.081394,281845,233677
945.076,0.079074,297271,247787
950.165,0.078404,315605,263475
953.978,0.077837,328029,274205
957.786,0.077470,340470,284845
961.59,0.078095,352317,294333
965.389,0.078477,363056,303038
969.185,0.078239,373162,311644
972.976,0.078382,382632,319447
976.763,0.078962,391202,326166
981.806,0.079658,400190,333126
985.583,0.080098,406088,337693
989.355,0.080224,410162,340982
993.124,0.080029,412868,343386
996.888,0.081078,414263,343715
1000.65,0.082054,415476,343947
1004.4,0.083206,415479,343039
1009.41,0.084329,414358,341230
1013.15,0.084394,412923,339997
1016.89,0.085749,411526,337791
1020.63,0.085392,409066,336048
1024.36,0.085034,406777,334443
1028.09,0.085339,404427,332278
1031.82,0.085141,401911,330361
1036.78,0.084133,398410,328244
1040.49,0.084671,396204,326023
1044.2,0.084610,394236,324449
1047.91,0.084426,392042,322780
1051.61,0.083732,389823,321466
1055.31,0.083401,388234,320400
1059,0.083348,387599,319915
1063.92,0.081987,386688,320165
1067.61,0.081001,386598,320818
1071.29,0.080457,387377,321867
1074.96,0.080692,388536,322656
1078.63,0.079872,389855,324363
1082.3,0.077943,391215,326943
1085.96,0.078078,393215,328513
1090.84,0.077082,396270,331825
1094.49,0.076609,398760,334274
1098.14,0.076229,400987,336435
1101.79,0.076295,403477,338473
1105.43,0.075383,406116,341403
1109.06,0.074772,407701,343218
1112.7,0.074795,409859,345016
1117.53,0.073925,412494,347931
1121.15,0.074733,414909,349317
1124.77,0.074180,416559,351153
1128.38,0.075685,418532,351596
1131.99,0.076398,419956,352213
1135.6,0.078660,421946,352044
1139.2,0.079175,423881,353239
1143.99,0.081240,426786,353973
1147.58,0.081965,428617,354899
1151.17,0.083686,431169,355600
1154.75,0.084156,433579,357201
1158.33,0.085786,436264,358066
1161.91,0.086533,439132,359801
1165.48,0.089142,442389,360298
1169.04,0.091571,446101,361295
1173.79,0.094612,451929,363461
1177.34,0.096861,456026,364862
1180.9,0.098979,461306,367291
1184.44,0.100753,467657,370830
1187.99,0.101933,473969,374815
1191.52,0.101955,479856,379451
1195.06,0.101676,487372,385642
1199.76,0.100974,497347,394172
1203.29,0.100592,504311,400043
1206.81,0.099717,511507,406569
1210.33,0.099373,519078,412914
1213.84,0.098858,527163,419843
1217.35,0.098669,534208,425639
1220.85,0.097746,540472,431546
1225.51,0.097000,549929,439852
1229.01,0.096586,556888,445843
1232.5,0.095438,562180,451271
1235.98,0.095303,567975,456064
1239.46,0.093743,574815,463218
1242.94,0.092845,582782,470610
1246.41,0.092094,591476,478457
1251.03,0.092177,604016,488508
1254.5,0.092370,612289,494979
1257.96,0.092917,619125,499875
1261.41,0.093110,624551,504032
1264.86,0.094177,629900,507101
1268.31,0.094561,634345,510228
1271.75,0.095400,638574,512638
1276.33,0.095373,642499,515822
1279.76,0.095009,645905,518991
1283.19,0.094251,648307,521831
1286.61,0.094338,650446,523448
1290.03,0.093943,652132,525282
1293.44,0.093339,653907,527445
1296.85,0.093230,655963,529236
1301.39,0.093081,657349,530536
1304.8,0.092860,657558,530975
1308.19,0.092927,658515,531666
1311.58,0.093064,658804,531731
1314.97,0.093870,659011,530912
1318.36,0.093896,658272,530285
1321.73,0.094447,658022,529412
1326.23,0.095332,657870,528212
1329.6,0.096156,656482,526098
1332.97,0.096790,654926,524086
1336.33,0.097595,653727,522157
1339.69,0.099193,652497,519261
1343.04,0.100570,649913,515567
1346.39,0.103137,647671,510761
1349.73,0.104866,645338,506899
1354.18,0.107648,641175,500413
1357.52,0.109741,638376,495833
1360.85,0.111700,635805,491614
1364.17,0.113537,633413,487697
1367.49,0.115735,631026,483406
1370.81,0.118030,628050,478591
1374.12,0.120163,625034,473959
1378.54,0.122833,620272,467465
1381.84,0.125829,616892,461722
1385.14,0.129282,613613,455630
1388.43,0.132849,611526,450366
1391.72,0.136927,610663,445528
1395.01,0.141022,610634,441325
1398.29,0.145145,611700,437919
1402.66,0.152367,614051,432352
1405.93,0.156987,616268,429321
1409.2,0.161739,617795,425702
1412.46,0.166434,618872,421859
1415.72,0.170093,619795,418943
1418.98,0.173755,620495,415895
1422.23,0.176899,621087,413289
1426.56,0.181102,621375,409498
1429.8,0.183140,621616,407739
1433.04,0.186241,622129,405172
1436.27,0.188375,621526,402795
1439.5,0.190712,621113,400367
1442.72,0.192849,620921,398279
1445.94,0.195573,620270,395374
1450.23,0.198242,618860,392058
1453.44,0.201560,617697,388343
1456.64,0.204198,616264,385096
1459.85,0.206412,614413,381987
1463.04,0.209965,612307,377576
1466.24,0.213432,610032,373182
1469.43,0.216831,607345,368642
1473.67,0.222754,603789,361519
1476.85,0.228634,601175,355113
1480.02,0.233715,597737,348976
1483.19,0.240683,594479,341549
1486.36,0.246387,591232,335252
1489.52,0.251577,587853,329376
1492.68,0.254662,583875,324831
1496.89,0.256630,578062,320143
1500.03,0.257494,574159,317350
1503.18,0.257024,570285,315550
1506.32,0.256406,565444,313317
1509.45,0.254941,560571,311666
1512.58,0.253162,555821,310294
1515.71,0.251223,550344,308611
1519.87,0.248228,543983,307155
1522.99,0.244647,538764,306727
1526.1,0.243336,533692,304758
1529.21,0.240171,527902,303656
1532.32,0.237119,521886,302313
1535.42,0.234561,515888,300604
1538.51,0.231769,509987,299082
1541.6,0.228346,503936,297872
1545.72,0.224765,494694,294830
1548.8,0.221848,488378,293027
1551.88,0.219558,481832,290628
1554.95,0.217021,474989,288179
1558.02,0.216225,467818,284349
1561.08,0.214314,460730,281276
1564.15,0.214198,454170,277345
1568.22,0.212876,444181,272072
1571.27,0.212360,436947,267959
1574.32,0.212582,429598,263318
1577.36,0.210739,422039,259785
1580.4,0.209118,414375,256021
1583.43,0.207780,406354,251840
1586.46,0.205920,398475,248017
1590.49,0.203686,388982,243357
1593.51,0.201954,380708,239132
1596.53,0.200013,372727,235168
1599.54,0.198506,365060,231131
1602.55,0.196158,357543,227599
1605.55,0.194630,349495,223260
1608.55,0.193084,341154,218709
1612.54,0.190912,330877,213184
1615.53,0.188337,322904,209284
1618.51,0.187641,315116,204564
1621.49,0.186624,307217,199904
1624.47,0.185740,299481,195267
1627.44,0.185258,292112,190674
1630.41,0.183916,284245,186113
1634.36,0.182659,274079,179977
1637.32,0.183428,266916,174963
1640.27,0.181934,259612,170762
1643.22,0.181038,251804,165968
1646.16,0.179869,244348,161488
1649.1,0.179298,236703,156641
1652.04,0.177911,228171,151478
1655.95,0.174188,215408,144236
1658.88,0.170422,204937,138420
1661.8,0.165155,193395,132218
1664.72,0.157074,179728,125182
1667.63,0.144960,163642,117202
1670.54,0.131025,146312,108207
1673.44,0.115323,128451,98495
1677.31,0.096203,105080,84201
1680.21,0.083525,88906,73351
1683.1,0.077735,75033,62736
1685.99,0.079135,63520,52939
1688.87,0.081152,53714,44559
1691.75,0.081863,45653,37810
1694.62,0.092433,39137,31634
1697.49,0.096473,33776,27048
1701.31,0.107856,28175,21979