File: samples/wool/wool-000811/Column 1_050540_20150331_115506.csv
Method:,Column 1,,
Host Date-Time:,31/3/15 @ 11:55:6,,
Header Version:,1,,
System Temp (C):,32.25,,
Detector Temp (C):,30.5,,
Humidity (%):,3.13,,
Lamp PD:,3825,,
Shift Vector Coefficients:,-10.5391,0.0761263,-0.000134223,,
Pixel to Wavelength Coefficients:,1775.68,-0.916766,-0.000235065,,
Serial Number:,5510004,,
Scan Config Name:,Column 1,,
Scan Config Type:,Slew,,
Section 1,,
Start wavelength (nm):,900,,
End wavelength (nm):,1700,,
Pattern Pixel Width (nm):,   7.03,,,,
Exposure (ms):,  0.635,,,,
Digital Resolution:,228,,
Num Repeats:,6,,
PGA Gain:,64,,
Total Measurement Time in sec:,  2.695,,
Wavelength (nm),Absorbance (AU),Reference Signal (unitless),Sample Signal (unitless)
901.51,0.043763,108485,98086
905.376,0.051654,121306,107703
909.237,0.051840,131909,117067
913.095,0.051681,143299,127222
916.948,0.051540,156982,139415
922.079,0.052049,179937,159614
925.923,0.051935,200504,177905
929.762,0.052768,222660,197185
933.597,0.052679,244426,216505
937.427,0.053865,263972,233181
941.254,0.053759,281845,249030
945.076,0.053471,297271,262834
950.165,0.054001,315605,278704
953.978,0.053028,328029,290325
957.786,0.053544,340470,300978
961.59,0.054310,352317,310902
965.389,0.055001,363056,319869
969.185,0.054591,373162,329084
972.976,0.055898,382632,336421
976.763,0.056107,391202,343791
981.806,0.056938,400190,351017
985.583,0.058015,406088,355308
989.355,0.058606,410162,358385
993.124,0.058733,412868,360644
996.888,0.059486,414263,361235
1000.65,0.060595,415476,361369
1004.4,0.061279,415479,360803
1009.41,0.063039,414358,358374
1013.15,0.062802,412923,357328
1016.89,0.063888,411526,355230
1020.63,0.064158,409066,352887
1024.36,0.064021,406777,351023
1028.09,0.062861,404427,349928
1031.82,0.062694,401911,347885
1036.78,0.062656,398410,344885
1040.49,0.061914,396204,343562
1044.2,0.061035,394236,342548
1047.91,0.060504,392042,341058
1051.61,0.060025,389823,339502
1055.31,0.059239,388234,338731
1059,0.057786,387599,339310
1063.92,0.057451,386688,338774
1067.61,0.055898,386598,339908
1071.29,0.055600,387377,340827
1074.96,0.054752,388536,342515
1078.63,0.054153,389855,344152
1082.3,0.053265,391215,346059
1085.96,0.052278,393215,348620
1090.84,0.052136,396270,351443
1094.49,0.051900,398760,353844
1098.14,0.051403,400987,356227
1101.79,0.051468,403477,358386
1105.43,0.050513,406116,361524
1109.06,0.050241,407701,363162
1112.7,0.050378,409859,364969
1117.53,0.049787,412494,367816
1121.15,0.051907,414909,368168
1124.77,0.051489,416559,369988
1128.38,0.053712,418532,369842
1131.99,0.055334,419956,369717
1135.6,0.057201,421946,369876
1139.2,0.059160,423881,369900
1143.99,0.061755,426786,370216
1147.58,0.062836,428617,370880
1151.17,0.064532,431169,371634
1154.75,0.066060,433579,372399
1158.33,0.067963,436264,373067
1161.91,0.070332,439132,373476
1165.48,0.073289,442389,373693
1169.04,0.076296,446101,374229
1173.79,0.080898,451929,375122
1177.34,0.083222,456026,376502
1180.9,0.085706,461306,378689
1184.44,0.086894,467657,382854
1187.99,0.088055,473969,386986
1191.52,0.088243,479856,391623
1195.06,0.086961,487372,398933
1199.76,0.085975,497347,408023
1203.29,0.084528,504311,415117
1206.81,0.083251,511507,422280
1210.33,0.081894,519078,429871
1213.84,0.080933,527163,437534
1217.35,0.080052,534208,444282
1220.85,0.079216,540472,450357
1225.51,0.077501,549929,460051
1229.01,0.077296,556888,466092
1232.5,0.076144,562180,471771
1235.98,0.075008,567975,477883
1239.46,0.074108,574815,484641
1242.94,0.072887,582782,492741
1246.41,0.072223,591476,500858
1251.03,0.071963,604016,511783
1254.5,0.071644,612289,519174
1257.96,0.072084,619125,524438
1261.41,0.072697,624551,528288
1264.86,0.072844,629900,532633
1268.31,0.073811,634345,535198
1271.75,0.074506,638574,537904
1276.33,0.075105,642499,540465
1279.76,0.075066,645905,543379
1283.19,0.074303,648307,546359
1286.61,0.073943,650446,548616
1290.03,0.073427,652132,550692
1293.44,0.073112,653907,552591
1296.85,0.072672,655963,554891
1301.39,0.072374,657349,556445
1304.8,0.072539,657558,556410
1308.19,0.072550,658515,557206
1311.58,0.073461,658804,556282
1314.97,0.073751,659011,556086
1318.36,0.074214,658272,554870
1321.73,0.074569,658022,554206
1326.23,0.075868,657870,552423
1329.6,0.076966,656482,549866
1332.97,0.078262,654926,546928
1336.33,0.079387,653727,544514
1339.69,0.081455,652497,540908
1343.04,0.083285,649913,536501
1346.39,0.085764,647671,531607
1349.73,0.088259,645338,526658
1354.18,0.091828,641175,518978
1357.52,0.094386,638376,513677
1360.85,0.096212,635805,509462
1364.17,0.098659,633413,504694
1367.49,0.102210,631026,498697
1370.81,0.104456,628050,493785
1374.12,0.107248,625034,488265
1378.54,0.111338,620272,480003
1381.84,0.115191,616892,473171
1385.14,0.119557,613613,465948
1388.43,0.124983,611526,458598
1391.72,0.130840,610663,451816
1395.01,0.136356,610634,446093
1398.29,0.142955,611700,440133
1402.66,0.151659,614051,433057
1405.93,0.158269,616268,428056
1409.2,0.165195,617795,422328
1412.46,0.171126,618872,417325
1415.72,0.176150,619795,413141
1418.98,0.180865,620495,409141
1422.23,0.185413,621087,405265
1426.56,0.189840,621375,401341
1429.8,0.193675,621616,397967
1433.04,0.196331,622129,395867
1436.27,0.198838,621526,393207
1439.5,0.200793,621113,391181
1442.72,0.203406,620921,388714
1445.94,0.206069,620270,385933
1450.23,0.210254,618860,381363
1453.44,0.212789,617697,378431
1456.64,0.215837,616264,374912
1459.85,0.218588,614413,371426
1463.04,0.220921,612307,368170
1466.24,0.224557,610032,363744
1469.43,0.226980,607345,360127
1473.67,0.232856,603789,353207
1476.85,0.237337,601175,348068
1480.02,0.242790,597737,341759
1483.19,0.249269,594479,334863
1486.36,0.254115,591232,329339
1489.52,0.259863,587853,323151
1492.68,0.263950,583875,317958
1496.89,0.266798,578062,312735
1500.03,0.266723,574159,310677
1503.18,0.267764,570285,307842
1506.32,0.266948,565444,305803
1509.45,0.265513,560571,304171
1512.58,0.264164,555821,302532
1515.71,0.262043,550344,301017
1519.87,0.258642,543983,299877
1522.99,0.255807,538764,298945
1526.1,0.253669,533692,297592
1529.21,0.250250,527902,296690
1532.32,0.247233,521886,295354
1535.42,0.244406,515888,293866
1538.51,0.240866,509987,292882
1541.6,0.237173,503936,291879
1545.72,0.232202,494694,289824
1548.8,0.228963,488378,288266
1551.88,0.226855,481832,285786
1554.95,0.224865,474989,283021
1558.02,0.222257,467818,280427
1561.08,0.220747,460730,277140
1564.15,0.219512,454170,273972
1568.22,0.218727,444181,268431
1571.27,0.217762,436947,264647
1574.32,0.217153,429598,260561
1577.36,0.215240,422039,257106
1580.4,0.214402,414375,252925
1583.43,0.212674,406354,249018
1586.46,0.209531,398475,245963
1590.49,0.207738,388982,241097
1593.51,0.205796,380708,237026
1596.53,0.202563,372727,233791
1599.54,0.200027,365060,230323
1602.55,0.198068,357543,226600
1605.55,0.195465,349495,222831
1608.55,0.193022,341154,218740
1612.54,0.189980,330877,213642
1615.53,0.188715,322904,209102
1618.51,0.186984,315116,204874
1621.49,0.186628,307217,199902
1624.47,0.184005,299481,196049
1627.44,0.186012,292112,190343
1630.41,0.181566,284245,187123
1634.36,0.179076,274079,181468
1637.32,0.177357,266916,177426
1640.27,0.178627,259612,172067
1643.22,0.176351,251804,167769
1646.16,0.175968,244348,162945
1649.1,0.175357,236703,158069
1652.04,0.173220,228171,153123
1655.95,0.172202,215408,144897
1658.88,0.170384,204937,138432
1661.8,0.168839,193395,131101
1664.72,0.168680,179728,121881
1667.63,0.161443,163642,112837
1670.54,0.157498,146312,101808
1673.44,0.150164,128451,90902
1677.31,0.148484,105080,74651
1680.21,0.146164,88906,63499
1683.1,0.149782,75033,53146
1685.99,0.155176,63520,44436
1688.87,0.160281,53714,37137
1691.75,0.159343,45653,31632
1694.62,0.167461,39137,26615
1697.49,0.174577,33776,22596
1701.31,0.179814,28175,18623