File: samples/wool/wool-000811/Column 1_050547_20150331_115834.csv
Method:,Column 1,,
Host Date-Time:,31/3/15 @ 11:58:34,,
Header Version:,1,,
System Temp (C):,33.06,,
Detector Temp (C):,31.75,,
Humidity (%):,2.34,,
Lamp PD:,3823,,
Shift Vector Coefficients:,-10.5391,0.0761263,-0.000134223,,
Pixel to Wavelength Coefficients:,1775.68,-0.916766,-0.000235065,,
Serial Number:,5510004,,
Scan Config Name:,Column 1,,
Scan Config Type:,Slew,,
Section 1,,
Start wavelength (nm):,900,,
End wavelength (nm):,1700,,
Pattern Pixel Width (nm):,   7.03,,,,
Exposure (ms):,  0.635,,,,
Digital Resolution:,228,,
Num Repeats:,6,,
PGA Gain:,64,,
Total Measurement Time in sec:,  2.730,,
Wavelength (nm),Absorbance (AU),Reference Signal (unitless),Sample Signal (unitless)
901.51,0.046347,108485,97504
905.376,0.051171,121306,107823
909.237,0.053751,131909,116553
913.095,0.054493,143299,126401
916.948,0.053892,156982,138662
922.079,0.055130,179937,158486
925.923,0.055450,200504,176471
929.762,0.055650,222660,195881
933.597,0.056576,244426,214571
937.427,0.055892,263972,232095
941.254,0.056690,281845,247355
945.076,0.055570,297271,261567
950.165,0.056016,315605,277414
953.978,0.055806,328029,288474
957.786,0.055683,340470,299499
961.59,0.055659,352317,309938
965.389,0.056187,363056,318997
969.185,0.056131,373162,327919
972.976,0.056839,382632,335693
976.763,0.057962,391202,342325
981.806,0.057970,400190,350184
985.583,0.058840,406088,354634
989.355,0.059656,410162,357519
993.124,0.060226,412868,359406
996.888,0.060726,414263,360205
1000.65,0.061301,415476,360782
1004.4,0.062005,415479,360200
1009.41,0.063978,414358,357600
1013.15,0.064461,412923,355966
1016.89,0.065096,411526,354243
1020.63,0.064661,409066,352478
1024.36,0.065221,406777,350054
1028.09,0.064340,404427,348739
1031.82,0.063913,401911,346910
1036.78,0.062839,398410,344740
1040.49,0.062422,396204,343160
1044.2,0.062465,394236,341422
1047.91,0.061628,392042,340177
1051.61,0.060634,389823,339026
1055.31,0.060496,388234,337752
1059,0.059091,387599,338292
1063.92,0.058472,386688,337978
1067.61,0.057250,386598,338852
1071.29,0.056716,387377,339952
1074.96,0.055822,388536,341672
1078.63,0.055090,389855,343410
1082.3,0.054600,391215,344997
1085.96,0.053513,393215,347630
1090.84,0.052950,396270,350785
1094.49,0.052091,398760,353688
1098.14,0.051791,400987,355909
1101.79,0.051988,403477,357957
1105.43,0.052140,406116,360172
1109.06,0.051127,407701,362422
1112.7,0.051240,409859,364246
1117.53,0.051161,412494,366654
1121.15,0.051761,414909,368292
1124.77,0.052471,416559,369152
1128.38,0.053576,418532,369958
1131.99,0.055283,419956,369761
1135.6,0.057503,421946,369619
1139.2,0.059480,423881,369627
1143.99,0.062718,426786,369396
1147.58,0.063280,428617,370501
1151.17,0.064999,431169,371235
1154.75,0.065950,433579,372493
1158.33,0.067925,436264,373099
1161.91,0.070911,439132,372979
1165.48,0.073708,442389,373333
1169.04,0.076336,446101,374194
1173.79,0.081018,451929,375018
1177.34,0.083475,456026,376283
1180.9,0.086018,461306,378417
1184.44,0.087910,467657,381960
1187.99,0.088704,473969,386408
1191.52,0.088531,479856,391363
1195.06,0.087575,487372,398369
1199.76,0.085946,497347,408050
1203.29,0.085316,504311,414364
1206.81,0.083976,511507,421576
1210.33,0.082869,519078,428907
1213.84,0.082071,527163,436389
1217.35,0.080500,534208,443824
1220.85,0.079181,540472,450394
1225.51,0.078107,549929,459409
1229.01,0.077402,556888,465979
1232.5,0.076368,562180,471528
1235.98,0.075582,567975,477251
1239.46,0.074536,574815,484164
1242.94,0.073172,582782,492418
1246.41,0.072648,591476,500368
1251.03,0.072039,604016,511693
1254.5,0.072303,612289,518386
1257.96,0.072516,619125,523917
1261.41,0.072728,624551,528251
1264.86,0.073772,629900,531495
1268.31,0.074561,634345,534274
1271.75,0.074956,638574,537348
1276.33,0.075088,642499,540486
1279.76,0.075210,645905,543199
1283.19,0.074302,648307,546360
1286.61,0.074041,650446,548492
1290.03,0.073903,652132,550089
1293.44,0.073244,653907,552423
1296.85,0.073113,655963,554328
1301.39,0.072737,657349,555980
1304.8,0.072631,657558,556292
1308.19,0.073134,658515,556457
1311.58,0.073006,658804,556866
1314.97,0.073955,659011,555825
1318.36,0.074380,658272,554658
1321.73,0.074664,658022,554085
1326.23,0.075583,657870,552786
1329.6,0.076802,656482,550074
1332.97,0.078237,654926,546960
1336.33,0.078970,653727,545038
1339.69,0.081230,652497,541189
1343.04,0.083160,649913,536655
1346.39,0.085360,647671,532101
1349.73,0.088202,645338,526726
1354.18,0.091271,641175,519644
1357.52,0.093473,638376,514759
1360.85,0.096439,635805,509196
1364.17,0.098933,633413,504376
1367.49,0.101042,631026,500041
1370.81,0.104426,628050,493819
1374.12,0.106843,625034,488721
1378.54,0.110715,620272,480692
1381.84,0.114406,616892,474027
1385.14,0.119002,613613,466544
1388.43,0.123693,611526,459962
1391.72,0.129114,610663,453615
1395.01,0.134631,610634,447868
1398.29,0.141004,611700,442114
1402.66,0.149459,614051,435257
1405.93,0.155651,616268,430644
1409.2,0.161254,617795,426177
1412.46,0.167648,618872,420681
1415.72,0.172715,619795,416421
1418.98,0.177135,620495,412670
1422.23,0.181503,621087,408930
1426.56,0.185730,621375,405157
1429.8,0.188879,621616,402386
1433.04,0.191461,622129,400331
1436.27,0.193774,621526,397819
1439.5,0.196430,621113,395131
1442.72,0.199280,620921,392425
1445.94,0.201781,620270,389762
1450.23,0.205410,618860,385640
1453.44,0.208709,617697,382003
1456.64,0.211338,616264,378816
1459.85,0.214286,614413,375124
1463.04,0.216605,612307,371847
1466.24,0.219637,610032,367888
1469.43,0.223372,607345,363131
1473.67,0.228962,603789,356388
1476.85,0.233785,601175,350926
1480.02,0.239953,597737,343999
1483.19,0.246058,594479,337348
1486.36,0.252607,591232,330484
1489.52,0.258187,587853,324401
1492.68,0.261475,583875,319775
1496.89,0.264453,578062,314428
1500.03,0.266009,574159,311188
1503.18,0.265497,570285,309453
1506.32,0.265442,565444,306865
1509.45,0.264352,560571,304985
1512.58,0.263416,555821,303053
1515.71,0.260351,550344,302192
1519.87,0.257323,543983,300789
1522.99,0.254083,538764,300134
1526.1,0.251415,533692,299141
1529.21,0.248044,527902,298201
1532.32,0.244765,521886,297037
1535.42,0.242560,515888,295118
1538.51,0.238397,509987,294552
1541.6,0.235659,503936,292898
1545.72,0.230341,494694,291069
1548.8,0.227490,488378,289245
1551.88,0.223935,481832,287714
1554.95,0.221720,474989,285078
1558.02,0.221304,467818,281043
1561.08,0.218790,460730,278392
1564.15,0.217766,454170,275076
1568.22,0.216689,444181,269694
1571.27,0.215875,436947,265799
1574.32,0.214367,429598,262238
1577.36,0.213649,422039,258050
1580.4,0.212141,414375,254245
1583.43,0.210586,406354,250218
1586.46,0.208160,398475,246741
1590.49,0.205689,388982,242237
1593.51,0.203530,380708,238266
1596.53,0.200974,372727,234648
1599.54,0.199104,365060,230813
1602.55,0.195849,357543,227761
1605.55,0.193649,349495,223765
1608.55,0.191674,341154,219420
1612.54,0.189184,330877,214034
1615.53,0.187489,322904,209693
1618.51,0.184846,315116,205885
1621.49,0.183763,307217,201225
1624.47,0.181932,299481,196987
1627.44,0.181180,292112,192473
1630.41,0.179424,284245,188048
1634.36,0.178561,274079,181683
1637.32,0.176778,266916,177663
1640.27,0.176816,259612,172786
1643.22,0.175033,251804,168279
1646.16,0.173695,244348,163800
1649.1,0.173463,236703,158760
1652.04,0.171688,228171,153664
1655.95,0.169647,215408,145752
1658.88,0.167675,204937,139298
1661.8,0.164866,193395,132306
1664.72,0.161713,179728,123852
1667.63,0.153231,163642,114991
1670.54,0.144944,146312,104794
1673.44,0.136623,128451,93781
1677.31,0.129103,105080,78058
1680.21,0.124968,88906,66675
1683.1,0.127856,75033,55898
1685.99,0.131090,63520,46970
1688.87,0.138033,53714,39089
1691.75,0.140140,45653,33062
1694.62,0.148808,39137,27783
1697.49,0.148270,33776,24007
1701.31,0.155552,28175,19693