File: samples/wool/wool-000811/Column 1_050595_20150331_122121.csv
Method:,Column 1,,
Host Date-Time:,31/3/15 @ 12:21:21,,
Header Version:,1,,
System Temp (C):,33.91,,
Detector Temp (C):,34.66,,
Humidity (%):,1.76,,
Lamp PD:,3818,,
Shift Vector Coefficients:,-10.5391,0.0761263,-0.000134223,,
Pixel to Wavelength Coefficients:,1775.68,-0.916766,-0.000235065,,
Serial Number:,5510004,,
Scan Config Name:,Column 1,,
Scan Config Type:,Slew,,
Section 1,,
Start wavelength (nm):,900,,
End wavelength (nm):,1700,,
Pattern Pixel Width (nm):,   7.03,,,,
Exposure (ms):,  0.635,,,,
Digital Resolution:,228,,
Num Repeats:,6,,
PGA Gain:,64,,
Total Measurement Time in sec:,  2.678,,
Wavelength (nm),Absorbance (AU),Reference Signal (unitless),Sample Signal (unitless)
901.51,0.070780,108485,92170
905.376,0.076954,121306,101608
909.237,0.079530,131909,109836
913.095,0.078058,143299,119725
916.948,0.078870,156982,130912
922.079,0.081221,179937,149245
925.923,0.082415,200504,165847
929.762,0.083287,222660,183804
933.597,0.083732,244426,201565
937.427,0.082335,263972,218385
941.254,0.081359,281845,233696
945.076,0.080709,297271,246856
950.165,0.079234,315605,262972
953.978,0.078097,328029,274041
957.786,0.078788,340470,283982
961.59,0.079598,352317,293316
965.389,0.079502,363056,302323
969.185,0.079342,373162,310853
972.976,0.079553,382632,318587
976.763,0.079467,391202,325787
981.806,0.079947,400190,332904
985.583,0.080943,406088,337037
989.355,0.081142,410162,340262
993.124,0.082132,412868,341727
996.888,0.082058,414263,342940
1000.65,0.082781,415476,343372
1004.4,0.083741,415479,342616
1009.41,0.085178,414358,340563
1013.15,0.085459,412923,339164
1016.89,0.086535,411526,337180
1020.63,0.086189,409066,335432
1024.36,0.086891,406777,333016
1028.09,0.086379,404427,331483
1031.82,0.086029,401911,329686
1036.78,0.085496,398410,327216
1040.49,0.085596,396204,325329
1044.2,0.085623,394236,323693
1047.91,0.084636,392042,322624
1051.61,0.084748,389823,320715
1055.31,0.083999,388234,319959
1059,0.083697,387599,319658
1063.92,0.083540,386688,319022
1067.61,0.082173,386598,319953
1071.29,0.081870,387377,320822
1074.96,0.081392,388536,322136
1078.63,0.080543,389855,323862
1082.3,0.080061,391215,325353
1085.96,0.079090,393215,327748
1090.84,0.078266,396270,330922
1094.49,0.077506,398760,333584
1098.14,0.077517,400987,335439
1101.79,0.076596,403477,338238
1105.43,0.076060,406116,340871
1109.06,0.076179,407701,342108
1112.7,0.074958,409859,344887
1117.53,0.075051,412494,347030
1121.15,0.075845,414909,348424
1124.77,0.075841,416559,349813
1128.38,0.076701,418532,350774
1131.99,0.077769,419956,351103
1135.6,0.078910,421946,351841
1139.2,0.080867,423881,351866
1143.99,0.082277,426786,353129
1147.58,0.083730,428617,353459
1151.17,0.084351,431169,355056
1154.75,0.084939,433579,356557
1158.33,0.086887,436264,357160
1161.91,0.088269,439132,358365
1165.48,0.090496,442389,359177
1169.04,0.092418,446101,360591
1173.79,0.095801,451929,362468
1177.34,0.097919,456026,363974
1180.9,0.100098,461306,366346
1184.44,0.101735,467657,369992
1187.99,0.103256,473969,373675
1191.52,0.103139,479856,378418
1195.06,0.102825,487372,384623
1199.76,0.102134,497347,393120
1203.29,0.101483,504311,399223
1206.81,0.100565,511507,405776
1210.33,0.100303,519078,412031
1213.84,0.099765,527163,418967
1217.35,0.099177,534208,425141
1220.85,0.098166,540472,431129
1225.51,0.097750,549929,439093
1229.01,0.097453,556888,444954
1232.5,0.096755,562180,449905
1235.98,0.096412,567975,454901
1239.46,0.095042,574815,461834
1242.94,0.094066,582782,469289
1246.41,0.093385,591476,477037
1251.03,0.092761,604016,487851
1254.5,0.093568,612289,493615
1257.96,0.094012,619125,498616
1261.41,0.094669,624551,502226
1264.86,0.094968,629900,506178
1268.31,0.095351,634345,509301
1271.75,0.095983,638574,511951
1276.33,0.096314,642499,514705
1279.76,0.096299,645905,517452
1283.19,0.095839,648307,519926
1286.61,0.095381,650446,522192
1290.03,0.095009,652132,523994
1293.44,0.094704,653907,525789
1296.85,0.094765,655963,527369
1301.39,0.093632,657349,529864
1304.8,0.094104,657558,529456
1308.19,0.094755,658515,529432
1311.58,0.094297,658804,530224
1314.97,0.095096,659011,529415
1318.36,0.095414,658272,528435
1321.73,0.096079,658022,527426
1326.23,0.096893,657870,526317
1329.6,0.097643,656482,524300
1332.97,0.098434,654926,522106
1336.33,0.099599,653727,519754
1339.69,0.100829,652497,517308
1343.04,0.102497,649913,513284
1346.39,0.104524,647671,509132
1349.73,0.106304,645338,505223
1354.18,0.109197,641175,498631
1357.52,0.111233,638376,494133
1360.85,0.113133,635805,489994
1364.17,0.115166,633413,485871
1367.49,0.117507,631026,481438
1370.81,0.119983,628050,476443
1374.12,0.121326,625034,472691
1378.54,0.124403,620272,465778
1381.84,0.127584,616892,459859
1385.14,0.130963,613613,453870
1388.43,0.135277,611526,447856
1391.72,0.139149,610663,443254
1395.01,0.143803,610634,438508
1398.29,0.148477,611700,434572
1402.66,0.155194,614051,429547
1405.93,0.160098,616268,426257
1409.2,0.164861,617795,422652
1412.46,0.169620,618872,418775
1415.72,0.173542,619795,415629
1418.98,0.177647,620495,412184
1422.23,0.181012,621087,409393
1426.56,0.184863,621375,405967
1429.8,0.187531,621616,403637
1433.04,0.189785,622129,401879
1436.27,0.192321,621526,399152
1439.5,0.194319,621113,397056
1442.72,0.196924,620921,394559
1445.94,0.199359,620270,391942
1450.23,0.202666,618860,388085
1453.44,0.205257,617697,385051
1456.64,0.208071,616264,381677
1459.85,0.210450,614413,378452
1463.04,0.213780,612307,374274
1466.24,0.216493,610032,370561
1469.43,0.220094,607345,365882
1473.67,0.226494,603789,358419
1476.85,0.231462,601175,352808
1480.02,0.237164,597737,346215
1483.19,0.243691,594479,339192
1486.36,0.249425,591232,332915
1489.52,0.253538,587853,327892
1492.68,0.256344,583875,323576
1496.89,0.258295,578062,318918
1500.03,0.259459,574159,315917
1503.18,0.259593,570285,313689
1506.32,0.257900,565444,312241
1509.45,0.256978,560571,310208
1512.58,0.255498,555821,308629
1515.71,0.252759,550344,307521
1519.87,0.249850,543983,306010
1522.99,0.247808,538764,304502
1526.1,0.245148,533692,303489
1529.21,0.242405,527902,302098
1532.32,0.239491,521886,300666
1535.42,0.236742,515888,299098
1538.51,0.234567,509987,297161
1541.6,0.230471,503936,296418
1545.72,0.226490,494694,293661
1548.8,0.224168,488378,291466
1551.88,0.221732,481832,289177
1554.95,0.219695,474989,286410
1558.02,0.218574,467818,282815
1561.08,0.216395,460730,279931
1564.15,0.216394,454170,275946
1568.22,0.214939,444181,270783
1571.27,0.214399,436947,266704
1574.32,0.214034,429598,262439
1577.36,0.213242,422039,258292
1580.4,0.211670,414375,254521
1583.43,0.209027,406354,251118
1586.46,0.208727,398475,246419
1590.49,0.206813,388982,241611
1593.51,0.204492,380708,237739
1596.53,0.201776,372727,234215
1599.54,0.201381,365060,229606
1602.55,0.198580,357543,226333
1605.55,0.197241,349495,221922
1608.55,0.195098,341154,217697
1612.54,0.193265,330877,212032
1615.53,0.191048,322904,207982
1618.51,0.190748,315116,203106
1621.49,0.189138,307217,198750
1624.47,0.187380,299481,194531
1627.44,0.188890,292112,189086
1630.41,0.186326,284245,185083
1634.36,0.185028,274079,178998
1637.32,0.184587,266916,174497
1640.27,0.184914,259612,169594
1643.22,0.182582,251804,165379
1646.16,0.182390,244348,160553
1649.1,0.180142,236703,156337
1652.04,0.178459,228171,151287
1655.95,0.177786,215408,143046
1658.88,0.172762,204937,137676
1661.8,0.167404,193395,131535
1664.72,0.159760,179728,124410
1667.63,0.147987,163642,116388
1670.54,0.134401,146312,107369
1673.44,0.115928,128451,98358
1677.31,0.098421,105080,83772
1680.21,0.086132,88906,72912
1683.1,0.079289,75033,62512
1685.99,0.086089,63520,52098
1688.87,0.087119,53714,43951
1691.75,0.091279,45653,36999
1694.62,0.098224,39137,31215
1697.49,0.096778,33776,27029
1701.31,0.108251,28175,21959