File: samples/wool/wool-000811/Column 1_050532_20150331_115107.csv
Method:,Column 1,,
Host Date-Time:,31/3/15 @ 11:51:7,,
Header Version:,1,,
System Temp (C):,30.31,,
Detector Temp (C):,31.69,,
Humidity (%):,4.97,,
Lamp PD:,3831,,
Shift Vector Coefficients:,-10.5391,0.0761263,-0.000134223,,
Pixel to Wavelength Coefficients:,1775.68,-0.916766,-0.000235065,,
Serial Number:,5510004,,
Scan Config Name:,Column 1,,
Scan Config Type:,Slew,,
Section 1,,
Start wavelength (nm):,900,,
End wavelength (nm):,1700,,
Pattern Pixel Width (nm):,   7.03,,,,
Exposure (ms):,  0.635,,,,
Digital Resolution:,228,,
Num Repeats:,6,,
PGA Gain:,64,,
Total Measurement Time in sec:,  2.728,,
Wavelength (nm),Absorbance (AU),Reference Signal (unitless),Sample Signal (unitless)
901.51,0.044387,108485,97945
905.376,0.051340,121306,107781
909.237,0.052452,131909,116902
913.095,0.052183,143299,127075
916.948,0.052698,156982,139044
922.079,0.052425,179937,159476
925.923,0.052859,200504,177527
929.762,0.052475,222660,197318
933.597,0.053750,244426,215972
937.427,0.054237,263972,232981
941.254,0.054052,281845,248862
945.076,0.054389,297271,262279
950.165,0.054557,315605,278347
953.978,0.054106,328029,289605
957.786,0.055550,340470,299591
961.59,0.055292,352317,310200
965.389,0.056232,363056,318964
969.185,0.056221,373162,327851
972.976,0.056906,382632,335641
976.763,0.057522,391202,342672
981.806,0.058196,400190,350002
985.583,0.059482,406088,354110
989.355,0.059661,410162,357515
993.124,0.060257,412868,359380
996.888,0.060496,414263,360396
1000.65,0.061784,415476,360381
1004.4,0.062746,415479,359586
1009.41,0.064186,414358,357429
1013.15,0.063772,412923,356531
1016.89,0.064482,411526,354744
1020.63,0.064899,409066,352285
1024.36,0.064627,406777,350533
1028.09,0.063928,404427,349070
1031.82,0.063715,401911,347068
1036.78,0.062573,398410,344951
1040.49,0.062965,396204,342731
1044.2,0.061549,394236,342143
1047.91,0.061549,392042,340239
1051.61,0.061019,389823,338726
1055.31,0.060452,388234,337786
1059,0.059492,387599,337980
1063.92,0.058373,386688,338055
1067.61,0.057319,386598,338798
1071.29,0.056831,387377,339862
1074.96,0.055751,388536,341728
1078.63,0.055448,389855,343127
1082.3,0.054291,391215,345243
1085.96,0.053634,393215,347533
1090.84,0.053328,396270,350480
1094.49,0.052815,398760,353099
1098.14,0.052020,400987,355722
1101.79,0.051881,403477,358045
1105.43,0.052351,406116,359997
1109.06,0.051270,407701,362303
1112.7,0.051662,409859,363892
1117.53,0.051020,412494,366773
1121.15,0.052570,414909,367606
1124.77,0.053078,416559,368637
1128.38,0.054758,418532,368953
1131.99,0.055975,419956,369172
1135.6,0.058255,421946,368979
1139.2,0.060160,423881,369049
1143.99,0.062806,426786,369321
1147.58,0.064252,428617,369673
1151.17,0.065283,431169,370992
1154.75,0.067645,433579,371042
1158.33,0.068686,436264,372446
1161.91,0.072132,439132,371932
1165.48,0.074870,442389,372335
1169.04,0.077829,446101,372910
1173.79,0.081890,451929,374266
1177.34,0.084762,456026,375170
1180.9,0.087460,461306,377163
1184.44,0.088754,467657,381218
1187.99,0.089880,473969,385363
1191.52,0.089788,479856,390232
1195.06,0.089163,487372,396915
1199.76,0.088196,497347,405942
1203.29,0.086063,504311,413652
1206.81,0.085531,511507,420069
1210.33,0.084037,519078,427756
1213.84,0.082998,527163,435459
1217.35,0.081605,534208,442696
1220.85,0.079887,540472,449662
1225.51,0.079418,549929,458024
1229.01,0.078470,556888,464834
1232.5,0.077693,562180,470091
1235.98,0.077184,567975,475494
1239.46,0.075579,574815,483002
1242.94,0.074207,582782,491246
1246.41,0.073617,591476,499252
1251.03,0.072954,604016,510616
1254.5,0.073217,612289,517296
1257.96,0.074072,619125,522043
1261.41,0.074126,624551,526553
1264.86,0.074733,629900,530321
1268.31,0.075344,634345,533312
1271.75,0.075940,638574,536132
1276.33,0.076340,642499,538930
1279.76,0.076543,645905,541534
1283.19,0.075901,648307,544352
1286.61,0.075734,650446,546358
1290.03,0.075032,652132,548660
1293.44,0.074586,653907,550719
1296.85,0.074481,655963,552584
1301.39,0.074195,657349,554116
1304.8,0.074340,657558,554107
1308.19,0.074817,658515,554305
1311.58,0.074930,658804,554404
1314.97,0.075526,659011,553818
1318.36,0.076004,658272,552588
1321.73,0.076050,658022,552320
1326.23,0.077771,657870,550008
1329.6,0.078775,656482,547580
1332.97,0.080073,654926,544652
1336.33,0.081515,653727,541853
1339.69,0.083478,652497,538394
1343.04,0.085253,649913,534075
1346.39,0.088079,647671,528780
1349.73,0.090187,645338,524325
1354.18,0.094007,641175,516380
1357.52,0.096499,638376,511184
1360.85,0.098866,635805,506358
1364.17,0.101320,633413,501611
1367.49,0.103886,631026,496777
1370.81,0.107062,628050,490831
1374.12,0.109740,625034,485471
1378.54,0.113692,620272,477409
1381.84,0.117609,616892,470544
1385.14,0.122958,613613,462313
1388.43,0.127906,611526,455522
1391.72,0.134050,610663,448489
1395.01,0.140056,610634,442308
1398.29,0.146694,611700,436360
1402.66,0.156348,614051,428407
1405.93,0.163233,616268,423191
1409.2,0.170577,617795,417126
1412.46,0.176667,618872,412035
1415.72,0.182753,619795,406907
1418.98,0.187669,620495,402781
1422.23,0.192584,621087,398629
1426.56,0.197568,621375,394263
1429.8,0.201264,621616,391073
1433.04,0.203693,622129,389213
1436.27,0.206960,621526,385922
1439.5,0.208980,621113,383876
1442.72,0.212262,620921,380868
1445.94,0.214180,620270,378792
1450.23,0.218448,618860,374235
1453.44,0.221187,617697,371183
1456.64,0.224120,616264,367830
1459.85,0.226620,614413,364620
1463.04,0.229104,612307,361298
1466.24,0.231802,610032,357726
1469.43,0.234338,607345,354077
1473.67,0.238982,603789,348260
1476.85,0.244233,601175,342585
1480.02,0.248745,597737,337105
1483.19,0.255106,594479,330393
1486.36,0.259810,591232,325048
1489.52,0.264980,587853,319366
1492.68,0.268507,583875,314639
1496.89,0.270793,578062,309871
1500.03,0.271974,574159,306943
1503.18,0.272268,570285,304666
1506.32,0.271447,565444,302651
1509.45,0.270611,560571,300621
1512.58,0.269796,555821,298634
1515.71,0.267133,550344,297510
1519.87,0.264592,543983,295797
1522.99,0.260992,538764,295397
1526.1,0.258838,533692,294071
1529.21,0.255465,527902,293149
1532.32,0.252292,521886,291933
1535.42,0.248865,515888,290864
1538.51,0.245879,509987,289521
1541.6,0.242796,503936,288124
1545.72,0.238081,494694,285927
1548.8,0.234540,488378,284588
1551.88,0.231937,481832,282461
1554.95,0.229321,474989,280132
1558.02,0.227125,467818,277301
1561.08,0.226035,460730,273786
1564.15,0.225385,454170,270292
1568.22,0.223376,444181,265573
1571.27,0.223717,436947,261043
1574.32,0.221427,429598,258009
1577.36,0.220630,422039,253935
1580.4,0.218815,414375,250368
1583.43,0.216375,406354,246905
1586.46,0.214054,398475,243415
1590.49,0.211426,388982,239058
1593.51,0.209471,380708,235029
1596.53,0.206954,372727,231439
1599.54,0.204946,365060,227729
1602.55,0.202863,357543,224112
1605.55,0.200519,349495,220253
1608.55,0.197763,341154,216365
1612.54,0.194494,330877,211433
1615.53,0.192399,322904,207336
1618.51,0.191512,315116,202749
1621.49,0.188594,307217,198999
1624.47,0.187722,299481,194378
1627.44,0.185723,292112,190470
1630.41,0.184533,284245,185849
1634.36,0.182172,274079,180179
1637.32,0.182570,266916,175309
1640.27,0.182180,259612,170665
1643.22,0.179575,251804,166528
1646.16,0.178628,244348,161950
1649.1,0.178849,236703,156803
1652.04,0.177109,228171,151758
1655.95,0.176401,215408,143503
1658.88,0.175569,204937,136789
1661.8,0.173140,193395,129809
1664.72,0.170447,179728,121386
1667.63,0.167056,163642,111388
1670.54,0.161621,146312,100846
1673.44,0.159728,128451,88922
1677.31,0.153994,105080,73710
1680.21,0.156588,88906,61993
1683.1,0.157549,75033,52204
1685.99,0.165141,63520,43428
1688.87,0.172111,53714,36139
1691.75,0.171172,45653,30782
1694.62,0.177581,39137,26002
1697.49,0.182960,33776,22164
1701.31,0.181192,28175,18564