File: samples/wool/wool-000811/Column 1_050533_20150331_115144.csv
Method:,Column 1,,
Host Date-Time:,31/3/15 @ 11:51:44,,
Header Version:,1,,
System Temp (C):,30.7,,
Detector Temp (C):,30.75,,
Humidity (%):,4.58,,
Lamp PD:,3829,,
Shift Vector Coefficients:,-10.5391,0.0761263,-0.000134223,,
Pixel to Wavelength Coefficients:,1775.68,-0.916766,-0.000235065,,
Serial Number:,5510004,,
Scan Config Name:,Column 1,,
Scan Config Type:,Slew,,
Section 1,,
Start wavelength (nm):,900,,
End wavelength (nm):,1700,,
Pattern Pixel Width (nm):,   7.03,,,,
Exposure (ms):,  0.635,,,,
Digital Resolution:,228,,
Num Repeats:,6,,
PGA Gain:,64,,
Total Measurement Time in sec:,  2.677,,
Wavelength (nm),Absorbance (AU),Reference Signal (unitless),Sample Signal (unitless)
901.51,0.042657,108485,98336
905.376,0.049017,121306,108359
909.237,0.051002,131909,117293
913.095,0.050188,143299,127660
916.948,0.050510,156982,139746
922.079,0.050428,179937,160211
925.923,0.051094,200504,178250
929.762,0.050591,222660,198176
933.597,0.052930,244426,216380
937.427,0.052312,263972,234016
941.254,0.053631,281845,249103
945.076,0.053316,297271,262928
950.165,0.053424,315605,279074
953.978,0.053004,328029,290341
957.786,0.053348,340470,301114
961.59,0.054406,352317,310833
965.389,0.054520,363056,320224
969.185,0.055180,373162,328638
972.976,0.055576,382632,336671
976.763,0.056334,391202,343611
981.806,0.056046,400190,351739
985.583,0.057411,406088,355803
989.355,0.058113,410162,358792
993.124,0.058521,412868,360820
996.888,0.058990,414263,361648
1000.65,0.060430,415476,361506
1004.4,0.061320,415479,360769
1009.41,0.062463,414358,358850
1013.15,0.062681,412923,357428
1016.89,0.063600,411526,355465
1020.63,0.063531,409066,353397
1024.36,0.062980,406777,351865
1028.09,0.062438,404427,350269
1031.82,0.062062,401911,348392
1036.78,0.061758,398410,345599
1040.49,0.061761,396204,343683
1044.2,0.060979,394236,342592
1047.91,0.060433,392042,341114
1051.61,0.059604,389823,339831
1055.31,0.058864,388234,339023
1059,0.057929,387599,339198
1063.92,0.056874,386688,339224
1067.61,0.056073,386598,339771
1071.29,0.055292,387377,341069
1074.96,0.054537,388536,342684
1078.63,0.054562,389855,343828
1082.3,0.053639,391215,345761
1085.96,0.052557,393215,348396
1090.84,0.052149,396270,351433
1094.49,0.051608,398760,354082
1098.14,0.051439,400987,356198
1101.79,0.050116,403477,359503
1105.43,0.050581,406116,361467
1109.06,0.049624,407701,363679
1112.7,0.050113,409859,365192
1117.53,0.049993,412494,367642
1121.15,0.051177,414909,368787
1124.77,0.051746,416559,369769
1128.38,0.053349,418532,370152
1131.99,0.055296,419956,369750
1135.6,0.057137,421946,369930
1139.2,0.059277,423881,369800
1143.99,0.062074,426786,369944
1147.58,0.062854,428617,370865
1151.17,0.064564,431169,371607
1154.75,0.066318,433579,372178
1158.33,0.068164,436264,372894
1161.91,0.070422,439132,373399
1165.48,0.073650,442389,373383
1169.04,0.076745,446101,373842
1173.79,0.080483,451929,375480
1177.34,0.083836,456026,375970
1180.9,0.086107,461306,378340
1184.44,0.088068,467657,381821
1187.99,0.089041,473969,386108
1191.52,0.088063,479856,391785
1195.06,0.087548,487372,398394
1199.76,0.086095,497347,407910
1203.29,0.084682,504311,414970
1206.81,0.083812,511507,421735
1210.33,0.082526,519078,429246
1213.84,0.081513,527163,436950
1217.35,0.080134,534208,444198
1220.85,0.078855,540472,450732
1225.51,0.077891,549929,459638
1229.01,0.077259,556888,466132
1232.5,0.076180,562180,471732
1235.98,0.075510,567975,477330
1239.46,0.074259,574815,484473
1242.94,0.073385,582782,492177
1246.41,0.072495,591476,500544
1251.03,0.071687,604016,512108
1254.5,0.071989,612289,518761
1257.96,0.072075,619125,524449
1261.41,0.072774,624551,528195
1264.86,0.073353,629900,532009
1268.31,0.073975,634345,534996
1271.75,0.075087,638574,537186
1276.33,0.075170,642499,540384
1279.76,0.075160,645905,543261
1283.19,0.074680,648307,545885
1286.61,0.074149,650446,548356
1290.03,0.073813,652132,550202
1293.44,0.073049,653907,552671
1296.85,0.073115,655963,554325
1301.39,0.073094,657349,555523
1304.8,0.072954,657558,555879
1308.19,0.073284,658515,556265
1311.58,0.073867,658804,555762
1314.97,0.074105,659011,555633
1318.36,0.075139,658272,553690
1321.73,0.074903,658022,553780
1326.23,0.076472,657870,551656
1329.6,0.077239,656482,549520
1332.97,0.078689,654926,546390
1336.33,0.080246,653727,543439
1339.69,0.082045,652497,540174
1343.04,0.083988,649913,535633
1346.39,0.086636,647671,530540
1349.73,0.089067,645338,525678
1354.18,0.092605,641175,518050
1357.52,0.095074,638376,512864
1360.85,0.097533,635805,507915
1364.17,0.100184,633413,502925
1367.49,0.102903,631026,497902
1370.81,0.105457,628050,492649
1374.12,0.108537,625034,486818
1378.54,0.112456,620272,478769
1381.84,0.116074,616892,472210
1385.14,0.121008,613613,464394
1388.43,0.126616,611526,456877
1391.72,0.132823,610663,449758
1395.01,0.138708,610634,443683
1398.29,0.145168,611700,437896
1402.66,0.154404,614051,430329
1405.93,0.161682,616268,424705
1409.2,0.168643,617795,418988
1412.46,0.175340,618872,413296
1415.72,0.180193,619795,409313
1418.98,0.185781,620495,404536
1422.23,0.190441,621087,400600
1426.56,0.194920,621375,396674
1429.8,0.198048,621616,393980
1433.04,0.201220,622129,391436
1436.27,0.204342,621526,388255
1439.5,0.206327,621113,386228
1442.72,0.209212,620921,383552
1445.94,0.212015,620270,380685
1450.23,0.215099,618860,377132
1453.44,0.218493,617697,373493
1456.64,0.221135,616264,370367
1459.85,0.223968,614413,366853
1463.04,0.226361,612307,363587
1466.24,0.229762,610032,359410
1469.43,0.232558,607345,355531
1473.67,0.237485,603789,349462
1476.85,0.241712,601175,344579
1480.02,0.246790,597737,338626
1483.19,0.252460,594479,332412
1486.36,0.258210,591232,326248
1489.52,0.263284,587853,320616
1492.68,0.266759,583875,315908
1496.89,0.269449,578062,310832
1500.03,0.269997,574159,308344
1503.18,0.270092,570285,306196
1506.32,0.269272,565444,304171
1509.45,0.268694,560571,301951
1512.58,0.267859,555821,299969
1515.71,0.265124,550344,298889
1519.87,0.262274,543983,297380
1522.99,0.259685,538764,296288
1526.1,0.257130,533692,295230
1529.21,0.253551,527902,294444
1532.32,0.250077,521886,293426
1535.42,0.247272,515888,291933
1538.51,0.244001,509987,290776
1541.6,0.240827,503936,289433
1545.72,0.235644,494694,287536
1548.8,0.232960,488378,285625
1551.88,0.230136,481832,283635
1554.95,0.227310,474989,281432
1558.02,0.225199,467818,278534
1561.08,0.224051,460730,275040
1564.15,0.222913,454170,271835
1568.22,0.221649,444181,266631
1571.27,0.221334,436947,262479
1574.32,0.219890,429598,258924
1577.36,0.217588,422039,255720
1580.4,0.216281,414375,251833
1583.43,0.214507,406354,247969
1586.46,0.212485,398475,244296
1590.49,0.210006,388982,239841
1593.51,0.207612,380708,236037
1596.53,0.204678,372727,232655
1599.54,0.202821,365060,228846
1602.55,0.199941,357543,225625
1605.55,0.198385,349495,221338
1608.55,0.196547,341154,216972
1612.54,0.193419,330877,211957
1615.53,0.190211,322904,208383
1618.51,0.189558,315116,203663
1621.49,0.188950,307217,198836
1624.47,0.187104,299481,194655
1627.44,0.185556,292112,190543
1630.41,0.184241,284245,185974
1634.36,0.182251,274079,180146
1637.32,0.181099,266916,175904
1640.27,0.179909,259612,171560
1643.22,0.179124,251804,166701
1646.16,0.178397,244348,162036
1649.1,0.177931,236703,157135
1652.04,0.175914,228171,152176
1655.95,0.175222,215408,143893
1658.88,0.174545,204937,137112
1661.8,0.174065,193395,129533
1664.72,0.170583,179728,121348
1667.63,0.167080,163642,111382
1670.54,0.165828,146312,99874
1673.44,0.161902,128451,88478
1677.31,0.158733,105080,72910
1680.21,0.155784,88906,62108
1683.1,0.163496,75033,51494
1685.99,0.169907,63520,42954
1688.87,0.174703,53714,35924
1691.75,0.171497,45653,30759
1694.62,0.180228,39137,25844
1697.49,0.197606,33776,21429
1701.31,0.181824,28175,18537