File: samples/wool/wool-000811/Column 1_050575_20150331_121154.csv
Method:,Column 1,,
Host Date-Time:,31/3/15 @ 12:11:54,,
Header Version:,1,,
System Temp (C):,33.77,,
Detector Temp (C):,34.48,,
Humidity (%):,2.05,,
Lamp PD:,3818,,
Shift Vector Coefficients:,-10.5391,0.0761263,-0.000134223,,
Pixel to Wavelength Coefficients:,1775.68,-0.916766,-0.000235065,,
Serial Number:,5510004,,
Scan Config Name:,Column 1,,
Scan Config Type:,Slew,,
Section 1,,
Start wavelength (nm):,900,,
End wavelength (nm):,1700,,
Pattern Pixel Width (nm):,   7.03,,,,
Exposure (ms):,  0.635,,,,
Digital Resolution:,228,,
Num Repeats:,6,,
PGA Gain:,64,,
Total Measurement Time in sec:,  2.667,,
Wavelength (nm),Absorbance (AU),Reference Signal (unitless),Sample Signal (unitless)
901.51,0.079004,108485,90441
905.376,0.083392,121306,100113
909.237,0.087756,131909,107775
913.095,0.086342,143299,117463
916.948,0.086383,156982,128667
922.079,0.089680,179937,146366
925.923,0.089637,200504,163112
929.762,0.089669,222660,181123
933.597,0.089705,244426,198812
937.427,0.089206,263972,214957
941.254,0.088623,281845,229820
945.076,0.087664,297271,242934
950.165,0.086396,315605,258671
953.978,0.086976,328029,268495
957.786,0.086973,340470,278680
961.59,0.087959,352317,287723
965.389,0.087539,363056,296780
969.185,0.087084,373162,305361
972.976,0.087796,382632,312597
976.763,0.088465,391202,319107
981.806,0.088426,400190,326468
985.583,0.089952,406088,330117
989.355,0.089519,410162,333762
993.124,0.090550,412868,335167
996.888,0.091682,414263,335424
1000.65,0.092185,415476,336017
1004.4,0.093025,415479,335370
1009.41,0.094518,414358,333317
1013.15,0.094496,412923,332180
1016.89,0.094703,411526,330898
1020.63,0.095298,409066,328470
1024.36,0.095421,406777,326539
1028.09,0.094958,404427,324999
1031.82,0.094710,401911,323162
1036.78,0.093912,398410,320936
1040.49,0.093729,396204,319293
1044.2,0.093254,394236,318055
1047.91,0.094125,392042,315651
1051.61,0.093105,389823,314603
1055.31,0.092738,388234,313585
1059,0.091835,387599,313724
1063.92,0.091567,386688,313180
1067.61,0.090661,386598,313761
1071.29,0.090589,387377,314445
1074.96,0.090066,388536,315766
1078.63,0.089002,389855,317615
1082.3,0.087795,391215,319610
1085.96,0.087560,393215,321418
1090.84,0.086303,396270,324854
1094.49,0.085360,398760,327606
1098.14,0.085216,400987,329545
1101.79,0.084420,403477,332199
1105.43,0.083915,406116,334761
1109.06,0.083793,407701,336162
1112.7,0.083466,409859,338196
1117.53,0.082780,412494,340908
1121.15,0.083249,414909,342534
1124.77,0.083326,416559,343835
1128.38,0.084217,418532,344756
1131.99,0.085477,419956,344927
1135.6,0.086887,421946,345438
1139.2,0.088375,423881,345835
1143.99,0.090383,426786,346599
1147.58,0.090697,428617,347834
1151.17,0.091691,431169,349105
1154.75,0.093056,433579,349955
1158.33,0.094452,436264,350992
1161.91,0.095934,439132,352096
1165.48,0.097848,442389,353148
1169.04,0.100229,446101,354164
1173.79,0.103397,451929,356183
1177.34,0.104954,456026,358126
1180.9,0.106453,461306,361024
1184.44,0.108825,467657,364001
1187.99,0.109143,473969,368644
1191.52,0.109601,479856,372829
1195.06,0.109180,487372,379036
1199.76,0.108228,497347,387643
1203.29,0.107615,504311,393626
1206.81,0.106971,511507,399835
1210.33,0.106668,519078,406036
1213.84,0.106302,527163,412708
1217.35,0.105171,534208,419314
1220.85,0.104548,540472,424840
1225.51,0.103812,549929,433007
1229.01,0.103508,556888,438793
1232.5,0.102716,562180,443771
1235.98,0.102698,567975,448364
1239.46,0.101662,574815,454848
1242.94,0.100437,582782,462455
1246.41,0.100116,591476,469701
1251.03,0.099973,604016,479817
1254.5,0.099850,612289,486526
1257.96,0.100453,619125,491276
1261.41,0.100789,624551,495198
1264.86,0.100990,629900,499208
1268.31,0.101181,634345,502510
1271.75,0.102346,638574,504505
1276.33,0.103086,642499,506741
1279.76,0.102560,645905,510045
1283.19,0.102546,648307,511959
1286.61,0.101596,650446,514772
1290.03,0.101348,652132,516401
1293.44,0.101035,653907,518180
1296.85,0.101138,655963,519686
1301.39,0.101105,657349,520824
1304.8,0.100606,657558,521588
1308.19,0.101329,658515,521479
1311.58,0.101651,658804,521321
1314.97,0.101910,659011,521174
1318.36,0.102239,658272,520195
1321.73,0.102868,658022,519245
1326.23,0.103932,657870,517855
1329.6,0.104657,656482,515900
1332.97,0.105571,654926,513596
1336.33,0.106859,653727,511137
1339.69,0.108896,652497,507788
1343.04,0.110175,649913,504290
1346.39,0.112435,647671,499942
1349.73,0.113983,645338,496368
1354.18,0.117249,641175,489472
1357.52,0.118663,638376,485751
1360.85,0.121108,635805,481079
1364.17,0.123162,633413,477007
1367.49,0.125457,631026,472705
1370.81,0.127270,628050,468516
1374.12,0.129590,625034,463782
1378.54,0.132401,620272,457279
1381.84,0.135278,616892,451784
1385.14,0.139245,613613,445297
1388.43,0.144371,611526,438575
1391.72,0.149561,610663,432754
1395.01,0.154605,610634,427736
1398.29,0.160126,611700,423070
1402.66,0.168443,614051,416640
1405.93,0.174563,616268,412294
1409.2,0.180554,617795,407653
1412.46,0.185826,618872,403436
1415.72,0.190999,619795,399254
1418.98,0.195736,620495,395369
1422.23,0.200217,621087,391684
1426.56,0.204955,621375,387613
1429.8,0.207625,621616,385387
1433.04,0.211128,622129,382607
1436.27,0.213488,621526,380164
1439.5,0.216088,621113,377644
1442.72,0.218160,620921,375730
1445.94,0.220783,620270,373076
1450.23,0.223513,618860,369896
1453.44,0.226616,617697,366572
1456.64,0.229529,616264,363277
1459.85,0.231736,614413,360350
1463.04,0.234080,612307,357182
1466.24,0.237382,610032,353159
1469.43,0.240402,607345,349167
1473.67,0.244923,603789,343528
1476.85,0.249243,601175,338655
1480.02,0.253000,597737,333818
1483.19,0.258948,594479,327483
1486.36,0.263483,591232,322311
1489.52,0.266869,587853,317980
1492.68,0.269693,583875,313781
1496.89,0.271294,578062,309514
1500.03,0.271758,574159,307096
1503.18,0.271536,570285,305180
1506.32,0.270325,565444,303434
1509.45,0.269014,560571,301729
1512.58,0.267916,555821,299929
1515.71,0.265470,550344,298651
1519.87,0.263022,543983,296868
1522.99,0.260069,538764,296026
1526.1,0.257550,533692,294945
1529.21,0.255416,527902,293182
1532.32,0.252456,521886,291823
1535.42,0.250489,515888,289779
1538.51,0.249370,509987,287203
1541.6,0.244248,503936,287162
1545.72,0.239661,494694,284889
1548.8,0.236798,488378,283112
1551.88,0.235437,481832,280194
1554.95,0.232898,474989,277834
1558.02,0.231081,467818,274787
1561.08,0.229808,460730,271418
1564.15,0.229234,454170,267907
1568.22,0.227614,444181,262994
1571.27,0.226519,436947,259364
1574.32,0.226187,429598,255197
1577.36,0.224723,422039,251553
1580.4,0.223345,414375,247770
1583.43,0.221232,406354,244159
1586.46,0.220052,398475,240076
1590.49,0.217264,388982,235866
1593.51,0.215726,380708,231668
1596.53,0.213056,372727,228210
1599.54,0.211177,365060,224485
1602.55,0.209437,357543,220745
1605.55,0.207710,349495,216636
1608.55,0.205075,341154,212753
1612.54,0.203315,330877,207182
1615.53,0.201584,322904,202997
1618.51,0.200896,315116,198415
1621.49,0.198787,307217,194383
1624.47,0.196584,299481,190452
1627.44,0.196270,292112,185900
1630.41,0.195068,284245,181395
1634.36,0.193532,274079,175527
1637.32,0.190735,266916,172044
1640.27,0.192189,259612,166777
1643.22,0.189974,251804,162588
1646.16,0.190249,244348,157674
1649.1,0.188376,236703,153401
1652.04,0.187029,228171,148331
1655.95,0.183975,215408,141022
1658.88,0.178877,204937,135751
1661.8,0.174665,193395,129354
1664.72,0.167374,179728,122248
1667.63,0.153904,163642,114813
1670.54,0.138032,146312,106475
1673.44,0.122405,128451,96902
1677.31,0.103490,105080,82800
1680.21,0.091870,88906,71955
1683.1,0.086836,75033,61435
1685.99,0.084201,63520,52325
1688.87,0.089656,53714,43695
1691.75,0.090787,45653,37041
1694.62,0.094305,39137,31498
1697.49,0.100052,33776,26826
1701.31,0.102983,28175,22227