File: samples/wool/wool-000811/Column 1_050628_20150331_123708.csv
Method:,Column 1,,
Host Date-Time:,31/3/15 @ 12:37:8,,
Header Version:,1,,
System Temp (C):,34.14,,
Detector Temp (C):,35.05,,
Humidity (%):,1.56,,
Lamp PD:,3818,,
Shift Vector Coefficients:,-10.5391,0.0761263,-0.000134223,,
Pixel to Wavelength Coefficients:,1775.68,-0.916766,-0.000235065,,
Serial Number:,5510004,,
Scan Config Name:,Column 1,,
Scan Config Type:,Slew,,
Section 1,,
Start wavelength (nm):,900,,
End wavelength (nm):,1700,,
Pattern Pixel Width (nm):,   7.03,,,,
Exposure (ms):,  0.635,,,,
Digital Resolution:,228,,
Num Repeats:,6,,
PGA Gain:,64,,
Total Measurement Time in sec:,  2.664,,
Wavelength (nm),Absorbance (AU),Reference Signal (unitless),Sample Signal (unitless)
901.51,0.069608,108485,92419
905.376,0.075602,121306,101925
909.237,0.077888,131909,110252
913.095,0.077659,143299,119835
916.948,0.079770,156982,130641
922.079,0.081096,179937,149288
925.923,0.081560,200504,166174
929.762,0.081973,222660,184361
933.597,0.082618,244426,202083
937.427,0.081483,263972,218814
941.254,0.080611,281845,234099
945.076,0.078265,297271,248249
950.165,0.077744,315605,263876
953.978,0.076940,328029,274772
957.786,0.077082,340470,285100
961.59,0.077334,352317,294849
965.389,0.077070,363056,304021
969.185,0.077245,373162,312358
972.976,0.077627,382632,320003
976.763,0.078108,391202,326808
981.806,0.079126,400190,333534
985.583,0.079078,406088,338487
989.355,0.079581,410162,341487
993.124,0.080127,412868,343308
996.888,0.080204,414263,344407
1000.65,0.081314,415476,344534
1004.4,0.082541,415479,343564
1009.41,0.083998,414358,341490
1013.15,0.084501,412923,339913
1016.89,0.084486,411526,338775
1020.63,0.084120,409066,337034
1024.36,0.084328,406777,334987
1028.09,0.083876,404427,333399
1031.82,0.084114,401911,331143
1036.78,0.083486,398410,328734
1040.49,0.083508,396204,326897
1044.2,0.083647,394236,325169
1047.91,0.082982,392042,323855
1051.61,0.082815,389823,322146
1055.31,0.081826,388234,321564
1059,0.082727,387599,320373
1063.92,0.081576,386688,320468
1067.61,0.080262,386598,321364
1071.29,0.079818,387377,322341
1074.96,0.079541,388536,323512
1078.63,0.078818,389855,325151
1082.3,0.078657,391215,326406
1085.96,0.077829,393215,328701
1090.84,0.076541,396270,332239
1094.49,0.075349,398760,335245
1098.14,0.075384,400987,337090
1101.79,0.074643,403477,339763
1105.43,0.073813,406116,342639
1109.06,0.074062,407701,343779
1112.7,0.073174,409859,346306
1117.53,0.073104,412494,348589
1121.15,0.073742,414909,350115
1124.77,0.074022,416559,351281
1128.38,0.074831,418532,352288
1131.99,0.075608,419956,352855
1135.6,0.077737,421946,352793
1139.2,0.077547,423881,354566
1143.99,0.080099,426786,354904
1147.58,0.081127,428617,355584
1151.17,0.082305,431169,356732
1154.75,0.082006,433579,358973
1158.33,0.084229,436264,359352
1161.91,0.085646,439132,360536
1165.48,0.087992,442389,361254
1169.04,0.090179,446101,362455
1173.79,0.093625,451929,364288
1177.34,0.095561,456026,365956
1180.9,0.097741,461306,368339
1184.44,0.099215,467657,372145
1187.99,0.100672,473969,375905
1191.52,0.100521,479856,380706
1195.06,0.100432,487372,386748
1199.76,0.099904,497347,395144
1203.29,0.099243,504311,401287
1206.81,0.098876,511507,407357
1210.33,0.098016,519078,414206
1213.84,0.097310,527163,421342
1217.35,0.096437,534208,427832
1220.85,0.095929,540472,433355
1225.51,0.095235,549929,441643
1229.01,0.094912,556888,447565
1232.5,0.094487,562180,452260
1235.98,0.093917,567975,457522
1239.46,0.092310,574815,464749
1242.94,0.091366,582782,472215
1246.41,0.091170,591476,479476
1251.03,0.090482,604016,490418
1254.5,0.091336,612289,496159
1257.96,0.091539,619125,501463
1261.41,0.092085,624551,505223
1264.86,0.092736,629900,508786
1268.31,0.092983,634345,512086
1271.75,0.093880,638574,514436
1276.33,0.094343,642499,517046
1279.76,0.093634,645905,520637
1283.19,0.093321,648307,522950
1286.61,0.093168,650446,524860
1290.03,0.093055,652132,526357
1293.44,0.091961,653907,529121
1296.85,0.091838,655963,530935
1301.39,0.091701,657349,532225
1304.8,0.091621,657558,532492
1308.19,0.091316,658515,533642
1311.58,0.091888,658804,533173
1314.97,0.091971,659011,533239
1318.36,0.092326,658272,532206
1321.73,0.092408,658022,531903
1326.23,0.093442,657870,530516
1329.6,0.094068,656482,528634
1332.97,0.094971,654926,526285
1336.33,0.095569,653727,524599
1339.69,0.097467,652497,521329
1343.04,0.098983,649913,517454
1346.39,0.100998,647671,513283
1349.73,0.102212,645338,510006
1354.18,0.105384,641175,503028
1357.52,0.107256,638376,498678
1360.85,0.109009,635805,494669
1364.17,0.110768,633413,490816
1367.49,0.113400,631026,486012
1370.81,0.115688,628050,481179
1374.12,0.117585,625034,476781
1378.54,0.120321,620272,470177
1381.84,0.123197,616892,464528
1385.14,0.126218,613613,458856
1388.43,0.129039,611526,454335
1391.72,0.133748,610663,448801
1395.01,0.136827,610634,445609
1398.29,0.141141,611700,441975
1402.66,0.147276,614051,437450
1405.93,0.151642,616268,434638
1409.2,0.156167,617795,431199
1412.46,0.160509,618872,427653
1415.72,0.164215,619795,424652
1418.98,0.167532,620495,421897
1422.23,0.170544,621087,419381
1426.56,0.174625,621375,415651
1429.8,0.176961,621616,413582
1433.04,0.179304,622129,411696
1436.27,0.181340,621526,409373
1439.5,0.183814,621113,406777
1442.72,0.185859,620921,404741
1445.94,0.188278,620270,402071
1450.23,0.192378,618860,397388
1453.44,0.194617,617697,394601
1456.64,0.197690,616264,390910
1459.85,0.200386,614413,387324
1463.04,0.203789,612307,382984
1466.24,0.207139,610032,378629
1469.43,0.210642,607345,373933
1473.67,0.217753,603789,365706
1476.85,0.223775,601175,359109
1480.02,0.229737,597737,352187
1483.19,0.236316,594479,345001
1486.36,0.242727,591232,338089
1489.52,0.247464,587853,332510
1492.68,0.251213,583875,327421
1496.89,0.253001,578062,322830
1500.03,0.254197,574159,319768
1503.18,0.253441,570285,318164
1506.32,0.253192,565444,315644
1509.45,0.251766,560571,313953
1512.58,0.249829,555821,312684
1515.71,0.247360,550344,311368
1519.87,0.244543,543983,309772
1522.99,0.241772,538764,308764
1526.1,0.239378,533692,307548
1529.21,0.236748,527902,306059
1532.32,0.233551,521886,304807
1535.42,0.230709,515888,303282
1538.51,0.227833,509987,301805
1541.6,0.225069,503936,300128
1545.72,0.220952,494694,297430
1548.8,0.218293,488378,295436
1551.88,0.215826,481832,293136
1554.95,0.214164,474989,290081
1558.02,0.212746,467818,286636
1561.08,0.211324,460730,283219
1564.15,0.210231,454170,279890
1568.22,0.209732,444181,274049
1571.27,0.209680,436947,269618
1574.32,0.207815,429598,266224
1577.36,0.207083,422039,261981
1580.4,0.205880,414375,257937
1583.43,0.204733,406354,253613
1586.46,0.202840,398475,249782
1590.49,0.201216,388982,244745
1593.51,0.199385,380708,240551
1596.53,0.196901,372727,236859
1599.54,0.195768,365060,232593
1602.55,0.194001,357543,228732
1605.55,0.191633,349495,224806
1608.55,0.188727,341154,220914
1612.54,0.187915,330877,214660
1615.53,0.186344,322904,210247
1618.51,0.185338,315116,205652
1621.49,0.183194,307217,201489
1624.47,0.182399,299481,196775
1627.44,0.181970,292112,192123
1630.41,0.181710,284245,187061
1634.36,0.179732,274079,181194
1637.32,0.179500,266916,176553
1640.27,0.178539,259612,172102
1643.22,0.178094,251804,167097
1646.16,0.176557,244348,162724
1649.1,0.176898,236703,157509
1652.04,0.173416,228171,153054
1655.95,0.173012,215408,144627
1658.88,0.167856,204937,139240
1661.8,0.161827,193395,133235
1664.72,0.153350,179728,126260
1667.63,0.141814,163642,118054
1670.54,0.125854,146312,109503
1673.44,0.110967,128451,99488
1677.31,0.090479,105080,85318
1680.21,0.078720,88906,74167
1683.1,0.074068,75033,63268
1685.99,0.072039,63520,53811
1688.87,0.076219,53714,45068
1691.75,0.082610,45653,37745
1694.62,0.090393,39137,31783
1697.49,0.085940,33776,27712
1701.31,0.095410,28175,22618