File: samples/wool/wool-000811/Column 1_050577_20150331_121234.csv
Method:,Column 1,,
Host Date-Time:,31/3/15 @ 12:12:34,,
Header Version:,1,,
System Temp (C):,33.83,,
Detector Temp (C):,34.62,,
Humidity (%):,2.39,,
Lamp PD:,3819,,
Shift Vector Coefficients:,-10.5391,0.0761263,-0.000134223,,
Pixel to Wavelength Coefficients:,1775.68,-0.916766,-0.000235065,,
Serial Number:,5510004,,
Scan Config Name:,Column 1,,
Scan Config Type:,Slew,,
Section 1,,
Start wavelength (nm):,900,,
End wavelength (nm):,1700,,
Pattern Pixel Width (nm):,   7.03,,,,
Exposure (ms):,  0.635,,,,
Digital Resolution:,228,,
Num Repeats:,6,,
PGA Gain:,64,,
Total Measurement Time in sec:,  2.672,,
Wavelength (nm),Absorbance (AU),Reference Signal (unitless),Sample Signal (unitless)
901.51,0.070931,108485,92138
905.376,0.077999,121306,101364
909.237,0.078302,131909,110147
913.095,0.080813,143299,118968
916.948,0.080779,156982,130338
922.079,0.082862,179937,148682
925.923,0.083774,200504,165329
929.762,0.084575,222660,183260
933.597,0.085222,244426,200875
937.427,0.084073,263972,217513
941.254,0.082968,281845,232832
945.076,0.082007,297271,246119
950.165,0.081592,315605,261548
953.978,0.080712,328029,272396
957.786,0.080941,340470,282578
961.59,0.081414,352317,292092
965.389,0.081609,363056,300860
969.185,0.081224,373162,309509
972.976,0.081976,382632,316815
976.763,0.082297,391202,323671
981.806,0.083160,400190,330450
985.583,0.083517,406088,335045
989.355,0.084154,410162,337910
993.124,0.084340,412868,339994
996.888,0.084757,414263,340815
1000.65,0.085243,415476,341431
1004.4,0.086868,415479,340158
1009.41,0.087717,414358,338578
1013.15,0.087979,412923,337202
1016.89,0.088557,411526,335614
1020.63,0.088423,409066,333711
1024.36,0.088764,406777,331583
1028.09,0.088666,404427,329742
1031.82,0.087765,401911,328371
1036.78,0.088827,398410,324716
1040.49,0.087684,396204,323769
1044.2,0.087832,394236,322051
1047.91,0.087384,392042,320589
1051.61,0.086892,389823,319136
1055.31,0.087048,388234,317721
1059,0.086633,387599,317504
1063.92,0.085781,386688,317380
1067.61,0.084983,386598,317890
1071.29,0.084283,387377,319044
1074.96,0.084413,388536,319903
1078.63,0.082938,389855,322081
1082.3,0.081762,391215,324081
1085.96,0.081827,393215,325689
1090.84,0.080706,396270,329068
1094.49,0.080983,398760,330924
1098.14,0.080106,400987,333445
1101.79,0.079412,403477,336052
1105.43,0.079004,406116,338568
1109.06,0.078253,407701,340478
1112.7,0.078697,409859,341930
1117.53,0.078325,412494,344423
1121.15,0.078758,414909,346095
1124.77,0.078705,416559,347513
1128.38,0.079660,418532,348392
1131.99,0.080468,419956,348928
1135.6,0.082215,421946,349174
1139.2,0.083651,423881,349617
1143.99,0.085769,426786,350301
1147.58,0.086353,428617,351331
1151.17,0.087488,431169,352500
1154.75,0.088652,433579,353522
1158.33,0.090388,436264,354292
1161.91,0.092330,439132,355030
1165.48,0.093935,442389,356344
1169.04,0.096154,446101,357503
1173.79,0.099887,451929,359073
1177.34,0.101705,456026,360815
1180.9,0.103730,461306,363295
1184.44,0.105894,467657,366466
1187.99,0.106545,473969,370856
1191.52,0.106643,479856,375377
1195.06,0.105655,487372,382125
1199.76,0.105652,497347,389949
1203.29,0.105325,504311,395707
1206.81,0.104629,511507,401997
1210.33,0.103763,519078,408761
1213.84,0.103198,527163,415668
1217.35,0.102468,534208,421932
1220.85,0.101915,540472,427423
1225.51,0.101185,549929,435634
1229.01,0.100966,556888,441369
1232.5,0.100367,562180,446178
1235.98,0.099971,567975,451189
1239.46,0.098537,574815,458132
1242.94,0.097336,582782,465769
1246.41,0.097262,591476,472797
1251.03,0.097209,604016,482880
1254.5,0.097182,612289,489524
1257.96,0.097785,619125,494303
1261.41,0.098047,624551,498334
1264.86,0.098648,629900,501907
1268.31,0.099162,634345,504851
1271.75,0.099616,638574,507686
1276.33,0.099779,642499,510615
1279.76,0.100072,645905,512976
1283.19,0.099398,648307,515683
1286.61,0.099033,650446,517819
1290.03,0.098872,652132,519354
1293.44,0.098325,653907,521424
1296.85,0.098692,655963,522622
1301.39,0.098133,657349,524400
1304.8,0.098336,657558,524322
1308.19,0.098397,658515,525011
1311.58,0.099934,658804,523386
1314.97,0.099093,659011,524565
1318.36,0.099548,658272,523428
1321.73,0.100194,658022,522452
1326.23,0.101102,657870,521240
1329.6,0.102112,656482,518933
1332.97,0.102859,654926,516813
1336.33,0.104010,653727,514501
1339.69,0.105739,652497,511493
1343.04,0.107680,649913,507195
1346.39,0.109592,647671,503225
1349.73,0.111735,645338,498945
1354.18,0.114511,641175,492567
1357.52,0.116318,638376,488381
1360.85,0.118764,635805,483682
1364.17,0.120652,633413,479772
1367.49,0.123062,631026,475319
1370.81,0.125069,628050,470896
1374.12,0.127373,625034,466155
1378.54,0.130374,620272,459418
1381.84,0.134215,616892,452891
1385.14,0.138289,613613,446278
1388.43,0.142594,611526,440373
1391.72,0.147300,610663,435012
1395.01,0.152664,610634,429652
1398.29,0.158226,611700,424925
1402.66,0.166243,614051,418756
1405.93,0.171844,616268,414883
1409.2,0.178487,617795,409598
1412.46,0.183487,618872,405615
1415.72,0.188459,619795,401596
1418.98,0.192559,620495,398272
1422.23,0.196675,621087,394891
1426.56,0.200793,621375,391346
1429.8,0.203908,621616,388700
1433.04,0.206376,622129,386816
1436.27,0.209264,621526,383880
1439.5,0.210604,621113,382443
1442.72,0.213341,620921,379923
1445.94,0.215509,620270,377635
1450.23,0.219315,618860,373489
1453.44,0.222283,617697,370248
1456.64,0.224019,616264,367915
1459.85,0.226556,614413,364674
1463.04,0.228713,612307,361623
1466.24,0.231802,610032,357726
1469.43,0.234597,607345,353866
1473.67,0.239361,603789,347956
1476.85,0.244439,601175,342422
1480.02,0.248781,597737,337077
1483.19,0.254215,594479,331071
1486.36,0.258556,591232,325988
1489.52,0.262681,587853,321061
1492.68,0.265355,583875,316931
1496.89,0.267072,578062,312538
1500.03,0.267935,574159,309811
1503.18,0.267781,570285,307830
1506.32,0.266643,565444,306018
1509.45,0.265567,560571,304133
1512.58,0.264474,555821,302316
1515.71,0.262013,550344,301038
1519.87,0.259545,543983,299254
1522.99,0.257061,538764,298083
1526.1,0.254796,533692,296821
1529.21,0.252369,527902,295246
1532.32,0.248715,521886,294348
1535.42,0.246096,515888,292725
1538.51,0.242712,509987,291640
1541.6,0.239983,503936,289996
1545.72,0.236464,494694,286994
1548.8,0.233882,488378,285019
1551.88,0.230634,481832,283310
1554.95,0.228636,474989,280574
1558.02,0.227411,467818,277119
1561.08,0.226149,460730,273714
1564.15,0.224666,454170,270740
1568.22,0.223882,444181,265264
1571.27,0.223185,436947,261363
1574.32,0.222813,429598,257187
1577.36,0.221344,422039,253518
1580.4,0.220010,414375,249680
1583.43,0.217913,406354,246032
1586.46,0.216672,398475,241952
1590.49,0.214866,388982,237172
1593.51,0.212186,380708,233564
1596.53,0.209893,372727,229878
1599.54,0.209260,365060,225478
1602.55,0.205895,357543,222553
1605.55,0.205381,349495,217801
1608.55,0.202853,341154,213844
1612.54,0.200715,330877,208426
1615.53,0.198884,322904,204263
1618.51,0.196588,315116,200393
1621.49,0.196543,307217,195390
1624.47,0.195113,299481,191098
1627.44,0.194154,292112,186808
1630.41,0.192785,284245,182351
1634.36,0.190863,274079,176609
1637.32,0.190563,266916,172112
1640.27,0.190733,259612,167337
1643.22,0.189110,251804,162912
1646.16,0.188303,244348,158382
1649.1,0.187211,236703,153813
1652.04,0.185923,228171,148709
1655.95,0.182687,215408,141441
1658.88,0.179700,204937,135494
1661.8,0.174310,193395,129460
1664.72,0.165573,179728,122756
1667.63,0.154828,163642,114569
1670.54,0.140019,146312,105989
1673.44,0.125066,128451,96310
1677.31,0.105767,105080,82367
1680.21,0.093339,88906,71712
1683.1,0.088075,75033,61260
1685.99,0.090657,63520,51553
1688.87,0.095087,53714,43152
1691.75,0.100797,45653,36197
1694.62,0.101058,39137,31012
1697.49,0.103841,33776,26593
1701.31,0.108746,28175,21934