File: samples/wool/wool-000811/Column 1_050567_20150331_120752.csv
Method:,Column 1,,
Host Date-Time:,31/3/15 @ 12:7:52,,
Header Version:,1,,
System Temp (C):,33.95,,
Detector Temp (C):,33.89,,
Humidity (%):,1.86,,
Lamp PD:,3819,,
Shift Vector Coefficients:,-10.5391,0.0761263,-0.000134223,,
Pixel to Wavelength Coefficients:,1775.68,-0.916766,-0.000235065,,
Serial Number:,5510004,,
Scan Config Name:,Column 1,,
Scan Config Type:,Slew,,
Section 1,,
Start wavelength (nm):,900,,
End wavelength (nm):,1700,,
Pattern Pixel Width (nm):,   7.03,,,,
Exposure (ms):,  0.635,,,,
Digital Resolution:,228,,
Num Repeats:,6,,
PGA Gain:,64,,
Total Measurement Time in sec:,  2.678,,
Wavelength (nm),Absorbance (AU),Reference Signal (unitless),Sample Signal (unitless)
901.51,0.035648,108485,99936
905.376,0.041090,121306,110355
909.237,0.042351,131909,119653
913.095,0.045068,143299,129174
916.948,0.045778,156982,141277
922.079,0.046231,179937,161767
925.923,0.048001,200504,179524
929.762,0.048623,222660,199076
933.597,0.048356,244426,218671
937.427,0.048396,263972,236136
941.254,0.048341,281845,252156
945.076,0.047133,297271,266698
950.165,0.046916,315605,283288
953.978,0.046382,328029,294802
957.786,0.046384,340470,305981
961.59,0.047082,352317,316120
965.389,0.046828,363056,325946
969.185,0.047386,373162,334589
972.976,0.047664,382632,342860
976.763,0.048519,391202,349850
981.806,0.048971,400190,357516
985.583,0.049234,406088,362565
989.355,0.049826,410162,365704
993.124,0.050124,412868,367864
996.888,0.051013,414263,368352
1000.65,0.051337,415476,369155
1004.4,0.052586,415479,368098
1009.41,0.054288,414358,365669
1013.15,0.054719,412923,364041
1016.89,0.055670,411526,362016
1020.63,0.055040,409066,360374
1024.36,0.055319,406777,358127
1028.09,0.054390,404427,356821
1031.82,0.054072,401911,354861
1036.78,0.054131,398410,351722
1040.49,0.053618,396204,350188
1044.2,0.054122,394236,348044
1047.91,0.053197,392042,346845
1051.61,0.052091,389823,345761
1055.31,0.052167,388234,344292
1059,0.051736,387599,344070
1063.92,0.050697,386688,344083
1067.61,0.049801,386598,344714
1071.29,0.049198,387377,345888
1074.96,0.048807,388536,347236
1078.63,0.048462,389855,348691
1082.3,0.047030,391215,351063
1085.96,0.046969,393215,352908
1090.84,0.046335,396270,356169
1094.49,0.046006,398760,358679
1098.14,0.045764,400987,360883
1101.79,0.045316,403477,363499
1105.43,0.045301,406116,365889
1109.06,0.044531,407701,367969
1112.7,0.044320,409859,370096
1117.53,0.044994,412494,371898
1121.15,0.044979,414909,374088
1124.77,0.046132,416559,374580
1128.38,0.046942,418532,375653
1131.99,0.048262,419956,375787
1135.6,0.050328,421946,375776
1139.2,0.051851,423881,376178
1143.99,0.054764,426786,376224
1147.58,0.055546,428617,377158
1151.17,0.056498,431169,378573
1154.75,0.057864,433579,379493
1158.33,0.059872,436264,380082
1161.91,0.061534,439132,381119
1165.48,0.063782,442389,381964
1169.04,0.066617,446101,382663
1173.79,0.070523,451929,384191
1177.34,0.072805,456026,385642
1180.9,0.074733,461306,388379
1184.44,0.077432,467657,391287
1187.99,0.077846,473969,396190
1191.52,0.077866,479856,401093
1195.06,0.077506,487372,407713
1199.76,0.076179,497347,417331
1203.29,0.075494,504311,423842
1206.81,0.074818,511507,430560
1210.33,0.073562,519078,438198
1213.84,0.073230,527163,445364
1217.35,0.072271,534208,452313
1220.85,0.071141,540472,458809
1225.51,0.070312,549929,467729
1229.01,0.070108,556888,473871
1232.5,0.069317,562180,479246
1235.98,0.068894,567975,484658
1239.46,0.067578,574815,491983
1242.94,0.066825,582782,499667
1246.41,0.065979,591476,508110
1251.03,0.066171,604016,518654
1254.5,0.066515,612289,525341
1257.96,0.066299,619125,531471
1261.41,0.066976,624551,535294
1264.86,0.067506,629900,539219
1268.31,0.068232,634345,542117
1271.75,0.069421,638574,544240
1276.33,0.069480,642499,547511
1279.76,0.069311,645905,550627
1283.19,0.068976,648307,553101
1286.61,0.068544,650446,555478
1290.03,0.068199,652132,557361
1293.44,0.067413,653907,559890
1296.85,0.067200,655963,561926
1301.39,0.066918,657349,563479
1304.8,0.066865,657558,563727
1308.19,0.067260,658515,564034
1311.58,0.067466,658804,564014
1314.97,0.068158,659011,563294
1318.36,0.068359,658272,562401
1321.73,0.069009,658022,561347
1326.23,0.070151,657870,559743
1329.6,0.070603,656482,557982
1332.97,0.071620,654926,555357
1336.33,0.072929,653727,552672
1339.69,0.074622,652497,549486
1343.04,0.076256,649913,545255
1346.39,0.078485,647671,540592
1349.73,0.080564,645338,536072
1354.18,0.083914,641175,528522
1357.52,0.086239,638376,523405
1360.85,0.088114,635805,519051
1364.17,0.090464,633413,514308
1367.49,0.092763,631026,509664
1370.81,0.095324,628050,504278
1374.12,0.097996,625034,498778
1378.54,0.100998,620272,491569
1381.84,0.104323,616892,485161
1385.14,0.108487,613613,477978
1388.43,0.112961,611526,471470
1391.72,0.117364,610663,466056
1395.01,0.122315,610634,460751
1398.29,0.127695,611700,455873
1402.66,0.134916,614051,450079
1405.93,0.140947,616268,445474
1409.2,0.145918,617795,441496
1412.46,0.151036,618872,437084
1415.72,0.155406,619795,433353
1418.98,0.159426,620495,429845
1422.23,0.162976,621087,426753
1426.56,0.167599,621375,422430
1429.8,0.170209,621616,420062
1433.04,0.173376,622129,417354
1436.27,0.175598,621526,414822
1439.5,0.177484,621113,412750
1442.72,0.180105,620921,410139
1445.94,0.183061,620270,406930
1450.23,0.186557,618860,402750
1453.44,0.189298,617697,399464
1456.64,0.192139,616264,395939
1459.85,0.195450,614413,391751
1463.04,0.198290,612307,387864
1466.24,0.201236,610032,383810
1469.43,0.204997,607345,378825
1473.67,0.211273,603789,371204
1476.85,0.217234,601175,364558
1480.02,0.223278,597737,357464
1483.19,0.229641,594479,350345
1486.36,0.236050,591232,343327
1489.52,0.241196,587853,337344
1492.68,0.244699,583875,332369
1496.89,0.247374,578062,327040
1500.03,0.247981,574159,324378
1503.18,0.248061,570285,322130
1506.32,0.247931,565444,319491
1509.45,0.245986,560571,318159
1512.58,0.243980,555821,316924
1515.71,0.241892,550344,315313
1519.87,0.238811,543983,313888
1522.99,0.235978,538764,312911
1526.1,0.233569,533692,311689
1529.21,0.230275,527902,310655
1532.32,0.227277,521886,309242
1535.42,0.224476,515888,307666
1538.51,0.220707,509987,306798
1541.6,0.217059,503936,305715
1545.72,0.214154,494694,302122
1548.8,0.210296,488378,300926
1551.88,0.207873,481832,298554
1554.95,0.204996,474989,296270
1558.02,0.205255,467818,291623
1561.08,0.202170,460730,289252
1564.15,0.201594,454170,285512
1568.22,0.200559,444181,279899
1571.27,0.199191,436947,276209
1574.32,0.198631,429598,271914
1577.36,0.196756,422039,268285
1580.4,0.195844,414375,263967
1583.43,0.194898,406354,259422
1586.46,0.191983,398475,256105
1590.49,0.190050,388982,251119
1593.51,0.188532,380708,246638
1596.53,0.185345,372727,243246
1599.54,0.183316,365060,239358
1602.55,0.181092,357543,235633
1605.55,0.179064,349495,231407
1608.55,0.177606,341154,226644
1612.54,0.174885,330877,221198
1615.53,0.173048,322904,216783
1618.51,0.171731,315116,212197
1621.49,0.170794,307217,207325
1624.47,0.168535,299481,203158
1627.44,0.167995,292112,198406
1630.41,0.167191,284245,193420
1634.36,0.166680,274079,186722
1637.32,0.164541,266916,182740
1640.27,0.163844,259612,178025
1643.22,0.162389,251804,173250
1646.16,0.161118,244348,168613
1649.1,0.160646,236703,163515
1652.04,0.160195,228171,157785
1655.95,0.158783,215408,149444
1658.88,0.154082,204937,143727
1661.8,0.149069,193395,137207
1664.72,0.143222,179728,129239
1667.63,0.132594,163642,120587
1670.54,0.120121,146312,110958
1673.44,0.107818,128451,100212
1677.31,0.088321,105080,85743
1680.21,0.084046,88906,73263
1683.1,0.078685,75033,62599
1685.99,0.080342,63520,52792
1688.87,0.087307,53714,43932
1691.75,0.095502,45653,36641
1694.62,0.104644,39137,30757
1697.49,0.096120,33776,27070
1701.31,0.107007,28175,22022