File: samples/wool/wool-000811/Column 1_050625_20150331_123528.csv
Method:,Column 1,,
Host Date-Time:,31/3/15 @ 12:35:28,,
Header Version:,1,,
System Temp (C):,34.13,,
Detector Temp (C):,35.09,,
Humidity (%):,1.56,,
Lamp PD:,3817,,
Shift Vector Coefficients:,-10.5391,0.0761263,-0.000134223,,
Pixel to Wavelength Coefficients:,1775.68,-0.916766,-0.000235065,,
Serial Number:,5510004,,
Scan Config Name:,Column 1,,
Scan Config Type:,Slew,,
Section 1,,
Start wavelength (nm):,900,,
End wavelength (nm):,1700,,
Pattern Pixel Width (nm):,   7.03,,,,
Exposure (ms):,  0.635,,,,
Digital Resolution:,228,,
Num Repeats:,6,,
PGA Gain:,64,,
Total Measurement Time in sec:,  2.675,,
Wavelength (nm),Absorbance (AU),Reference Signal (unitless),Sample Signal (unitless)
901.51,0.069674,108485,92405
905.376,0.074215,121306,102251
909.237,0.076877,131909,110509
913.095,0.076660,143299,120111
916.948,0.077979,156982,131181
922.079,0.081756,179937,149061
925.923,0.082052,200504,165986
929.762,0.082931,222660,183955
933.597,0.081892,244426,202421
937.427,0.080218,263972,219452
941.254,0.080283,281845,234276
945.076,0.082210,297271,246004
950.165,0.078192,315605,263604
953.978,0.077473,328029,274435
957.786,0.077934,340470,284541
961.59,0.077331,352317,294851
965.389,0.077959,363056,303399
969.185,0.077529,373162,312154
972.976,0.078503,382632,319358
976.763,0.078470,391202,326536
981.806,0.078809,400190,333778
985.583,0.079649,406088,338042
989.355,0.079656,410162,341428
993.124,0.080172,412868,343273
996.888,0.080980,414263,343792
1000.65,0.080918,415476,344848
1004.4,0.082530,415479,343573
1009.41,0.083637,414358,341774
1013.15,0.084123,412923,340209
1016.89,0.084753,411526,338567
1020.63,0.084361,409066,336847
1024.36,0.084509,406777,334848
1028.09,0.084215,404427,333139
1031.82,0.084201,401911,331077
1036.78,0.083214,398410,328940
1040.49,0.083480,396204,326918
1044.2,0.084000,394236,324905
1047.91,0.083452,392042,323505
1051.61,0.082551,389823,322342
1055.31,0.082479,388234,321081
1059,0.082127,387599,320816
1063.92,0.081506,386688,320520
1067.61,0.080568,386598,321138
1071.29,0.080283,387377,321996
1074.96,0.079568,388536,323492
1078.63,0.079038,389855,324986
1082.3,0.077941,391215,326945
1085.96,0.077400,393215,329026
1090.84,0.076226,396270,332480
1094.49,0.075874,398760,334840
1098.14,0.075149,400987,337273
1101.79,0.074985,403477,339495
1105.43,0.074897,406116,341785
1109.06,0.073513,407701,344214
1112.7,0.073763,409859,345837
1117.53,0.073352,412494,348390
1121.15,0.073390,414909,350399
1124.77,0.073882,416559,351394
1128.38,0.074719,418532,352379
1131.99,0.075628,419956,352838
1135.6,0.076903,421946,353471
1139.2,0.078882,423881,353478
1143.99,0.080355,426786,354695
1147.58,0.081438,428617,355330
1151.17,0.081480,431169,357411
1154.75,0.083068,433579,358097
1158.33,0.083959,436264,359576
1161.91,0.085283,439132,360838
1165.48,0.087653,442389,361536
1169.04,0.090126,446101,362499
1173.79,0.093847,451929,364102
1177.34,0.095433,456026,366064
1180.9,0.098199,461306,367951
1184.44,0.099817,467657,371630
1187.99,0.100352,473969,376182
1191.52,0.100690,479856,380558
1195.06,0.100710,487372,386501
1199.76,0.099969,497347,395085
1203.29,0.099191,504311,401335
1206.81,0.098625,511507,407593
1210.33,0.097699,519078,414509
1213.84,0.097719,527163,420946
1217.35,0.097024,534208,427254
1220.85,0.096877,540472,432410
1225.51,0.095592,549929,441280
1229.01,0.094748,556888,447734
1232.5,0.094399,562180,452352
1235.98,0.093810,567975,457635
1239.46,0.092691,574815,464341
1242.94,0.091820,582782,471722
1246.41,0.091316,591476,479315
1251.03,0.090950,604016,489890
1254.5,0.091201,612289,496313
1257.96,0.091420,619125,501601
1261.41,0.091970,624551,505356
1264.86,0.092527,629900,509031
1268.31,0.093348,634345,511655
1271.75,0.093977,638574,514321
1276.33,0.093997,642499,517458
1279.76,0.093787,645905,520453
1283.19,0.093249,648307,523036
1286.61,0.092677,650446,525453
1290.03,0.092606,652132,526902
1293.44,0.092441,653907,528536
1296.85,0.092030,655963,530700
1301.39,0.091507,657349,532462
1304.8,0.091504,657558,532635
1308.19,0.091856,658515,532978
1311.58,0.091730,658804,533367
1314.97,0.092434,659011,532671
1318.36,0.092539,658272,531944
1321.73,0.092682,658022,531568
1326.23,0.093853,657870,530014
1329.6,0.094493,656482,528117
1332.97,0.095053,654926,526186
1336.33,0.096186,653727,523854
1339.69,0.097296,652497,521534
1343.04,0.099011,649913,517421
1346.39,0.100891,647671,513409
1349.73,0.102565,645338,509592
1354.18,0.105657,641175,502712
1357.52,0.107747,638376,498115
1360.85,0.109612,635805,493983
1364.17,0.111653,633413,489817
1367.49,0.113674,631026,485706
1370.81,0.116231,628050,480577
1374.12,0.117451,625034,476928
1378.54,0.120665,620272,469804
1381.84,0.123289,616892,464430
1385.14,0.126441,613613,458621
1388.43,0.129956,611526,453376
1391.72,0.133519,610663,449038
1395.01,0.137455,610634,444965
1398.29,0.141742,611700,441364
1402.66,0.148010,614051,436711
1405.93,0.152198,616268,434082
1409.2,0.156910,617795,430462
1412.46,0.161253,618872,426921
1415.72,0.164796,619795,424084
1418.98,0.168099,620495,421346
1422.23,0.171320,621087,418632
1426.56,0.175161,621375,415138
1429.8,0.177822,621616,412762
1433.04,0.180317,622129,410737
1436.27,0.182304,621526,408465
1439.5,0.184122,621113,406489
1442.72,0.186397,620921,404240
1445.94,0.189050,620270,401357
1450.23,0.192508,618860,397269
1453.44,0.195275,617697,394004
1456.64,0.199011,616264,389723
1459.85,0.201033,614413,386747
1463.04,0.204063,612307,382742
1466.24,0.207676,610032,378161
1469.43,0.211886,607345,372863
1473.67,0.217713,603789,365740
1476.85,0.224009,601175,358915
1480.02,0.230262,597737,351761
1483.19,0.237102,594479,344377
1486.36,0.243542,591232,337455
1489.52,0.247951,587853,332137
1492.68,0.250939,583875,327628
1496.89,0.253667,578062,322335
1500.03,0.254722,574159,319382
1503.18,0.254005,570285,317751
1506.32,0.253383,565444,315505
1509.45,0.251812,560571,313920
1512.58,0.249495,555821,312925
1515.71,0.247945,550344,310949
1519.87,0.244947,543983,309484
1522.99,0.242594,538764,308180
1526.1,0.240110,533692,307030
1529.21,0.236846,527902,305990
1532.32,0.233894,521886,304566
1535.42,0.231687,515888,302600
1538.51,0.227997,509987,301691
1541.6,0.225167,503936,300060
1545.72,0.221058,494694,297357
1548.8,0.218747,488378,295127
1551.88,0.216685,481832,292557
1554.95,0.214148,474989,290092
1558.02,0.212598,467818,286734
1561.08,0.211600,460730,283039
1564.15,0.211182,454170,279278
1568.22,0.209748,444181,274039
1571.27,0.209279,436947,269867
1574.32,0.208341,429598,265902
1577.36,0.208052,422039,261397
1580.4,0.207462,414375,256999
1583.43,0.205016,406354,253448
1586.46,0.202722,398475,249850
1590.49,0.201361,388982,244663
1593.51,0.199898,380708,240267
1596.53,0.197650,372727,236451
1599.54,0.196123,365060,232403
1602.55,0.193796,357543,228840
1605.55,0.192871,349495,224166
1608.55,0.190086,341154,220224
1612.54,0.187481,330877,214875
1615.53,0.187080,322904,209891
1618.51,0.185523,315116,205564
1621.49,0.184798,307217,200746
1624.47,0.182620,299481,196675
1627.44,0.183383,292112,191499
1630.41,0.181157,284245,187299
1634.36,0.180190,274079,181003
1637.32,0.179630,266916,176500
1640.27,0.179992,259612,171527
1643.22,0.179304,251804,166632
1646.16,0.177862,244348,162236
1649.1,0.176981,236703,157479
1652.04,0.174649,228171,152620
1655.95,0.172334,215408,144853
1658.88,0.166940,204937,139534
1661.8,0.162476,193395,133036
1664.72,0.154694,179728,125870
1667.63,0.141700,163642,118085
1670.54,0.126171,146312,109423
1673.44,0.112252,128451,99194
1677.31,0.090449,105080,85324
1680.21,0.078129,88906,74268
1683.1,0.076526,75033,62911
1685.99,0.073211,63520,53666
1688.87,0.077068,53714,44980
1691.75,0.080876,45653,37896
1694.62,0.089342,39137,31860
1697.49,0.090335,33776,27433
1701.31,0.101754,28175,22290