File: samples/wool/wool-000811/Column 1_050548_20150331_115851.csv
Method:,Column 1,,
Host Date-Time:,31/3/15 @ 11:58:51,,
Header Version:,1,,
System Temp (C):,33.15,,
Detector Temp (C):,31.81,,
Humidity (%):,2.34,,
Lamp PD:,3822,,
Shift Vector Coefficients:,-10.5391,0.0761263,-0.000134223,,
Pixel to Wavelength Coefficients:,1775.68,-0.916766,-0.000235065,,
Serial Number:,5510004,,
Scan Config Name:,Column 1,,
Scan Config Type:,Slew,,
Section 1,,
Start wavelength (nm):,900,,
End wavelength (nm):,1700,,
Pattern Pixel Width (nm):,   7.03,,,,
Exposure (ms):,  0.635,,,,
Digital Resolution:,228,,
Num Repeats:,6,,
PGA Gain:,64,,
Total Measurement Time in sec:,  2.666,,
Wavelength (nm),Absorbance (AU),Reference Signal (unitless),Sample Signal (unitless)
901.51,0.043342,108485,98181
905.376,0.049539,121306,108229
909.237,0.050347,131909,117470
913.095,0.052802,143299,126894
916.948,0.053379,156982,138826
922.079,0.053835,179937,158959
925.923,0.055216,200504,176566
929.762,0.055178,222660,196094
933.597,0.056372,244426,214672
937.427,0.055956,263972,232061
941.254,0.055539,281845,248011
945.076,0.055503,297271,261607
950.165,0.054962,315605,278088
953.978,0.054845,328029,289113
957.786,0.055457,340470,299655
961.59,0.055454,352317,310084
965.389,0.055983,363056,319147
969.185,0.055792,373162,328175
972.976,0.056887,382632,335656
976.763,0.057560,391202,342642
981.806,0.058101,400190,350078
985.583,0.058546,406088,354874
989.355,0.058928,410162,358119
993.124,0.059971,412868,359617
996.888,0.060395,414263,360480
1000.65,0.061084,415476,360962
1004.4,0.062226,415479,360017
1009.41,0.063454,414358,358032
1013.15,0.064202,412923,356178
1016.89,0.064519,411526,354714
1020.63,0.064379,409066,352707
1024.36,0.064291,406777,350805
1028.09,0.064069,404427,348956
1031.82,0.063496,401911,347243
1036.78,0.062881,398410,344706
1040.49,0.062587,396204,343030
1044.2,0.061860,394236,341898
1047.91,0.061563,392042,340228
1051.61,0.060550,389823,339092
1055.31,0.059828,388234,338272
1059,0.059302,387599,338128
1063.92,0.058309,386688,338105
1067.61,0.057353,386598,338771
1071.29,0.056608,387377,340037
1074.96,0.055710,388536,341760
1078.63,0.054895,389855,343564
1082.3,0.054200,391215,345315
1085.96,0.052936,393215,348092
1090.84,0.052607,396270,351062
1094.49,0.052162,398760,353630
1098.14,0.052095,400987,355660
1101.79,0.051719,403477,358179
1105.43,0.051435,406116,360757
1109.06,0.051507,407701,362105
1112.7,0.051023,409859,364428
1117.53,0.050642,412494,367093
1121.15,0.051697,414909,368346
1124.77,0.052375,416559,369234
1128.38,0.054167,418532,369455
1131.99,0.055071,419956,369941
1135.6,0.056892,421946,370139
1139.2,0.059034,423881,370007
1143.99,0.062234,426786,369808
1147.58,0.063579,428617,370246
1151.17,0.064940,431169,371285
1154.75,0.066929,433579,371654
1158.33,0.067703,436264,373290
1161.91,0.070563,439132,373278
1165.48,0.073624,442389,373405
1169.04,0.076233,446101,374283
1173.79,0.081048,451929,374992
1177.34,0.083401,456026,376347
1180.9,0.085962,461306,378466
1184.44,0.087928,467657,381944
1187.99,0.088661,473969,386446
1191.52,0.088566,479856,391332
1195.06,0.087625,487372,398323
1199.76,0.086317,497347,407702
1203.29,0.085050,504311,414618
1206.81,0.083918,511507,421632
1210.33,0.082808,519078,428968
1213.84,0.081661,527163,436801
1217.35,0.080014,534208,444321
1220.85,0.079549,540472,450012
1225.51,0.078200,549929,459311
1229.01,0.077259,556888,466132
1232.5,0.076223,562180,471685
1235.98,0.075549,567975,477288
1239.46,0.074724,574815,483954
1242.94,0.073234,582782,492348
1246.41,0.072443,591476,500604
1251.03,0.072427,604016,511236
1254.5,0.072156,612289,518562
1257.96,0.072720,619125,523671
1261.41,0.073368,624551,527472
1264.86,0.073781,629900,531484
1268.31,0.074702,634345,534101
1271.75,0.075579,638574,536577
1276.33,0.075724,642499,539695
1279.76,0.075363,645905,543007
1283.19,0.074820,648307,545709
1286.61,0.074475,650446,547944
1290.03,0.074279,652132,549612
1293.44,0.073671,653907,551880
1296.85,0.073297,655963,554092
1301.39,0.073071,657349,555553
1304.8,0.072885,657558,555967
1308.19,0.073266,658515,556288
1311.58,0.073242,658804,556563
1314.97,0.073744,659011,556094
1318.36,0.074585,658272,554397
1321.73,0.074493,658022,554303
1326.23,0.076121,657870,552102
1329.6,0.076814,656482,550059
1332.97,0.077844,654926,547455
1336.33,0.079275,653727,544655
1339.69,0.081009,652497,541464
1343.04,0.082710,649913,537211
1346.39,0.085306,647671,532168
1349.73,0.087841,645338,527165
1354.18,0.091498,641175,519372
1357.52,0.093869,638376,514289
1360.85,0.096400,635805,509242
1364.17,0.098848,633413,504474
1367.49,0.101823,631026,499142
1370.81,0.104215,628050,494059
1374.12,0.106679,625034,488905
1378.54,0.110631,620272,480785
1381.84,0.114568,616892,473850
1385.14,0.118985,613613,466562
1388.43,0.123946,611526,459694
1391.72,0.129557,610663,453153
1395.01,0.134682,610634,447815
1398.29,0.140412,611700,442717
1402.66,0.148695,614051,436023
1405.93,0.155543,616268,430751
1409.2,0.162154,617795,425295
1412.46,0.167268,618872,421049
1415.72,0.172405,619795,416719
1418.98,0.176686,620495,413097
1422.23,0.180574,621087,409806
1426.56,0.185389,621375,405476
1429.8,0.188504,621616,402734
1433.04,0.191389,622129,400398
1436.27,0.193465,621526,398102
1439.5,0.195565,621113,395918
1442.72,0.198601,620921,393039
1445.94,0.200940,620270,390518
1450.23,0.204703,618860,386269
1453.44,0.208051,617697,382582
1456.64,0.211290,616264,378858
1459.85,0.213700,614413,375630
1463.04,0.216167,612307,372222
1466.24,0.219756,610032,367787
1469.43,0.222477,607345,363880
1473.67,0.228572,603789,356708
1476.85,0.233496,601175,351160
1480.02,0.240003,597737,343959
1483.19,0.246418,594479,337069
1486.36,0.251902,591232,331021
1489.52,0.257495,587853,324918
1492.68,0.261608,583875,319677
1496.89,0.264528,578062,314374
1500.03,0.264758,574159,312086
1503.18,0.266044,570285,309064
1506.32,0.265127,565444,307088
1509.45,0.264073,560571,305181
1512.58,0.262533,555821,303670
1515.71,0.260383,550344,302170
1519.87,0.257107,543983,300939
1522.99,0.254201,538764,300053
1526.1,0.251124,533692,299341
1529.21,0.248188,527902,298102
1532.32,0.245078,521886,296823
1535.42,0.241932,515888,295545
1538.51,0.238312,509987,294610
1541.6,0.235358,503936,293101
1545.72,0.230374,494694,291047
1548.8,0.226506,488378,289901
1551.88,0.224412,481832,287398
1554.95,0.221836,474989,285002
1558.02,0.220037,467818,281864
1561.08,0.217719,460730,279079
1564.15,0.217508,454170,275239
1568.22,0.216246,444181,269969
1571.27,0.216054,436947,265690
1574.32,0.214632,429598,262078
1577.36,0.213486,422039,258147
1580.4,0.211491,414375,254626
1583.43,0.210138,406354,250476
1586.46,0.208517,398475,246538
1590.49,0.204940,388982,242655
1593.51,0.202732,380708,238704
1596.53,0.200395,372727,234961
1599.54,0.197802,365060,231506
1602.55,0.195533,357543,227927
1605.55,0.193160,349495,224017
1608.55,0.191057,341154,219732
1612.54,0.188266,330877,214487
1615.53,0.185764,322904,210528
1618.51,0.184350,315116,206120
1621.49,0.183015,307217,201572
1624.47,0.181170,299481,197333
1627.44,0.180638,292112,192713
1630.41,0.178732,284245,188348
1634.36,0.176513,274079,182542
1637.32,0.176030,266916,177969
1640.27,0.175060,259612,173486
1643.22,0.172747,251804,169167
1646.16,0.173040,244348,164047
1649.1,0.173137,236703,158879
1652.04,0.169807,228171,154331
1655.95,0.169743,215408,145720
1658.88,0.166940,204937,139534
1661.8,0.162701,193395,132967
1664.72,0.158262,179728,124840
1667.63,0.150805,163642,115635
1670.54,0.141776,146312,105561
1673.44,0.134558,128451,94228
1677.31,0.124272,105080,78931
1680.21,0.118785,88906,67631
1683.1,0.122183,75033,56633
1685.99,0.125203,63520,47611
1688.87,0.124901,53714,40289
1691.75,0.135086,45653,33449
1694.62,0.135175,39137,28669
1697.49,0.130859,33776,24989
1701.31,0.145740,28175,20143