File: samples/wool/wool-000811/Column 1_050609_20150331_122749.csv
Method:,Column 1,,
Host Date-Time:,31/3/15 @ 12:27:49,,
Header Version:,1,,
System Temp (C):,34.07,,
Detector Temp (C):,34.9,,
Humidity (%):,1.66,,
Lamp PD:,3818,,
Shift Vector Coefficients:,-10.5391,0.0761263,-0.000134223,,
Pixel to Wavelength Coefficients:,1775.68,-0.916766,-0.000235065,,
Serial Number:,5510004,,
Scan Config Name:,Column 1,,
Scan Config Type:,Slew,,
Section 1,,
Start wavelength (nm):,900,,
End wavelength (nm):,1700,,
Pattern Pixel Width (nm):,   7.03,,,,
Exposure (ms):,  0.635,,,,
Digital Resolution:,228,,
Num Repeats:,6,,
PGA Gain:,64,,
Total Measurement Time in sec:,  2.732,,
Wavelength (nm),Absorbance (AU),Reference Signal (unitless),Sample Signal (unitless)
901.51,0.071039,108485,92115
905.376,0.075627,121306,101919
909.237,0.077376,131909,110382
913.095,0.078741,143299,119537
916.948,0.078681,156982,130969
922.079,0.081011,179937,149317
925.923,0.082316,200504,165885
929.762,0.083082,222660,183891
933.597,0.081787,244426,202470
937.427,0.081421,263972,218845
941.254,0.080486,281845,234166
945.076,0.078508,297271,248110
950.165,0.078779,315605,263248
953.978,0.077715,328029,274282
957.786,0.077534,340470,284803
961.59,0.077611,352317,294661
965.389,0.076956,363056,304101
969.185,0.077908,373162,311881
972.976,0.077580,382632,320038
976.763,0.078426,391202,326569
981.806,0.079434,400190,333298
985.583,0.079439,406088,338206
989.355,0.079939,410162,341206
993.124,0.080127,412868,343308
996.888,0.080969,414263,343801
1000.65,0.081770,415476,344172
1004.4,0.082495,415479,343601
1009.41,0.083996,414358,341491
1013.15,0.084549,412923,339876
1016.89,0.084682,411526,338622
1020.63,0.085377,409066,336060
1024.36,0.084939,406777,334516
1028.09,0.084602,404427,332842
1031.82,0.084739,401911,330667
1036.78,0.083931,398410,328397
1040.49,0.084017,396204,326514
1044.2,0.083359,394236,325385
1047.91,0.083641,392042,323364
1051.61,0.083195,389823,321864
1055.31,0.082905,388234,320766
1059,0.082380,387599,320629
1063.92,0.081182,386688,320759
1067.61,0.081274,386598,320616
1071.29,0.080443,387377,321878
1074.96,0.079595,388536,323472
1078.63,0.079619,389855,324552
1082.3,0.078334,391215,326649
1085.96,0.077739,393215,328769
1090.84,0.076815,396270,332029
1094.49,0.076335,398760,334485
1098.14,0.076223,400987,336440
1101.79,0.075517,403477,339080
1105.43,0.074938,406116,341753
1109.06,0.074368,407701,343537
1112.7,0.074063,409859,345598
1117.53,0.073225,412494,348492
1121.15,0.073546,414909,350273
1124.77,0.073898,416559,351381
1128.38,0.075407,418532,351821
1131.99,0.075573,419956,352883
1135.6,0.077741,421946,352790
1139.2,0.078678,423881,353644
1143.99,0.080636,426786,354466
1147.58,0.081715,428617,355103
1151.17,0.082623,431169,356471
1154.75,0.084077,433579,357266
1158.33,0.084348,436264,359254
1161.91,0.086981,439132,359430
1165.48,0.088585,442389,360761
1169.04,0.090364,446101,362301
1173.79,0.094922,451929,363202
1177.34,0.096320,456026,365317
1180.9,0.098517,461306,367682
1184.44,0.099953,467657,371513
1187.99,0.100933,473969,375679
1191.52,0.101158,479856,380148
1195.06,0.101398,487372,385889
1199.76,0.100609,497347,394503
1203.29,0.099551,504311,401003
1206.81,0.099153,511507,407098
1210.33,0.098610,519078,413640
1213.84,0.097786,527163,420881
1217.35,0.097686,534208,426603
1220.85,0.096723,540472,432564
1225.51,0.096465,549929,440394
1229.01,0.096000,556888,446445
1232.5,0.095229,562180,451488
1235.98,0.094380,567975,457035
1239.46,0.093225,574815,463770
1242.94,0.092755,582782,470708
1246.41,0.092142,591476,478404
1251.03,0.091769,604016,488967
1254.5,0.091972,612289,495432
1257.96,0.092229,619125,500668
1261.41,0.092664,624551,504550
1264.86,0.093451,629900,507949
1268.31,0.093760,634345,511170
1271.75,0.094524,638574,513674
1276.33,0.094482,642499,516881
1279.76,0.094687,645905,519376
1283.19,0.093724,648307,522464
1286.61,0.093802,650446,524094
1290.03,0.093774,652132,525487
1293.44,0.093278,653907,527519
1296.85,0.092521,655963,530101
1301.39,0.092742,657349,530950
1304.8,0.092414,657558,531521
1308.19,0.092355,658515,532367
1311.58,0.092517,658804,532401
1314.97,0.092970,659011,532013
1318.36,0.093260,658272,531062
1321.73,0.093701,658022,530322
1326.23,0.094602,657870,529100
1329.6,0.095187,656482,527273
1332.97,0.096526,654926,524404
1336.33,0.097625,653727,522121
1339.69,0.098473,652497,520122
1343.04,0.099862,649913,516408
1346.39,0.102118,647671,511961
1349.73,0.103779,645338,508169
1354.18,0.106730,641175,501472
1357.52,0.108630,638376,497103
1360.85,0.110660,635805,492792
1364.17,0.112436,633413,488935
1367.49,0.114831,631026,484414
1370.81,0.117349,628050,479342
1374.12,0.119381,625034,474813
1378.54,0.122240,620272,468104
1381.84,0.124290,616892,463361
1385.14,0.128129,613613,456842
1388.43,0.131568,611526,451697
1391.72,0.135759,610663,446727
1395.01,0.140198,610634,442164
1398.29,0.143866,611700,439210
1402.66,0.150333,614051,434382
1405.93,0.155874,616268,430423
1409.2,0.160152,617795,427260
1412.46,0.164264,618872,423972
1415.72,0.167700,619795,421258
1418.98,0.171590,620495,417973
1422.23,0.174944,621087,415153
1426.56,0.178908,621375,411572
1429.8,0.181428,621616,409349
1433.04,0.184008,622129,407261
1436.27,0.186298,621526,404726
1439.5,0.188207,621113,402683
1442.72,0.190438,620921,400496
1445.94,0.193069,620270,397660
1450.23,0.196645,618860,393502
1453.44,0.199070,617697,390576
1456.64,0.202052,616264,387003
1459.85,0.204650,614413,383540
1463.04,0.207985,612307,379301
1466.24,0.210691,610032,375545
1469.43,0.215092,607345,370121
1473.67,0.220797,603789,363152
1476.85,0.226824,601175,356596
1480.02,0.232669,597737,349817
1483.19,0.239378,594479,342577
1486.36,0.245004,591232,336321
1489.52,0.249631,587853,330855
1492.68,0.252827,583875,326207
1496.89,0.255689,578062,320838
1500.03,0.255660,574159,318693
1503.18,0.256093,570285,316227
1506.32,0.255048,565444,314298
1509.45,0.253174,560571,312937
1512.58,0.251971,555821,311146
1515.71,0.250006,550344,309477
1519.87,0.246997,543983,308027
1522.99,0.243597,538764,307469
1526.1,0.242201,533692,305555
1529.21,0.239320,527902,304252
1532.32,0.236220,521886,302939
1535.42,0.233680,515888,301214
1538.51,0.230054,509987,300265
1541.6,0.227465,503936,298477
1545.72,0.223134,494694,295939
1548.8,0.220483,488378,293950
1551.88,0.218979,481832,291016
1554.95,0.216735,474989,288369
1558.02,0.214383,467818,285558
1561.08,0.213945,460730,281515
1564.15,0.212958,454170,278138
1568.22,0.211537,444181,272912
1571.27,0.211964,436947,268204
1574.32,0.210722,429598,264448
1577.36,0.208938,422039,260864
1580.4,0.207995,414375,256684
1583.43,0.206760,406354,252432
1586.46,0.204930,398475,248583
1590.49,0.203390,388982,243523
1593.51,0.201782,380708,239227
1596.53,0.199193,372727,235612
1599.54,0.197860,365060,231475
1602.55,0.194862,357543,228279
1605.55,0.193323,349495,223933
1608.55,0.191561,341154,219477
1612.54,0.190275,330877,213497
1615.53,0.188881,322904,209022
1618.51,0.186829,315116,204947
1621.49,0.185402,307217,200467
1624.47,0.185407,299481,195417
1627.44,0.184439,292112,191034
1630.41,0.183324,284245,186367
1634.36,0.182763,274079,179934
1637.32,0.182038,266916,175524
1640.27,0.181374,259612,170982
1643.22,0.179669,251804,166492
1646.16,0.179826,244348,161504
1649.1,0.178091,236703,157077
1652.04,0.175455,228171,152337
1655.95,0.173755,215408,144380
1658.88,0.170381,204937,138433
1661.8,0.165312,193395,132170
1664.72,0.156526,179728,125340
1667.63,0.144286,163642,117384
1670.54,0.130896,146312,108239
1673.44,0.114407,128451,98703
1677.31,0.095425,105080,84352
1680.21,0.081405,88906,73710
1683.1,0.076084,75033,62975
1685.99,0.077227,63520,53172
1688.87,0.082665,53714,44404
1691.75,0.085206,45653,37520
1694.62,0.090912,39137,31745
1697.49,0.094950,33776,27143
1701.31,0.099616,28175,22400