File: samples/wool/wool-000811/Column 1_050581_20150331_121422.csv
Method:,Column 1,,
Host Date-Time:,31/3/15 @ 12:14:22,,
Header Version:,1,,
System Temp (C):,33.73,,
Detector Temp (C):,34.57,,
Humidity (%):,1.95,,
Lamp PD:,3819,,
Shift Vector Coefficients:,-10.5391,0.0761263,-0.000134223,,
Pixel to Wavelength Coefficients:,1775.68,-0.916766,-0.000235065,,
Serial Number:,5510004,,
Scan Config Name:,Column 1,,
Scan Config Type:,Slew,,
Section 1,,
Start wavelength (nm):,900,,
End wavelength (nm):,1700,,
Pattern Pixel Width (nm):,   7.03,,,,
Exposure (ms):,  0.635,,,,
Digital Resolution:,228,,
Num Repeats:,6,,
PGA Gain:,64,,
Total Measurement Time in sec:,  2.676,,
Wavelength (nm),Absorbance (AU),Reference Signal (unitless),Sample Signal (unitless)
901.51,0.070041,108485,92327
905.376,0.075930,121306,101848
909.237,0.079906,131909,109741
913.095,0.080587,143299,119030
916.948,0.081740,156982,130050
922.079,0.083555,179937,148445
925.923,0.083750,200504,165338
929.762,0.084617,222660,183242
933.597,0.083939,244426,201469
937.427,0.083394,263972,217853
941.254,0.081798,281845,233460
945.076,0.081699,297271,246294
950.165,0.080619,315605,262135
953.978,0.080149,328029,272749
957.786,0.080139,340470,283100
961.59,0.080976,352317,292387
965.389,0.080725,363056,301473
969.185,0.080955,373162,309701
972.976,0.081288,382632,317317
976.763,0.082223,391202,323726
981.806,0.081975,400190,331353
985.583,0.082320,406088,335970
989.355,0.082948,410162,338850
993.124,0.083651,412868,340534
996.888,0.083710,414263,341638
1000.65,0.084501,415476,342015
1004.4,0.086015,415479,340827
1009.41,0.086954,414358,339173
1013.15,0.087310,412923,337722
1016.89,0.087974,411526,336065
1020.63,0.087682,409066,334281
1024.36,0.087505,406777,332546
1028.09,0.087784,404427,330412
1031.82,0.087743,401911,328388
1036.78,0.087095,398410,326013
1040.49,0.086655,396204,324537
1044.2,0.087368,394236,322395
1047.91,0.086819,392042,321006
1051.61,0.086306,389823,319567
1055.31,0.085842,388234,318604
1059,0.085204,387599,318551
1063.92,0.084916,386688,318013
1067.61,0.084272,386598,318411
1071.29,0.083803,387377,319397
1074.96,0.083028,388536,320925
1078.63,0.082845,389855,322150
1082.3,0.081754,391215,324087
1085.96,0.081367,393215,326034
1090.84,0.080409,396270,329293
1094.49,0.080275,398760,331464
1098.14,0.079134,400987,334192
1101.79,0.079141,403477,336262
1105.43,0.078167,406116,339221
1109.06,0.078013,407701,340666
1112.7,0.078049,409859,342441
1117.53,0.077197,412494,345319
1121.15,0.077422,414909,347161
1124.77,0.078140,416559,347966
1128.38,0.079016,418532,348909
1131.99,0.080118,419956,349209
1135.6,0.081929,421946,349404
1139.2,0.082889,423881,350231
1143.99,0.084810,426786,351075
1147.58,0.085934,428617,351670
1151.17,0.086820,431169,353043
1154.75,0.087435,433579,354514
1158.33,0.089019,436264,355411
1161.91,0.090620,439132,356431
1165.48,0.093180,442389,356964
1169.04,0.095775,446101,357815
1173.79,0.098537,451929,360191
1177.34,0.100610,456026,361726
1180.9,0.102663,461306,364188
1184.44,0.104534,467657,367615
1187.99,0.105314,473969,371908
1191.52,0.105362,479856,376486
1195.06,0.105204,487372,382522
1199.76,0.104150,497347,391300
1203.29,0.103909,504311,396999
1206.81,0.103219,511507,403304
1210.33,0.102623,519078,409836
1213.84,0.102125,527163,416697
1217.35,0.101488,534208,422885
1220.85,0.100720,540472,428601
1225.51,0.100335,549929,436487
1229.01,0.099386,556888,442978
1232.5,0.099457,562180,447114
1235.98,0.098844,567975,452361
1239.46,0.097494,574815,459234
1242.94,0.096792,582782,466352
1246.41,0.096175,591476,473982
1251.03,0.096339,604016,483848
1254.5,0.096141,612289,490699
1257.96,0.096776,619125,495453
1261.41,0.096952,624551,499592
1264.86,0.097491,629900,503246
1268.31,0.098103,634345,506084
1271.75,0.098708,638574,508749
1276.33,0.099477,642499,510970
1279.76,0.098655,645905,514652
1283.19,0.098270,648307,517024
1286.61,0.098185,650446,518831
1290.03,0.097789,652132,520651
1293.44,0.097554,653907,522350
1296.85,0.097548,655963,524000
1301.39,0.096913,657349,525876
1304.8,0.096895,657558,526065
1308.19,0.097357,658515,526270
1311.58,0.097207,658804,526683
1314.97,0.097975,659011,525917
1318.36,0.098241,658272,525006
1321.73,0.098680,658022,524276
1326.23,0.099768,657870,522844
1329.6,0.100662,656482,520668
1332.97,0.101780,654926,518098
1336.33,0.103229,653727,515427
1339.69,0.104330,652497,513155
1343.04,0.105956,649913,509213
1346.39,0.108399,647671,504609
1349.73,0.110414,645338,500464
1354.18,0.113220,641175,494034
1357.52,0.115255,638376,489578
1360.85,0.117556,635805,485029
1364.17,0.119380,633413,481179
1367.49,0.121062,631026,477513
1370.81,0.123904,628050,472161
1374.12,0.125775,625034,467874
1378.54,0.129370,620272,460481
1381.84,0.132600,616892,454579
1385.14,0.136134,613613,448498
1388.43,0.140180,611526,442828
1391.72,0.145155,610663,437166
1395.01,0.150331,610634,431966
1398.29,0.155890,611700,427217
1402.66,0.163069,614051,421828
1405.93,0.168953,616268,417654
1409.2,0.174493,617795,413382
1412.46,0.179518,618872,409339
1415.72,0.183877,619795,405855
1418.98,0.188208,620495,402282
1422.23,0.192365,621087,398830
1426.56,0.196285,621375,395429
1429.8,0.198962,621616,393152
1433.04,0.202208,622129,390546
1436.27,0.204110,621526,388463
1439.5,0.206374,621113,386186
1442.72,0.208298,620921,384360
1445.94,0.210622,620270,381908
1450.23,0.214017,618860,378073
1453.44,0.216502,617697,375209
1456.64,0.219452,616264,371805
1459.85,0.221587,614413,368870
1463.04,0.224088,612307,365495
1466.24,0.227326,610032,361432
1469.43,0.230302,607345,357383
1473.67,0.235546,603789,351026
1476.85,0.239886,601175,346031
1480.02,0.245034,597737,339998
1483.19,0.250766,594479,333711
1486.36,0.255326,591232,328422
1489.52,0.259772,587853,323219
1492.68,0.262203,583875,319240
1496.89,0.264620,578062,314307
1500.03,0.264864,574159,312010
1503.18,0.265135,570285,309711
1506.32,0.263639,565444,308142
1509.45,0.263216,560571,305784
1512.58,0.261338,555821,304507
1515.71,0.258849,550344,303239
1519.87,0.256376,543983,301446
1522.99,0.254377,538764,299931
1526.1,0.251598,533692,299015
1529.21,0.248754,527902,297714
1532.32,0.245425,521886,296586
1535.42,0.243567,515888,294434
1538.51,0.239411,509987,293865
1541.6,0.237156,503936,291890
1545.72,0.233269,494694,289113
1548.8,0.230316,488378,287369
1551.88,0.228551,481832,284672
1554.95,0.226250,474989,282120
1558.02,0.224804,467818,278787
1561.08,0.223465,460730,275411
1564.15,0.222220,454170,272269
1568.22,0.221407,444181,266780
1571.27,0.220878,436947,262755
1574.32,0.219529,429598,259139
1577.36,0.218084,422039,255428
1580.4,0.216660,414375,251613
1583.43,0.215422,406354,247447
1586.46,0.214109,398475,243384
1590.49,0.211453,388982,239043
1593.51,0.210214,380708,234627
1596.53,0.207441,372727,231180
1599.54,0.206480,365060,226926
1602.55,0.203629,357543,223717
1605.55,0.202577,349495,219212
1608.55,0.200098,341154,215205
1612.54,0.198609,330877,209439
1615.53,0.196862,322904,205216
1618.51,0.198491,315116,199517
1621.49,0.194363,307217,196373
1624.47,0.191609,299481,192646
1627.44,0.192148,292112,187673
1630.41,0.190872,284245,183156
1634.36,0.189969,274079,176973
1637.32,0.188396,266916,172973
1640.27,0.187820,259612,168463
1643.22,0.187558,251804,163495
1646.16,0.185837,244348,159284
1649.1,0.186457,236703,154080
1652.04,0.183936,228171,149391
1655.95,0.181145,215408,141944
1658.88,0.177453,204937,136197
1661.8,0.171531,193395,130291
1664.72,0.164802,179728,122974
1667.63,0.151475,163642,115457
1670.54,0.138640,146312,106326
1673.44,0.123136,128451,96739
1677.31,0.103883,105080,82725
1680.21,0.093448,88906,71694
1683.1,0.088863,75033,61149
1685.99,0.093691,63520,51194
1688.87,0.091838,53714,43476
1691.75,0.096273,45653,36576
1694.62,0.104262,39137,30784
1697.49,0.110423,33776,26193
1701.31,0.118194,28175,21462