File: samples/wool/wool-000811/Column 1_050607_20150331_122646.csv
Method:,Column 1,,
Host Date-Time:,31/3/15 @ 12:26:46,,
Header Version:,1,,
System Temp (C):,33.98,,
Detector Temp (C):,34.84,,
Humidity (%):,1.66,,
Lamp PD:,3818,,
Shift Vector Coefficients:,-10.5391,0.0761263,-0.000134223,,
Pixel to Wavelength Coefficients:,1775.68,-0.916766,-0.000235065,,
Serial Number:,5510004,,
Scan Config Name:,Column 1,,
Scan Config Type:,Slew,,
Section 1,,
Start wavelength (nm):,900,,
End wavelength (nm):,1700,,
Pattern Pixel Width (nm):,   7.03,,,,
Exposure (ms):,  0.635,,,,
Digital Resolution:,228,,
Num Repeats:,6,,
PGA Gain:,64,,
Total Measurement Time in sec:,  2.669,,
Wavelength (nm),Absorbance (AU),Reference Signal (unitless),Sample Signal (unitless)
901.51,0.068848,108485,92581
905.376,0.075606,121306,101924
909.237,0.078302,131909,110147
913.095,0.078207,143299,119684
916.948,0.078708,156982,130961
922.079,0.079780,179937,149741
925.923,0.081288,200504,166278
929.762,0.082166,222660,184279
933.597,0.082252,244426,202253
937.427,0.080818,263972,219149
941.254,0.080568,281845,234122
945.076,0.079844,297271,247348
950.165,0.077695,315605,263906
953.978,0.077286,328029,274553
957.786,0.077679,340470,284708
961.59,0.077318,352317,294860
965.389,0.077685,363056,303591
969.185,0.077260,373162,312347
972.976,0.077839,382632,319847
976.763,0.078604,391202,326435
981.806,0.079038,400190,333602
985.583,0.079945,406088,337812
989.355,0.080015,410162,341146
993.124,0.080024,412868,343390
996.888,0.081045,414263,343741
1000.65,0.081505,415476,344382
1004.4,0.083130,415479,343099
1009.41,0.084098,414358,341411
1013.15,0.084310,412923,340063
1016.89,0.084785,411526,338542
1020.63,0.084530,409066,336716
1024.36,0.084980,406777,334485
1028.09,0.084700,404427,332767
1031.82,0.084375,401911,330944
1036.78,0.084059,398410,328300
1040.49,0.083674,396204,326772
1044.2,0.083217,394236,325491
1047.91,0.083876,392042,323189
1051.61,0.083242,389823,321829
1055.31,0.082609,388234,320985
1059,0.082357,387599,320646
1063.92,0.081121,386688,320804
1067.61,0.081180,386598,320686
1071.29,0.080414,387377,321899
1074.96,0.080513,388536,322789
1078.63,0.079468,389855,324665
1082.3,0.078238,391215,326721
1085.96,0.077467,393215,328975
1090.84,0.077221,396270,331719
1094.49,0.076371,398760,334457
1098.14,0.075797,400987,336770
1101.79,0.075833,403477,338833
1105.43,0.075200,406116,341547
1109.06,0.075021,407701,343021
1112.7,0.073954,409859,345685
1117.53,0.072715,412494,348901
1121.15,0.073764,414909,350097
1124.77,0.074809,416559,350645
1128.38,0.075048,418532,352112
1131.99,0.076085,419956,352467
1135.6,0.077755,421946,352778
1139.2,0.079086,423881,353312
1143.99,0.081193,426786,354011
1147.58,0.081335,428617,355414
1151.17,0.082386,431169,356666
1154.75,0.083778,433579,357512
1158.33,0.084886,436264,358809
1161.91,0.086401,439132,359910
1165.48,0.088377,442389,360934
1169.04,0.090316,446101,362341
1173.79,0.094632,451929,363445
1177.34,0.096565,456026,365111
1180.9,0.098249,461306,367909
1184.44,0.100509,467657,371038
1187.99,0.100905,473969,375703
1191.52,0.101254,479856,380064
1195.06,0.101748,487372,385578
1199.76,0.100552,497347,394555
1203.29,0.099565,504311,400990
1206.81,0.099271,511507,406987
1210.33,0.098784,519078,413474
1213.84,0.098421,527163,420266
1217.35,0.097609,534208,426679
1220.85,0.096457,540472,432829
1225.51,0.095974,549929,440892
1229.01,0.095661,556888,446793
1232.5,0.094546,562180,452199
1235.98,0.094344,567975,457073
1239.46,0.093287,574815,463704
1242.94,0.091970,582782,471559
1246.41,0.092335,591476,478192
1251.03,0.091882,604016,488840
1254.5,0.091962,612289,495444
1257.96,0.092052,619125,500872
1261.41,0.092691,624551,504518
1264.86,0.093617,629900,507755
1268.31,0.093861,634345,511051
1271.75,0.094673,638574,513497
1276.33,0.094593,642499,516749
1279.76,0.094603,645905,519476
1283.19,0.094010,648307,522121
1286.61,0.093646,650446,524282
1290.03,0.093461,652132,525865
1293.44,0.092707,653907,528213
1296.85,0.092588,655963,530019
1301.39,0.092159,657349,531664
1304.8,0.092823,657558,531020
1308.19,0.092711,658515,531930
1311.58,0.092930,658804,531896
1314.97,0.093326,659011,531577
1318.36,0.093405,658272,530885
1321.73,0.093666,658022,530365
1326.23,0.094560,657870,529151
1329.6,0.095274,656482,527168
1332.97,0.096115,654926,524901
1336.33,0.096983,653727,522894
1339.69,0.098411,652497,520197
1343.04,0.099973,649913,516276
1346.39,0.102142,647671,511932
1349.73,0.104014,645338,507894
1354.18,0.107072,641175,501077
1357.52,0.109100,638376,496565
1360.85,0.111047,635805,492353
1364.17,0.112798,633413,488527
1367.49,0.115121,631026,484090
1370.81,0.117325,628050,479368
1374.12,0.119496,625034,474687
1378.54,0.122263,620272,468079
1381.84,0.125033,616892,462569
1385.14,0.128413,613613,456543
1388.43,0.131859,611526,451394
1391.72,0.136039,610663,446440
1395.01,0.139971,610634,442395
1398.29,0.144512,611700,438557
1402.66,0.150455,614051,434260
1405.93,0.156057,616268,430242
1409.2,0.160387,617795,427029
1412.46,0.165013,618872,423241
1415.72,0.168508,619795,420475
1418.98,0.172435,620495,417161
1422.23,0.175810,621087,414326
1426.56,0.179340,621375,411163
1429.8,0.181782,621616,409016
1433.04,0.184539,622129,406763
1436.27,0.186403,621526,404628
1439.5,0.188581,621113,402337
1442.72,0.191198,620921,399796
1445.94,0.193941,620270,396862
1450.23,0.197639,618860,392603
1453.44,0.199845,617697,389880
1456.64,0.202875,616264,386271
1459.85,0.205217,614413,383039
1463.04,0.208112,612307,379190
1466.24,0.211776,610032,374608
1469.43,0.215319,607345,369927
1473.67,0.221725,603789,362377
1476.85,0.226855,601175,356571
1480.02,0.233589,597737,349077
1483.19,0.239168,594479,342743
1486.36,0.245450,591232,335976
1489.52,0.250365,587853,330296
1492.68,0.253708,583875,325546
1496.89,0.255221,578062,321184
1500.03,0.256238,574159,318269
1503.18,0.256480,570285,315945
1506.32,0.255136,565444,314234
1509.45,0.254134,560571,312246
1512.58,0.252685,555821,310635
1515.71,0.249943,550344,309522
1519.87,0.246768,543983,308189
1522.99,0.244180,538764,307057
1526.1,0.241865,533692,305792
1529.21,0.238417,527902,304885
1532.32,0.236319,521886,302870
1535.42,0.233405,515888,301405
1538.51,0.230785,509987,299760
1541.6,0.227476,503936,298469
1545.72,0.223809,494694,295480
1548.8,0.220500,488378,293938
1551.88,0.219186,481832,290877
1554.95,0.216490,474989,288532
1558.02,0.214772,467818,285302
1561.08,0.214031,460730,281459
1564.15,0.213317,454170,277908
1568.22,0.212520,444181,272295
1571.27,0.211747,436947,268338
1574.32,0.211243,429598,264131
1577.36,0.210434,422039,259967
1580.4,0.208681,414375,256279
1583.43,0.206796,406354,252411
1586.46,0.205755,398475,248111
1590.49,0.203151,388982,243657
1593.51,0.201471,380708,239398
1596.53,0.199638,372727,235371
1599.54,0.197586,365060,231621
1602.55,0.195933,357543,227717
1605.55,0.195047,349495,223046
1608.55,0.192536,341154,218985
1612.54,0.189505,330877,213876
1615.53,0.188124,322904,209387
1618.51,0.188187,315116,204307
1621.49,0.186800,307217,199823
1624.47,0.185220,299481,195501
1627.44,0.183528,292112,191435
1630.41,0.183464,284245,186307
1634.36,0.182709,274079,179956
1637.32,0.182229,266916,175447
1640.27,0.181532,259612,170920
1643.22,0.180220,251804,166281
1646.16,0.178647,244348,161943
1649.1,0.177025,236703,157463
1652.04,0.175523,228171,152313
1655.95,0.173800,215408,144365
1658.88,0.169704,204937,138649
1661.8,0.164738,193395,132345
1664.72,0.155962,179728,125503
1667.63,0.145627,163642,117022
1670.54,0.129494,146312,108589
1673.44,0.113998,128451,98796
1677.31,0.095445,105080,84348
1680.21,0.081487,88906,73696
1683.1,0.074686,75033,63178
1685.99,0.080458,63520,52778
1688.87,0.083429,53714,44326
1691.75,0.085276,45653,37514
1694.62,0.087356,39137,32006
1697.49,0.091714,33776,27346
1701.31,0.109360,28175,21903