File: samples/wool/wool-000811/Column 1_050596_20150331_122144.csv
Method:,Column 1,,
Host Date-Time:,31/3/15 @ 12:21:44,,
Header Version:,1,,
System Temp (C):,33.92,,
Detector Temp (C):,34.67,,
Humidity (%):,1.76,,
Lamp PD:,3819,,
Shift Vector Coefficients:,-10.5391,0.0761263,-0.000134223,,
Pixel to Wavelength Coefficients:,1775.68,-0.916766,-0.000235065,,
Serial Number:,5510004,,
Scan Config Name:,Column 1,,
Scan Config Type:,Slew,,
Section 1,,
Start wavelength (nm):,900,,
End wavelength (nm):,1700,,
Pattern Pixel Width (nm):,   7.03,,,,
Exposure (ms):,  0.635,,,,
Digital Resolution:,228,,
Num Repeats:,6,,
PGA Gain:,64,,
Total Measurement Time in sec:,  2.680,,
Wavelength (nm),Absorbance (AU),Reference Signal (unitless),Sample Signal (unitless)
901.51,0.068909,108485,92568
905.376,0.077519,121306,101476
909.237,0.077695,131909,110301
913.095,0.078893,143299,119495
916.948,0.078977,156982,130880
922.079,0.080930,179937,149345
925.923,0.082138,200504,165953
929.762,0.083245,222660,183822
933.597,0.083020,244426,201896
937.427,0.082357,263972,218374
941.254,0.081082,281845,233845
945.076,0.080559,297271,246941
950.165,0.079476,315605,262826
953.978,0.078477,328029,273801
957.786,0.078978,340470,283858
961.59,0.079087,352317,293661
965.389,0.078811,363056,302805
969.185,0.078642,373162,311355
972.976,0.079057,382632,318951
976.763,0.080486,391202,325024
981.806,0.079723,400190,333076
985.583,0.080569,406088,337327
989.355,0.081374,410162,340080
993.124,0.081842,412868,341955
996.888,0.082123,414263,342889
1000.65,0.082575,415476,343535
1004.4,0.083461,415479,342837
1009.41,0.085141,414358,340592
1013.15,0.085443,412923,339177
1016.89,0.086130,411526,337495
1020.63,0.086236,409066,335396
1024.36,0.086076,406777,333642
1028.09,0.085943,404427,331816
1031.82,0.085856,401911,329818
1036.78,0.085472,398410,327234
1040.49,0.085218,396204,325612
1044.2,0.085390,394236,323867
1047.91,0.084403,392042,322797
1051.61,0.084538,389823,320870
1055.31,0.083915,388234,320021
1059,0.083912,387599,319500
1063.92,0.082623,386688,319696
1067.61,0.083078,386598,319287
1071.29,0.081828,387377,320853
1074.96,0.081698,388536,321909
1078.63,0.081391,389855,323230
1082.3,0.079634,391215,325673
1085.96,0.079036,393215,327789
1090.84,0.077997,396270,331127
1094.49,0.077785,398760,333370
1098.14,0.077148,400987,335724
1101.79,0.076046,403477,338667
1105.43,0.076208,406116,340755
1109.06,0.075238,407701,342850
1112.7,0.075300,409859,344615
1117.53,0.074825,412494,347210
1121.15,0.075337,414909,348832
1124.77,0.075537,416559,350058
1128.38,0.076863,418532,350643
1131.99,0.077746,419956,351122
1135.6,0.078843,421946,351896
1139.2,0.080721,423881,351984
1143.99,0.082354,426786,353066
1147.58,0.082968,428617,354080
1151.17,0.084345,431169,355061
1154.75,0.084720,433579,356737
1158.33,0.086646,436264,357358
1161.91,0.088463,439132,358205
1165.48,0.090476,442389,359193
1169.04,0.092580,446101,360457
1173.79,0.096022,451929,362283
1177.34,0.097895,456026,363994
1180.9,0.099833,461306,366569
1184.44,0.101672,467657,370046
1187.99,0.103019,473969,373879
1191.52,0.103307,479856,378272
1195.06,0.103166,487372,384321
1199.76,0.102130,497347,393124
1203.29,0.101199,504311,399484
1206.81,0.100732,511507,405620
1210.33,0.100078,519078,412244
1213.84,0.100115,527163,418630
1217.35,0.098773,534208,425537
1220.85,0.098016,540472,431278
1225.51,0.097962,549929,438879
1229.01,0.096857,556888,445565
1232.5,0.096652,562180,450011
1235.98,0.095893,567975,455445
1239.46,0.094960,574815,461921
1242.94,0.093929,582782,469437
1246.41,0.093292,591476,477139
1251.03,0.093109,604016,487461
1254.5,0.093131,612289,494112
1257.96,0.093526,619125,499175
1261.41,0.094396,624551,502541
1264.86,0.094981,629900,506163
1268.31,0.095240,634345,509431
1271.75,0.095912,638574,512035
1276.33,0.096450,642499,514544
1279.76,0.095766,645905,518087
1283.19,0.096218,648307,519473
1286.61,0.095461,650446,522096
1290.03,0.094835,652132,524204
1293.44,0.094385,653907,526176
1296.85,0.093852,655963,528479
1301.39,0.093818,657349,529637
1304.8,0.093720,657558,529925
1308.19,0.093992,658515,530364
1311.58,0.094018,658804,530565
1314.97,0.094989,659011,529546
1318.36,0.095193,658272,528704
1321.73,0.095606,658022,528000
1326.23,0.096318,657870,527014
1329.6,0.097421,656482,524568
1332.97,0.098148,654926,522449
1336.33,0.099018,653727,520449
1339.69,0.100590,652497,517593
1343.04,0.101975,649913,513902
1346.39,0.104210,647671,509500
1349.73,0.106175,645338,505373
1354.18,0.109179,641175,498652
1357.52,0.111024,638376,494370
1360.85,0.112851,635805,490312
1364.17,0.115257,633413,485769
1367.49,0.117191,631026,481788
1370.81,0.119280,628050,477215
1374.12,0.121446,625034,472561
1378.54,0.124297,620272,465892
1381.84,0.127444,616892,460008
1385.14,0.130496,613613,454358
1388.43,0.134331,611526,448832
1391.72,0.139116,610663,443288
1395.01,0.143371,610634,438945
1398.29,0.148032,611700,435017
1402.66,0.154604,614051,430131
1405.93,0.159622,616268,426725
1409.2,0.164536,617795,422969
1412.46,0.169270,618872,419113
1415.72,0.172989,619795,416159
1418.98,0.176929,620495,412866
1422.23,0.180824,621087,409570
1426.56,0.184389,621375,406410
1429.8,0.186972,621616,404157
1433.04,0.189483,622129,402159
1436.27,0.191658,621526,399762
1439.5,0.193653,621113,397665
1442.72,0.196194,620921,395223
1445.94,0.198619,620270,392610
1450.23,0.201494,618860,389133
1453.44,0.204679,617697,385564
1456.64,0.207264,616264,382387
1459.85,0.209715,614413,379093
1463.04,0.212775,612307,375141
1466.24,0.215920,610032,371050
1469.43,0.219574,607345,366321
1473.67,0.225711,603789,359066
1476.85,0.231150,601175,353062
1480.02,0.236471,597737,346768
1483.19,0.242987,594479,339742
1486.36,0.248270,591232,333801
1489.52,0.252695,587853,328529
1492.68,0.256341,583875,323578
1496.89,0.259191,578062,318261
1500.03,0.258776,574159,316414
1503.18,0.259111,570285,314037
1506.32,0.257918,565444,312228
1509.45,0.256485,560571,310560
1512.58,0.255002,555821,308982
1515.71,0.253253,550344,307172
1519.87,0.250176,543983,305780
1522.99,0.247331,538764,304837
1526.1,0.245115,533692,303512
1529.21,0.241647,527902,302626
1532.32,0.239309,521886,300792
1535.42,0.236030,515888,299589
1538.51,0.233079,509987,298181
1541.6,0.230422,503936,296451
1545.72,0.226258,494694,293818
1548.8,0.223396,488378,291985
1551.88,0.221516,481832,289321
1554.95,0.219670,474989,286427
1558.02,0.217928,467818,283236
1561.08,0.216919,460730,279594
1564.15,0.215938,454170,276236
1568.22,0.215251,444181,270588
1571.27,0.214552,436947,266610
1574.32,0.214031,429598,262441
1577.36,0.212140,422039,258948
1580.4,0.211974,414375,254343
1583.43,0.209383,406354,250912
1586.46,0.208420,398475,246593
1590.49,0.206084,388982,242017
1593.51,0.205992,380708,236919
1596.53,0.202108,372727,234036
1599.54,0.199903,365060,230389
1602.55,0.198891,357543,226171
1605.55,0.196715,349495,222191
1608.55,0.194426,341154,218034
1612.54,0.191928,330877,212686
1615.53,0.190783,322904,208109
1618.51,0.189705,315116,203594
1621.49,0.188933,307217,198844
1624.47,0.187624,299481,194422
1627.44,0.185878,292112,190402
1630.41,0.185857,284245,185283
1634.36,0.184504,274079,179214
1637.32,0.183662,266916,174869
1640.27,0.184551,259612,169736
1643.22,0.182545,251804,165393
1646.16,0.181580,244348,160853
1649.1,0.179870,236703,156435
1652.04,0.179401,228171,150959
1655.95,0.176044,215408,143621
1658.88,0.171921,204937,137943
1661.8,0.166154,193395,131914
1664.72,0.160396,179728,124228
1667.63,0.146694,163642,116735
1670.54,0.132915,146312,107737
1673.44,0.116613,128451,98203
1677.31,0.098416,105080,83773
1680.21,0.085721,88906,72981
1683.1,0.080444,75033,62346
1685.99,0.080499,63520,52773
1688.87,0.086201,53714,44044
1691.75,0.093799,45653,36785
1694.62,0.098016,39137,31230
1697.49,0.101967,33776,26708
1701.31,0.102749,28175,22239