File: samples/wool/wool-000811/Column 1_050536_20150331_115301.csv
Method:,Column 1,,
Host Date-Time:,31/3/15 @ 11:53:1,,
Header Version:,1,,
System Temp (C):,31.42,,
Detector Temp (C):,30.17,,
Humidity (%):,3.71,,
Lamp PD:,3827,,
Shift Vector Coefficients:,-10.5391,0.0761263,-0.000134223,,
Pixel to Wavelength Coefficients:,1775.68,-0.916766,-0.000235065,,
Serial Number:,5510004,,
Scan Config Name:,Column 1,,
Scan Config Type:,Slew,,
Section 1,,
Start wavelength (nm):,900,,
End wavelength (nm):,1700,,
Pattern Pixel Width (nm):,   7.03,,,,
Exposure (ms):,  0.635,,,,
Digital Resolution:,228,,
Num Repeats:,6,,
PGA Gain:,64,,
Total Measurement Time in sec:,  2.661,,
Wavelength (nm),Absorbance (AU),Reference Signal (unitless),Sample Signal (unitless)
901.51,0.043931,108485,98048
905.376,0.049796,121306,108165
909.237,0.051591,131909,117134
913.095,0.051176,143299,127370
916.948,0.051039,156982,139576
922.079,0.050062,179937,160346
925.923,0.050064,200504,178673
929.762,0.050990,222660,197994
933.597,0.051638,244426,217025
937.427,0.052476,263972,233928
941.254,0.052161,281845,249948
945.076,0.052735,297271,263280
950.165,0.053622,315605,278947
953.978,0.053071,328029,290296
957.786,0.053580,340470,300953
961.59,0.054352,352317,310872
965.389,0.054853,363056,319978
969.185,0.054845,373162,328891
972.976,0.055389,382632,336816
976.763,0.056907,391202,343158
981.806,0.056341,400190,351500
985.583,0.057723,406088,355547
989.355,0.057903,410162,358965
993.124,0.058487,412868,360848
996.888,0.059099,414263,361557
1000.65,0.060495,415476,361452
1004.4,0.061285,415479,360798
1009.41,0.062428,414358,358879
1013.15,0.062332,412923,357715
1016.89,0.063475,411526,355568
1020.63,0.063117,409066,353734
1024.36,0.063435,406777,351497
1028.09,0.062798,404427,349979
1031.82,0.062362,401911,348151
1036.78,0.061826,398410,345545
1040.49,0.060921,396204,344348
1044.2,0.060992,394236,342582
1047.91,0.060366,392042,341167
1051.61,0.059286,389823,340080
1055.31,0.058995,388234,338921
1059,0.058521,387599,338736
1063.92,0.057267,386688,338917
1067.61,0.055772,386598,340007
1071.29,0.055563,387377,340856
1074.96,0.054560,388536,342666
1078.63,0.054401,389855,343955
1082.3,0.053538,391215,345842
1085.96,0.052559,393215,348394
1090.84,0.051392,396270,352046
1094.49,0.051595,398760,354092
1098.14,0.050836,400987,356693
1101.79,0.051028,403477,358749
1105.43,0.050565,406116,361481
1109.06,0.049518,407701,363767
1112.7,0.050230,409859,365094
1117.53,0.050677,412494,367063
1121.15,0.051433,414909,368570
1124.77,0.052189,416559,369392
1128.38,0.053114,418532,370352
1131.99,0.055036,419956,369971
1135.6,0.056715,421946,370290
1139.2,0.059097,423881,369953
1143.99,0.061722,426786,370244
1147.58,0.062413,428617,371241
1151.17,0.064226,431169,371896
1154.75,0.065896,433579,372539
1158.33,0.067768,436264,373234
1161.91,0.070295,439132,373508
1165.48,0.073532,442389,373484
1169.04,0.076102,446101,374396
1173.79,0.080613,451929,375368
1177.34,0.083465,456026,376292
1180.9,0.085505,461306,378865
1184.44,0.087449,467657,382365
1187.99,0.088306,473969,386762
1191.52,0.087856,479856,391972
1195.06,0.087528,487372,398412
1199.76,0.085815,497347,408173
1203.29,0.084546,504311,415100
1206.81,0.083570,511507,421970
1210.33,0.081918,519078,429848
1213.84,0.081237,527163,437228
1217.35,0.079837,534208,444502
1220.85,0.078864,540472,450722
1225.51,0.077590,549929,459956
1229.01,0.076974,556888,466438
1232.5,0.076055,562180,471868
1235.98,0.075163,567975,477712
1239.46,0.073812,574815,484971
1242.94,0.072561,582782,493111
1246.41,0.072451,591476,500595
1251.03,0.072166,604016,511543
1254.5,0.071373,612289,519498
1257.96,0.072045,619125,524485
1261.41,0.072352,624551,528708
1264.86,0.073417,629900,531930
1268.31,0.073958,634345,535017
1271.75,0.074628,638574,537754
1276.33,0.075221,642499,540320
1279.76,0.075333,645905,543045
1283.19,0.074215,648307,546469
1286.61,0.073837,650446,548750
1290.03,0.073752,652132,550280
1293.44,0.073580,653907,551996
1296.85,0.072698,655963,554857
1301.39,0.072586,657349,556173
1304.8,0.072645,657558,556274
1308.19,0.073222,658515,556344
1311.58,0.073116,658804,556724
1314.97,0.073916,659011,555874
1318.36,0.074642,658272,554324
1321.73,0.074851,658022,553847
1326.23,0.076066,657870,552171
1329.6,0.077201,656482,549569
1332.97,0.078241,654926,546954
1336.33,0.079725,653727,544091
1339.69,0.081772,652497,540513
1343.04,0.083631,649913,536073
1346.39,0.086154,647671,531129
1349.73,0.088695,645338,526129
1354.18,0.092266,641175,518454
1357.52,0.094411,638376,513648
1360.85,0.097337,635805,508144
1364.17,0.099316,633413,503931
1367.49,0.102607,631026,498242
1370.81,0.105015,628050,493150
1374.12,0.107979,625034,487444
1378.54,0.111688,620272,479617
1381.84,0.115796,616892,472512
1385.14,0.120706,613613,464717
1388.43,0.126087,611526,457433
1391.72,0.132139,610663,450467
1395.01,0.137752,610634,444661
1398.29,0.144256,611700,438816
1402.66,0.153814,614051,430914
1405.93,0.159925,616268,426427
1409.2,0.166973,617795,420602
1412.46,0.173300,618872,415242
1415.72,0.179081,619795,410362
1418.98,0.183403,620495,406757
1422.23,0.188020,621087,402840
1426.56,0.193128,621375,398314
1429.8,0.196600,621616,395296
1433.04,0.199396,622129,393083
1436.27,0.202065,621526,390296
1439.5,0.203976,621113,388324
1442.72,0.206889,620921,385609
1445.94,0.209719,620270,382703
1450.23,0.212984,618860,378973
1453.44,0.216012,617697,375633
1456.64,0.218967,616264,372220
1459.85,0.221254,614413,369153
1463.04,0.224503,612307,365146
1466.24,0.227882,610032,360970
1469.43,0.230353,607345,357341
1473.67,0.235239,603789,351274
1476.85,0.239614,601175,346248
1480.02,0.245210,597737,339860
1483.19,0.251284,594479,333313
1486.36,0.256259,591232,327717
1489.52,0.261472,587853,321956
1492.68,0.264831,583875,317314
1496.89,0.267983,578062,311883
1500.03,0.268759,574159,309224
1503.18,0.269211,570285,306818
1506.32,0.268489,565444,304720
1509.45,0.266982,560571,303144
1512.58,0.266175,555821,301134
1515.71,0.263824,550344,299785
1519.87,0.260497,543983,298599
1522.99,0.258004,538764,297437
1526.1,0.255519,533692,296327
1529.21,0.252183,527902,295373
1532.32,0.249440,521886,293857
1535.42,0.245789,515888,292932
1538.51,0.242084,509987,292062
1541.6,0.239196,503936,290522
1545.72,0.234463,494694,288319
1548.8,0.231038,488378,286892
1551.88,0.228505,481832,284702
1554.95,0.225684,474989,282488
1558.02,0.223851,467818,279400
1561.08,0.222298,460730,276152
1564.15,0.221376,454170,272799
1568.22,0.220158,444181,267548
1571.27,0.219230,436947,263754
1574.32,0.218368,429598,259833
1577.36,0.216928,422039,256109
1580.4,0.215640,414375,252205
1583.43,0.213065,406354,248794
1586.46,0.211969,398475,244586
1590.49,0.209494,388982,240124
1593.51,0.206258,380708,236774
1596.53,0.203703,372727,233178
1599.54,0.201648,365060,229465
1602.55,0.199347,357543,225934
1605.55,0.196484,349495,222309
1608.55,0.194739,341154,217877
1612.54,0.192678,330877,212319
1615.53,0.189077,322904,208928
1618.51,0.188119,315116,204339
1621.49,0.186448,307217,199985
1624.47,0.185620,299481,195321
1627.44,0.183676,292112,191370
1630.41,0.182942,284245,186531
1634.36,0.180937,274079,180692
1637.32,0.178016,266916,177157
1640.27,0.179213,259612,171835
1643.22,0.176543,251804,167695
1646.16,0.176675,244348,162680
1649.1,0.176460,236703,157668
1652.04,0.174874,228171,152541
1655.95,0.175123,215408,143926
1658.88,0.172440,204937,137778
1661.8,0.172342,193395,130048
1664.72,0.170805,179728,121286
1667.63,0.168036,163642,111137
1670.54,0.163187,146312,100483
1673.44,0.160007,128451,88865
1677.31,0.159902,105080,72714
1680.21,0.160678,88906,61412
1683.1,0.160177,75033,51889
1685.99,0.167296,63520,43213
1688.87,0.174558,53714,35936
1691.75,0.174018,45653,30581
1694.62,0.182046,39137,25736
1697.49,0.186482,33776,21985
1701.31,0.186962,28175,18319