File: samples/wool/wool-000811/Column 1_050548_20150331_115905.csv
Method:,Column 1,,
Host Date-Time:,31/3/15 @ 11:59:5,,
Header Version:,1,,
System Temp (C):,33.21,,
Detector Temp (C):,31.91,,
Humidity (%):,2.34,,
Lamp PD:,3822,,
Shift Vector Coefficients:,-10.5391,0.0761263,-0.000134223,,
Pixel to Wavelength Coefficients:,1775.68,-0.916766,-0.000235065,,
Serial Number:,5510004,,
Scan Config Name:,Column 1,,
Scan Config Type:,Slew,,
Section 1,,
Start wavelength (nm):,900,,
End wavelength (nm):,1700,,
Pattern Pixel Width (nm):,   7.03,,,,
Exposure (ms):,  0.635,,,,
Digital Resolution:,228,,
Num Repeats:,6,,
PGA Gain:,64,,
Total Measurement Time in sec:,  2.663,,
Wavelength (nm),Absorbance (AU),Reference Signal (unitless),Sample Signal (unitless)
901.51,0.044392,108485,97944
905.376,0.052668,121306,107452
909.237,0.053624,131909,116587
913.095,0.055532,143299,126099
916.948,0.055839,156982,138042
922.079,0.056266,179937,158072
925.923,0.056874,200504,175893
929.762,0.057269,222660,195152
933.597,0.057387,244426,214171
937.427,0.058333,263972,230794
941.254,0.057898,281845,246668
945.076,0.057805,297271,260224
950.165,0.056572,315605,277059
953.978,0.056304,328029,288143
957.786,0.056129,340470,299192
961.59,0.056644,352317,309236
965.389,0.056827,363056,318527
969.185,0.057424,373162,326944
972.976,0.057796,382632,334954
976.763,0.058818,391202,341651
981.806,0.059258,400190,349147
985.583,0.060311,406088,353435
989.355,0.060937,410162,356466
993.124,0.061434,412868,358408
996.888,0.061682,414263,359413
1000.65,0.062180,415476,360053
1004.4,0.062906,415479,359454
1009.41,0.065018,414358,356745
1013.15,0.065144,412923,355406
1016.89,0.065876,411526,353607
1020.63,0.065651,409066,351676
1024.36,0.065340,406777,349958
1028.09,0.065021,404427,348192
1031.82,0.064938,401911,346092
1036.78,0.063562,398410,344166
1040.49,0.063776,396204,342092
1044.2,0.063303,394236,340764
1047.91,0.062476,392042,339513
1051.61,0.061845,389823,338082
1055.31,0.061495,388234,336976
1059,0.060737,387599,337012
1063.92,0.059615,386688,337090
1067.61,0.058653,386598,337759
1071.29,0.058289,387377,338723
1074.96,0.056639,388536,341030
1078.63,0.056282,389855,342469
1082.3,0.055452,391215,344321
1085.96,0.054794,393215,346606
1090.84,0.053800,396270,350099
1094.49,0.053543,398760,352508
1098.14,0.052974,400987,354941
1101.79,0.052876,403477,357226
1105.43,0.052622,406116,359773
1109.06,0.052933,407701,360918
1112.7,0.051969,409859,363635
1117.53,0.051963,412494,365978
1121.15,0.053167,414909,367101
1124.77,0.053846,416559,367985
1128.38,0.054908,418532,368825
1131.99,0.056599,419956,368642
1135.6,0.058995,421946,368351
1139.2,0.060328,423881,368906
1143.99,0.063443,426786,368780
1147.58,0.064938,428617,369089
1151.17,0.066006,431169,370375
1154.75,0.067405,433579,371247
1158.33,0.069320,436264,371903
1161.91,0.071807,439132,372210
1165.48,0.074171,442389,372935
1169.04,0.077202,446101,373449
1173.79,0.081847,451929,374303
1177.34,0.084675,456026,375245
1180.9,0.087187,461306,377400
1184.44,0.089864,467657,380245
1187.99,0.089987,473969,385268
1191.52,0.089392,479856,390588
1195.06,0.089037,487372,397030
1199.76,0.087181,497347,406891
1203.29,0.085706,504311,413992
1206.81,0.085181,511507,420408
1210.33,0.084019,519078,427773
1213.84,0.082576,527163,435882
1217.35,0.082045,534208,442247
1220.85,0.080150,540472,449390
1225.51,0.078902,549929,458569
1229.01,0.078377,556888,464934
1232.5,0.077373,562180,470438
1235.98,0.076261,567975,476506
1239.46,0.075630,574815,482945
1242.94,0.074786,582782,490592
1246.41,0.073452,591476,499442
1251.03,0.073116,604016,510426
1254.5,0.073023,612289,517527
1257.96,0.073641,619125,522562
1261.41,0.074024,624551,526677
1264.86,0.074646,629900,530427
1268.31,0.075621,634345,532972
1271.75,0.076363,638574,535609
1276.33,0.076226,642499,539071
1279.76,0.076561,645905,541512
1283.19,0.075970,648307,544265
1286.61,0.075416,650446,546758
1290.03,0.075203,652132,548444
1293.44,0.074450,653907,550891
1296.85,0.074683,655963,552327
1301.39,0.074065,657349,554282
1304.8,0.073830,657558,554759
1308.19,0.073977,658515,555378
1311.58,0.074543,658804,554898
1314.97,0.074931,659011,554577
1318.36,0.075592,658272,553112
1321.73,0.076067,658022,552298
1326.23,0.077026,657870,550952
1329.6,0.077957,656482,548613
1332.97,0.078883,654926,546146
1336.33,0.080292,653727,543381
1339.69,0.082104,652497,540101
1343.04,0.084022,649913,535591
1346.39,0.086152,647671,531132
1349.73,0.088972,645338,525794
1354.18,0.092542,641175,518125
1357.52,0.094872,638376,513103
1360.85,0.097032,635805,508501
1364.17,0.099859,633413,503301
1367.49,0.102093,631026,498832
1370.81,0.105130,628050,493020
1374.12,0.108058,625034,487355
1378.54,0.111330,620272,480012
1381.84,0.115182,616892,473181
1385.14,0.119909,613613,465571
1388.43,0.124908,611526,458677
1391.72,0.130823,610663,451834
1395.01,0.135410,610634,447065
1398.29,0.141681,611700,441426
1402.66,0.149761,614051,434954
1405.93,0.156354,616268,429948
1409.2,0.162134,617795,425315
1412.46,0.167972,618872,420367
1415.72,0.172793,619795,416347
1418.98,0.177564,620495,412263
1422.23,0.181417,621087,409011
1426.56,0.185989,621375,404916
1429.8,0.189124,621616,402159
1433.04,0.191923,622129,399906
1436.27,0.194469,621526,397183
1439.5,0.196437,621113,395124
1442.72,0.199023,620921,392657
1445.94,0.201804,620270,389742
1450.23,0.205610,618860,385463
1453.44,0.208842,617697,381886
1456.64,0.211725,616264,378479
1459.85,0.214233,614413,375169
1463.04,0.217155,612307,371376
1466.24,0.220290,610032,367335
1469.43,0.223321,607345,363174
1473.67,0.229378,603789,356047
1476.85,0.234300,601175,350510
1480.02,0.240423,597737,343627
1483.19,0.247248,594479,336425
1486.36,0.252945,591232,330227
1489.52,0.258493,587853,324172
1492.68,0.262121,583875,319300
1496.89,0.265569,578062,313621
1500.03,0.266445,574159,310876
1503.18,0.266968,570285,308407
1506.32,0.265813,565444,306603
1509.45,0.265367,560571,304273
1512.58,0.263257,555821,303164
1515.71,0.261272,550344,301552
1519.87,0.258535,543983,299951
1522.99,0.255263,538764,299320
1526.1,0.252426,533692,298445
1529.21,0.249101,527902,297476
1532.32,0.246598,521886,295786
1535.42,0.243289,515888,294623
1538.51,0.239423,509987,293857
1541.6,0.236688,503936,292205
1545.72,0.230953,494694,290659
1548.8,0.227319,488378,289359
1551.88,0.225351,481832,286777
1554.95,0.222601,474989,284500
1558.02,0.221190,467818,281117
1561.08,0.220029,460730,277599
1564.15,0.218932,454170,274338
1568.22,0.217968,444181,268901
1571.27,0.217742,436947,264659
1574.32,0.216457,429598,260979
1577.36,0.215060,422039,257213
1580.4,0.212110,414375,254263
1583.43,0.210900,406354,250037
1586.46,0.209046,398475,246238
1590.49,0.206249,388982,241925
1593.51,0.204313,380708,237837
1596.53,0.201956,372727,234118
1599.54,0.199861,365060,230411
1602.55,0.196439,357543,227452
1605.55,0.194611,349495,223270
1608.55,0.192723,341154,218891
1612.54,0.190037,330877,213614
1615.53,0.187241,322904,209813
1618.51,0.185599,315116,205528
1621.49,0.184627,307217,200825
1624.47,0.183108,299481,196454
1627.44,0.181760,292112,192216
1630.41,0.179967,284245,187813
1634.36,0.179325,274079,181364
1637.32,0.177323,266916,177440
1640.27,0.176985,259612,172719
1643.22,0.174561,251804,168462
1646.16,0.173573,244348,163846
1649.1,0.173720,236703,158666
1652.04,0.172540,228171,153363
1655.95,0.170181,215408,145573
1658.88,0.167386,204937,139391
1661.8,0.164977,193395,132272
1664.72,0.159471,179728,124493
1667.63,0.152733,163642,115123
1670.54,0.146301,146312,104467
1673.44,0.136961,128451,93708
1677.31,0.126661,105080,78498
1680.21,0.122604,88906,67039
1683.1,0.126437,75033,56081
1685.99,0.131275,63520,46950
1688.87,0.136082,53714,39265
1691.75,0.139969,45653,33075
1694.62,0.141707,39137,28241
1697.49,0.147565,33776,24046
1701.31,0.148096,28175,20034