File: samples/wool/wool-000811/Column 1_050536_20150331_115318.csv
Method:,Column 1,,
Host Date-Time:,31/3/15 @ 11:53:18,,
Header Version:,1,,
System Temp (C):,31.54,,
Detector Temp (C):,30.12,,
Humidity (%):,3.61,,
Lamp PD:,3826,,
Shift Vector Coefficients:,-10.5391,0.0761263,-0.000134223,,
Pixel to Wavelength Coefficients:,1775.68,-0.916766,-0.000235065,,
Serial Number:,5510004,,
Scan Config Name:,Column 1,,
Scan Config Type:,Slew,,
Section 1,,
Start wavelength (nm):,900,,
End wavelength (nm):,1700,,
Pattern Pixel Width (nm):,   7.03,,,,
Exposure (ms):,  0.635,,,,
Digital Resolution:,228,,
Num Repeats:,6,,
PGA Gain:,64,,
Total Measurement Time in sec:,  2.718,,
Wavelength (nm),Absorbance (AU),Reference Signal (unitless),Sample Signal (unitless)
901.51,0.042154,108485,98450
905.376,0.048236,121306,108554
909.237,0.050991,131909,117296
913.095,0.049988,143299,127719
916.948,0.050271,156982,139823
922.079,0.048791,179937,160816
925.923,0.049649,200504,178844
929.762,0.050949,222660,198013
933.597,0.050756,244426,217466
937.427,0.051610,263972,234395
941.254,0.052098,281845,249984
945.076,0.051879,297271,263799
950.165,0.051921,315605,280042
953.978,0.052267,328029,290834
957.786,0.052226,340470,301893
961.59,0.053866,352317,311220
965.389,0.053360,363056,321080
969.185,0.053699,373162,329760
972.976,0.053898,382632,337974
976.763,0.054932,391202,344722
981.806,0.055349,400190,352304
985.583,0.056751,406088,356344
989.355,0.057241,410162,359513
993.124,0.057911,412868,361327
996.888,0.058581,414263,361989
1000.65,0.059375,415476,362386
1004.4,0.060084,415479,361797
1009.41,0.061330,414358,359787
1013.15,0.061466,412923,358429
1016.89,0.062931,411526,356013
1020.63,0.062577,409066,354174
1024.36,0.062163,406777,352528
1028.09,0.061953,404427,350661
1031.82,0.061801,401911,348601
1036.78,0.061263,398410,345993
1040.49,0.060527,396204,344661
1044.2,0.060393,394236,343055
1047.91,0.059874,392042,341553
1051.61,0.058262,389823,340883
1055.31,0.058453,388234,339344
1059,0.057361,387599,339642
1063.92,0.055988,386688,339917
1067.61,0.054845,386598,340733
1071.29,0.054305,387377,341845
1074.96,0.053057,388536,343854
1078.63,0.052810,389855,345218
1082.3,0.052533,391215,346643
1085.96,0.051812,393215,348994
1090.84,0.051042,396270,352330
1094.49,0.050612,398760,354895
1098.14,0.050316,400987,357120
1101.79,0.050324,403477,359331
1105.43,0.050231,406116,361759
1109.06,0.049830,407701,363506
1112.7,0.049323,409859,365857
1117.53,0.048803,412494,368650
1121.15,0.050230,414909,369592
1124.77,0.050735,416559,370631
1128.38,0.052067,418532,371246
1131.99,0.054343,419956,370562
1135.6,0.056103,421946,370812
1139.2,0.058520,423881,370445
1143.99,0.061244,426786,370652
1147.58,0.061850,428617,371723
1151.17,0.063599,431169,372433
1154.75,0.064903,433579,373392
1158.33,0.067090,436264,373817
1161.91,0.070394,439132,373423
1165.48,0.071991,442389,374812
1169.04,0.075314,446101,375076
1173.79,0.079666,451929,376187
1177.34,0.082889,456026,376791
1180.9,0.084767,461306,379509
1184.44,0.087290,467657,382505
1187.99,0.087751,473969,387257
1191.52,0.087756,479856,392062
1195.06,0.086371,487372,399475
1199.76,0.084868,497347,409064
1203.29,0.084035,504311,415588
1206.81,0.082641,511507,422874
1210.33,0.081413,519078,430348
1213.84,0.080508,527163,437962
1217.35,0.079562,534208,444783
1220.85,0.077709,540472,451923
1225.51,0.076811,549929,460782
1229.01,0.076031,556888,467452
1232.5,0.075218,562180,472778
1235.98,0.074629,567975,478300
1239.46,0.073294,574815,485550
1242.94,0.072052,582782,493690
1246.41,0.071322,591476,501898
1251.03,0.070973,604016,512951
1254.5,0.071170,612289,519740
1257.96,0.071446,619125,525209
1261.41,0.072128,624551,528981
1264.86,0.072442,629900,533126
1268.31,0.073191,634345,535963
1271.75,0.073635,638574,538985
1276.33,0.074395,642499,541349
1279.76,0.074168,645905,544503
1283.19,0.073412,648307,547481
1286.61,0.073133,650446,549640
1290.03,0.072769,652132,551527
1293.44,0.072334,653907,553582
1296.85,0.072326,655963,555333
1301.39,0.072045,657349,556866
1304.8,0.071823,657558,557328
1308.19,0.072099,658515,557785
1311.58,0.072609,658804,557375
1314.97,0.073289,659011,556677
1318.36,0.073851,658272,555334
1321.73,0.074291,658022,554561
1326.23,0.075137,657870,553354
1329.6,0.076407,656482,550574
1332.97,0.077537,654926,547842
1336.33,0.079098,653727,544877
1339.69,0.081177,652497,541254
1343.04,0.082778,649913,537127
1346.39,0.085414,647671,532035
1349.73,0.087600,645338,527457
1354.18,0.091672,641175,519164
1357.52,0.093995,638376,514140
1360.85,0.096529,635805,509090
1364.17,0.098897,633413,504417
1367.49,0.101676,631026,499311
1370.81,0.104586,628050,493638
1374.12,0.107034,625034,488506
1378.54,0.111263,620272,480086
1381.84,0.115042,616892,473333
1385.14,0.119981,613613,465493
1388.43,0.125541,611526,458009
1391.72,0.131254,610663,451385
1395.01,0.136719,610634,445720
1398.29,0.143833,611700,439244
1402.66,0.152252,614051,432466
1405.93,0.159443,616268,426900
1409.2,0.166126,617795,421423
1412.46,0.172690,618872,415825
1415.72,0.178352,619795,411051
1418.98,0.182726,620495,407392
1422.23,0.187054,621087,403737
1426.56,0.191978,621375,399370
1429.8,0.195334,621616,396450
1433.04,0.197879,622129,394459
1436.27,0.200660,621526,391561
1439.5,0.203067,621113,389138
1442.72,0.205589,620921,386765
1445.94,0.208372,620270,383892
1450.23,0.212425,618860,379461
1453.44,0.215042,617697,376473
1456.64,0.218297,616264,372795
1459.85,0.220755,614413,369577
1463.04,0.223192,612307,366250
1466.24,0.225548,610032,362915
1469.43,0.229070,607345,358398
1473.67,0.233858,603789,352393
1476.85,0.239100,601175,346658
1480.02,0.244257,597737,340607
1483.19,0.250606,594479,333834
1486.36,0.256085,591232,327848
1489.52,0.260612,587853,322594
1492.68,0.264646,583875,317449
1496.89,0.266351,578062,313057
1500.03,0.268411,574159,309472
1503.18,0.268134,570285,307580
1506.32,0.268110,565444,304986
1509.45,0.266561,560571,303438
1512.58,0.265714,555821,301454
1515.71,0.262664,550344,300587
1519.87,0.259709,543983,299141
1522.99,0.257019,538764,298112
1526.1,0.254094,533692,297301
1529.21,0.251765,527902,295657
1532.32,0.248594,521886,294430
1535.42,0.245046,515888,293433
1538.51,0.241701,509987,292320
1541.6,0.238569,503936,290942
1545.72,0.233547,494694,288928
1548.8,0.230597,488378,287183
1551.88,0.227522,481832,285347
1554.95,0.225189,474989,282810
1558.02,0.223420,467818,279677
1561.08,0.221640,460730,276571
1564.15,0.220863,454170,273121
1568.22,0.219636,444181,267870
1571.27,0.218480,436947,264210
1574.32,0.218403,429598,259812
1577.36,0.216448,422039,256392
1580.4,0.214682,414375,252762
1583.43,0.212686,406354,249011
1586.46,0.210964,398475,245153
1590.49,0.208201,388982,240840
1593.51,0.206034,380708,236896
1596.53,0.202924,372727,233597
1599.54,0.201007,365060,229804
1602.55,0.199431,357543,225890
1605.55,0.196318,349495,222394
1608.55,0.194157,341154,218169
1612.54,0.191956,330877,212672
1615.53,0.189780,322904,208590
1618.51,0.187295,315116,204727
1621.49,0.185528,307217,200409
1624.47,0.184812,299481,195685
1627.44,0.182841,292112,191738
1630.41,0.181705,284245,187063
1634.36,0.179775,274079,181176
1637.32,0.178450,266916,176980
1640.27,0.178650,259612,172058
1643.22,0.176838,251804,167581
1646.16,0.176450,244348,162764
1649.1,0.174863,236703,158249
1652.04,0.173036,228171,153188
1655.95,0.172544,215408,144783
1658.88,0.171974,204937,137926
1661.8,0.172886,193395,129885
1664.72,0.170501,179728,121371
1667.63,0.166748,163642,111467
1670.54,0.163373,146312,100440
1673.44,0.160750,128451,88713
1677.31,0.156564,105080,73275
1680.21,0.157290,88906,61893
1683.1,0.160437,75033,51858
1685.99,0.167035,63520,43239
1688.87,0.176447,53714,35780
1691.75,0.173663,45653,30606
1694.62,0.182857,39137,25688
1697.49,0.181161,33776,22256
1701.31,0.191586,28175,18125