File: samples/wool/wool-000811/Column 1_050574_20150331_121112.csv
Method:,Column 1,,
Host Date-Time:,31/3/15 @ 12:11:12,,
Header Version:,1,,
System Temp (C):,34.17,,
Detector Temp (C):,34.36,,
Humidity (%):,1.66,,
Lamp PD:,3818,,
Shift Vector Coefficients:,-10.5391,0.0761263,-0.000134223,,
Pixel to Wavelength Coefficients:,1775.68,-0.916766,-0.000235065,,
Serial Number:,5510004,,
Scan Config Name:,Column 1,,
Scan Config Type:,Slew,,
Section 1,,
Start wavelength (nm):,900,,
End wavelength (nm):,1700,,
Pattern Pixel Width (nm):,   7.03,,,,
Exposure (ms):,  0.635,,,,
Digital Resolution:,228,,
Num Repeats:,6,,
PGA Gain:,64,,
Total Measurement Time in sec:,  2.690,,
Wavelength (nm),Absorbance (AU),Reference Signal (unitless),Sample Signal (unitless)
901.51,0.035565,108485,99955
905.376,0.041240,121306,110317
909.237,0.045542,131909,118777
913.095,0.044057,143299,129475
916.948,0.046301,156982,141107
922.079,0.047968,179937,161121
925.923,0.049491,200504,178909
929.762,0.050309,222660,198305
933.597,0.049733,244426,217979
937.427,0.049230,263972,235683
941.254,0.048584,281845,252015
945.076,0.047829,297271,266271
950.165,0.047028,315605,283215
953.978,0.046333,328029,294835
957.786,0.047220,340470,305393
961.59,0.047110,352317,316099
965.389,0.046711,363056,326034
969.185,0.047661,373162,334377
972.976,0.047525,382632,342970
976.763,0.048074,391202,350209
981.806,0.048887,400190,357585
985.583,0.049724,406088,362156
989.355,0.049924,410162,365621
993.124,0.050143,412868,367848
996.888,0.050343,414263,368921
1000.65,0.051151,415476,369313
1004.4,0.052581,415479,368102
1009.41,0.054069,414358,365853
1013.15,0.054434,412923,364280
1016.89,0.055040,411526,362541
1020.63,0.054751,409066,360614
1024.36,0.055534,406777,357950
1028.09,0.054888,404427,356412
1031.82,0.054553,401911,354468
1036.78,0.054383,398410,351518
1040.49,0.053718,396204,350107
1044.2,0.053860,394236,348254
1047.91,0.053203,392042,346840
1051.61,0.052584,389823,345369
1055.31,0.052392,388234,344113
1059,0.051331,387599,344391
1063.92,0.050613,386688,344150
1067.61,0.049521,386598,344936
1071.29,0.049661,387377,345520
1074.96,0.048333,388536,347615
1078.63,0.048327,389855,348800
1082.3,0.047238,391215,350895
1085.96,0.046570,393215,353232
1090.84,0.045842,396270,356574
1094.49,0.045395,398760,359184
1098.14,0.045533,400987,361075
1101.79,0.045357,403477,363464
1105.43,0.044865,406116,366256
1109.06,0.044627,407701,367887
1112.7,0.044310,409859,370105
1117.53,0.044420,412494,372390
1121.15,0.044848,414909,374201
1124.77,0.045487,416559,375137
1128.38,0.046805,418532,375771
1131.99,0.047752,419956,376229
1135.6,0.049745,421946,376281
1139.2,0.051590,423881,376404
1143.99,0.054202,426786,376711
1147.58,0.054661,428617,377927
1151.17,0.055914,431169,379082
1154.75,0.057718,433579,379621
1158.33,0.059171,436264,380696
1161.91,0.061328,439132,381300
1165.48,0.063268,442389,382416
1169.04,0.066462,446101,382799
1173.79,0.070036,451929,384622
1177.34,0.072546,456026,385872
1180.9,0.074521,461306,388569
1184.44,0.076563,467657,392071
1187.99,0.077648,473969,396371
1191.52,0.077502,479856,401429
1195.06,0.076777,487372,408398
1199.76,0.076108,497347,417399
1203.29,0.074846,504311,424475
1206.81,0.074789,511507,430589
1210.33,0.073288,519078,438475
1213.84,0.072606,527163,446004
1217.35,0.072120,534208,452471
1220.85,0.071081,540472,458873
1225.51,0.070573,549929,467448
1229.01,0.069969,556888,474022
1232.5,0.069127,562180,479456
1235.98,0.068431,567975,485175
1239.46,0.067442,574815,492137
1242.94,0.066169,582782,500423
1246.41,0.065655,591476,508490
1251.03,0.065536,604016,519413
1254.5,0.066059,612289,525893
1257.96,0.066530,619125,531188
1261.41,0.066860,624551,535436
1264.86,0.067316,629900,539455
1268.31,0.068181,634345,542181
1271.75,0.068951,638574,544829
1276.33,0.069074,642499,548023
1279.76,0.068821,645905,551249
1283.19,0.068273,648307,553997
1286.61,0.067931,650446,556263
1290.03,0.067712,652132,557986
1293.44,0.067068,653907,560335
1296.85,0.067175,655963,561958
1301.39,0.066869,657349,563543
1304.8,0.066997,657558,563556
1308.19,0.066955,658515,564431
1311.58,0.066745,658804,564951
1314.97,0.067594,659011,564025
1318.36,0.068257,658272,562534
1321.73,0.068201,658022,562393
1326.23,0.069173,657870,561005
1329.6,0.070287,656482,558388
1332.97,0.071199,654926,555896
1336.33,0.072317,653727,553451
1339.69,0.074087,652497,550163
1343.04,0.075423,649913,546301
1346.39,0.077756,647671,541500
1349.73,0.079993,645338,536777
1354.18,0.082895,641175,529763
1357.52,0.085470,638376,524332
1360.85,0.087262,635805,520070
1364.17,0.089795,633413,515100
1367.49,0.092164,631026,510368
1370.81,0.094889,628050,504784
1374.12,0.097138,625034,499765
1378.54,0.100045,620272,492648
1381.84,0.103749,616892,485803
1385.14,0.107573,613613,478985
1388.43,0.111323,611526,473251
1391.72,0.116154,610663,467356
1395.01,0.120737,610634,462428
1398.29,0.125837,611700,457827
1402.66,0.132907,614051,452166
1405.93,0.138368,616268,448128
1409.2,0.143593,617795,443866
1412.46,0.148531,618872,439612
1415.72,0.152596,619795,436166
1418.98,0.156919,620495,432334
1422.23,0.160327,621087,429364
1426.56,0.164586,621375,425371
1429.8,0.166959,621616,423217
1433.04,0.169859,622129,420747
1436.27,0.172098,621526,418178
1439.5,0.174657,621113,415445
1442.72,0.176992,620921,413090
1445.94,0.179751,620270,410043
1450.23,0.183306,618860,405776
1453.44,0.186522,617697,402025
1456.64,0.189564,616264,398293
1459.85,0.191568,614413,395269
1463.04,0.195464,612307,390396
1466.24,0.198873,610032,385904
1469.43,0.202384,607345,381111
1473.67,0.208926,603789,373215
1476.85,0.214506,601175,366855
1480.02,0.221464,597737,358960
1483.19,0.228571,594479,351209
1486.36,0.234236,591232,344764
1489.52,0.239922,587853,338335
1492.68,0.243621,583875,333195
1496.89,0.245960,578062,328106
1500.03,0.246764,574159,325288
1503.18,0.246935,570285,322966
1506.32,0.245586,565444,321221
1509.45,0.244598,560571,319178
1512.58,0.243176,555821,317511
1515.71,0.240825,550344,316089
1519.87,0.237689,543983,314700
1522.99,0.234744,538764,313801
1526.1,0.232371,533692,312550
1529.21,0.229288,527902,311362
1532.32,0.225879,521886,310239
1535.42,0.222896,515888,308787
1538.51,0.219416,509987,307711
1541.6,0.216624,503936,306021
1545.72,0.211506,494694,303970
1548.8,0.209069,488378,301778
1551.88,0.205840,481832,299955
1554.95,0.203983,474989,296962
1558.02,0.201840,467818,293925
1561.08,0.200730,460730,290213
1564.15,0.200713,454170,286092
1568.22,0.199653,444181,280483
1571.27,0.198399,436947,276713
1574.32,0.198423,429598,272044
1577.36,0.195763,422039,268899
1580.4,0.194950,414375,264511
1583.43,0.193224,406354,260424
1586.46,0.191436,398475,256428
1590.49,0.189267,388982,251572
1593.51,0.187336,380708,247318
1596.53,0.184081,372727,243955
1599.54,0.182426,365060,239849
1602.55,0.180593,357543,235904
1605.55,0.177528,349495,232227
1608.55,0.176040,341154,227463
1612.54,0.173627,330877,221840
1615.53,0.171912,322904,217351
1618.51,0.170723,315116,212690
1621.49,0.169777,307217,207811
1624.47,0.169336,299481,202784
1627.44,0.166476,292112,199101
1630.41,0.165875,284245,194007
1634.36,0.163584,274079,188058
1637.32,0.163480,266916,183187
1640.27,0.162348,259612,178639
1643.22,0.161831,251804,173473
1646.16,0.160451,244348,168872
1649.1,0.159985,236703,163764
1652.04,0.158933,228171,158244
1655.95,0.155570,215408,150554
1658.88,0.150339,204937,144971
1661.8,0.148743,193395,137310
1664.72,0.142031,179728,129594
1667.63,0.129197,163642,121534
1670.54,0.116792,146312,111812
1673.44,0.103845,128451,101133
1677.31,0.084118,105080,86577
1680.21,0.077113,88906,74442
1683.1,0.071939,75033,63579
1685.99,0.079414,63520,52905
1688.87,0.078102,53714,44873
1691.75,0.088273,45653,37256
1694.62,0.092255,39137,31647
1697.49,0.098146,33776,26944
1701.31,0.104490,28175,22150