File: samples/wool/wool-000811/Column 1_050567_20150331_120750.csv
Method:,Column 1,,
Host Date-Time:,31/3/15 @ 12:7:50,,
Header Version:,1,,
System Temp (C):,33.95,,
Detector Temp (C):,33.83,,
Humidity (%):,1.86,,
Lamp PD:,3818,,
Shift Vector Coefficients:,-10.5391,0.0761263,-0.000134223,,
Pixel to Wavelength Coefficients:,1775.68,-0.916766,-0.000235065,,
Serial Number:,5510004,,
Scan Config Name:,Column 1,,
Scan Config Type:,Slew,,
Section 1,,
Start wavelength (nm):,900,,
End wavelength (nm):,1700,,
Pattern Pixel Width (nm):,   7.03,,,,
Exposure (ms):,  0.635,,,,
Digital Resolution:,228,,
Num Repeats:,6,,
PGA Gain:,64,,
Total Measurement Time in sec:,  2.693,,
Wavelength (nm),Absorbance (AU),Reference Signal (unitless),Sample Signal (unitless)
901.51,0.034875,108485,100114
905.376,0.040119,121306,110602
909.237,0.041575,131909,119867
913.095,0.043591,143299,129614
916.948,0.045619,156982,141329
922.079,0.046359,179937,161719
925.923,0.048344,200504,179382
929.762,0.047717,222660,199492
933.597,0.049074,244426,218310
937.427,0.049040,263972,235786
941.254,0.048128,281845,252280
945.076,0.046755,297271,266930
950.165,0.047015,315605,283223
953.978,0.046369,328029,294811
957.786,0.046386,340470,305980
961.59,0.046559,352317,316501
965.389,0.046594,363056,326122
969.185,0.047190,373162,334740
972.976,0.047937,382632,342645
976.763,0.047719,391202,350495
981.806,0.048530,400190,357879
985.583,0.049801,406088,362092
989.355,0.050280,410162,365322
993.124,0.050557,412868,367497
996.888,0.051038,414263,368331
1000.65,0.052263,415476,368369
1004.4,0.052687,415479,368012
1009.41,0.054031,414358,365885
1013.15,0.055020,412923,363789
1016.89,0.055321,411526,362307
1020.63,0.055318,409066,360143
1024.36,0.054825,406777,358535
1028.09,0.055167,404427,356183
1031.82,0.054680,401911,354364
1036.78,0.053879,398410,351926
1040.49,0.053909,396204,349953
1044.2,0.053961,394236,348173
1047.91,0.053279,392042,346780
1051.61,0.052751,389823,345236
1055.31,0.052759,388234,343823
1059,0.052173,387599,343724
1063.92,0.050258,386688,344431
1067.61,0.050371,386598,344262
1071.29,0.049309,387377,345800
1074.96,0.048361,388536,347592
1078.63,0.048643,389855,348546
1082.3,0.047295,391215,350849
1085.96,0.046407,393215,353365
1090.84,0.045848,396270,356569
1094.49,0.045500,398760,359097
1098.14,0.045386,400987,361197
1101.79,0.044387,403477,364277
1105.43,0.044845,406116,366273
1109.06,0.044198,407701,368251
1112.7,0.044867,409859,369630
1117.53,0.044185,412494,372591
1121.15,0.045395,414909,373730
1124.77,0.045578,416559,375058
1128.38,0.046871,418532,375714
1131.99,0.048296,419956,375758
1135.6,0.050255,421946,375839
1139.2,0.051473,423881,376505
1143.99,0.054326,426786,376603
1147.58,0.055152,428617,377500
1151.17,0.056724,431169,378376
1154.75,0.058114,433579,379275
1158.33,0.059461,436264,380442
1161.91,0.061325,439132,381303
1165.48,0.064270,442389,381535
1169.04,0.066905,446101,382409
1173.79,0.070207,451929,384471
1177.34,0.072609,456026,385816
1180.9,0.075077,461306,388072
1184.44,0.076382,467657,392234
1187.99,0.077786,473969,396245
1191.52,0.077987,479856,400981
1195.06,0.077315,487372,407892
1199.76,0.076395,497347,417123
1203.29,0.075390,504311,423944
1206.81,0.074944,511507,430435
1210.33,0.073474,519078,438287
1213.84,0.073097,527163,445500
1217.35,0.072364,534208,452216
1220.85,0.071477,540472,458454
1225.51,0.070378,549929,467658
1229.01,0.070334,556888,473624
1232.5,0.069534,562180,479006
1235.98,0.069000,567975,484539
1239.46,0.067878,574815,491643
1242.94,0.066882,582782,499602
1246.41,0.066064,591476,508011
1251.03,0.066111,604016,518725
1254.5,0.066407,612289,525472
1257.96,0.066712,619125,530965
1261.41,0.067278,624551,534921
1264.86,0.067641,629900,539052
1268.31,0.068293,634345,542041
1271.75,0.069213,638574,544500
1276.33,0.069822,642499,547080
1279.76,0.069336,645905,550595
1283.19,0.068751,648307,553388
1286.61,0.068423,650446,555633
1290.03,0.068338,652132,557182
1293.44,0.067670,653907,559559
1296.85,0.067595,655963,561416
1301.39,0.067201,657349,563112
1304.8,0.066943,657558,563626
1308.19,0.067263,658515,564030
1311.58,0.067619,658804,563816
1314.97,0.068296,659011,563114
1318.36,0.068710,658272,561947
1321.73,0.068876,658022,561519
1326.23,0.069755,657870,560254
1329.6,0.070717,656482,557835
1332.97,0.071906,654926,554991
1336.33,0.072971,653727,552618
1339.69,0.074774,652497,549293
1343.04,0.076268,649913,545240
1346.39,0.078547,647671,540515
1349.73,0.080650,645338,535966
1354.18,0.083823,641175,528632
1357.52,0.086136,638376,523529
1360.85,0.088617,635805,518450
1364.17,0.090653,633413,514084
1367.49,0.092790,631026,509633
1370.81,0.095403,628050,504186
1374.12,0.097935,625034,498849
1378.54,0.101104,620272,491449
1381.84,0.104321,616892,485164
1385.14,0.108085,613613,478420
1388.43,0.113075,611526,471346
1391.72,0.117519,610663,465889
1395.01,0.122284,610634,460784
1398.29,0.127799,611700,455763
1402.66,0.134798,614051,450201
1405.93,0.140652,616268,445777
1409.2,0.146439,617795,440966
1412.46,0.151027,618872,437093
1415.72,0.155659,619795,433101
1418.98,0.159256,620495,430014
1422.23,0.163221,621087,426512
1426.56,0.168192,621375,421854
1429.8,0.170570,621616,419713
1433.04,0.173378,622129,417352
1436.27,0.175501,621526,414914
1439.5,0.177165,621113,413053
1442.72,0.180916,620921,409374
1445.94,0.182155,620270,407780
1450.23,0.186477,618860,402824
1453.44,0.189787,617697,399014
1456.64,0.191833,616264,396218
1459.85,0.195588,614413,391627
1463.04,0.198121,612307,388015
1466.24,0.201222,610032,383823
1469.43,0.205648,607345,378257
1473.67,0.211342,603789,371145
1476.85,0.217250,601175,364545
1480.02,0.223529,597737,357257
1483.19,0.230278,594479,349831
1486.36,0.235838,591232,343495
1489.52,0.241379,587853,337202
1492.68,0.245323,583875,331892
1496.89,0.247456,578062,326978
1500.03,0.247733,574159,324563
1503.18,0.248344,570285,321920
1506.32,0.247465,565444,319834
1509.45,0.245514,560571,318505
1512.58,0.244515,555821,316534
1515.71,0.241576,550344,315543
1519.87,0.239615,543983,313307
1522.99,0.235765,538764,313064
1526.1,0.233831,533692,311501
1529.21,0.230180,527902,310723
1532.32,0.227166,521886,309321
1535.42,0.224108,515888,307927
1538.51,0.220708,509987,306797
1541.6,0.217445,503936,305443
1545.72,0.213126,494694,302838
1548.8,0.210014,488378,301122
1551.88,0.208008,481832,298461
1554.95,0.205310,474989,296056
1558.02,0.203657,467818,292698
1561.08,0.202272,460730,289184
1564.15,0.201456,454170,285603
1568.22,0.200722,444181,279794
1571.27,0.199644,436947,275921
1574.32,0.198284,429598,272131
1577.36,0.198168,422039,267414
1580.4,0.195556,414375,264142
1583.43,0.193956,406354,259985
1586.46,0.191725,398475,256257
1590.49,0.190328,388982,250958
1593.51,0.188096,380708,246886
1596.53,0.185996,372727,242882
1599.54,0.183937,365060,239016
1602.55,0.181797,357543,235251
1605.55,0.179406,349495,231225
1608.55,0.177039,341154,226940
1612.54,0.174389,330877,221451
1615.53,0.173016,322904,216799
1618.51,0.172110,315116,212012
1621.49,0.170417,307217,207505
1624.47,0.169573,299481,202673
1627.44,0.167758,292112,198514
1630.41,0.166279,284245,193827
1634.36,0.165830,274079,187088
1637.32,0.164406,266916,182797
1640.27,0.163057,259612,178348
1643.22,0.162600,251804,173166
1646.16,0.162356,244348,168133
1649.1,0.161904,236703,163042
1652.04,0.161098,228171,157457
1655.95,0.157029,215408,150049
1658.88,0.153861,204937,143800
1661.8,0.149091,193395,137200
1664.72,0.142369,179728,129493
1667.63,0.132832,163642,120521
1670.54,0.120870,146312,110767
1673.44,0.106986,128451,100404
1677.31,0.092986,105080,84827
1680.21,0.083566,88906,73344
1683.1,0.079310,75033,62509
1685.99,0.084542,63520,52284
1688.87,0.090362,53714,43624
1691.75,0.092255,45653,36916
1694.62,0.095202,39137,31433
1697.49,0.100328,33776,26809
1701.31,0.108746,28175,21934