File: samples/wool/wool-000811/Column 1_050612_20150331_122909.csv
Method:,Column 1,,
Host Date-Time:,31/3/15 @ 12:29:9,,
Header Version:,1,,
System Temp (C):,34.09,,
Detector Temp (C):,34.9,,
Humidity (%):,1.66,,
Lamp PD:,3818,,
Shift Vector Coefficients:,-10.5391,0.0761263,-0.000134223,,
Pixel to Wavelength Coefficients:,1775.68,-0.916766,-0.000235065,,
Serial Number:,5510004,,
Scan Config Name:,Column 1,,
Scan Config Type:,Slew,,
Section 1,,
Start wavelength (nm):,900,,
End wavelength (nm):,1700,,
Pattern Pixel Width (nm):,   7.03,,,,
Exposure (ms):,  0.635,,,,
Digital Resolution:,228,,
Num Repeats:,6,,
PGA Gain:,64,,
Total Measurement Time in sec:,  2.670,,
Wavelength (nm),Absorbance (AU),Reference Signal (unitless),Sample Signal (unitless)
901.51,0.069463,108485,92450
905.376,0.074712,121306,102134
909.237,0.077132,131909,110444
913.095,0.077218,143299,119957
916.948,0.077754,156982,131249
922.079,0.081701,179937,149080
925.923,0.082023,200504,165997
929.762,0.082065,222660,184322
933.597,0.082828,244426,201985
937.427,0.080680,263972,219219
941.254,0.080403,281845,234211
945.076,0.079753,297271,247400
950.165,0.078685,315605,263305
953.978,0.076837,328029,274837
957.786,0.077322,340470,284942
961.59,0.078027,352317,294379
965.389,0.077599,363056,303651
969.185,0.077622,373162,312087
972.976,0.078202,382632,319580
976.763,0.078852,391202,326249
981.806,0.079134,400190,333528
985.583,0.079782,406088,337939
989.355,0.079666,410162,341420
993.124,0.080403,412868,343090
996.888,0.081215,414263,343606
1000.65,0.081484,415476,344399
1004.4,0.082644,415479,343483
1009.41,0.084014,414358,341477
1013.15,0.084439,412923,339962
1016.89,0.084622,411526,338669
1020.63,0.084236,409066,336944
1024.36,0.085077,406777,334410
1028.09,0.084413,404427,332987
1031.82,0.084483,401911,330862
1036.78,0.083831,398410,328473
1040.49,0.083775,396204,326696
1044.2,0.083722,394236,325113
1047.91,0.083629,392042,323373
1051.61,0.083420,389823,321697
1055.31,0.083051,388234,320658
1059,0.082284,387599,320700
1063.92,0.081703,386688,320374
1067.61,0.080913,386598,320883
1071.29,0.080542,387377,321804
1074.96,0.080261,388536,322976
1078.63,0.079406,389855,324711
1082.3,0.077866,391215,327001
1085.96,0.077993,393215,328577
1090.84,0.077099,396270,331812
1094.49,0.076475,398760,334377
1098.14,0.075716,400987,336833
1101.79,0.075106,403477,339401
1105.43,0.075045,406116,341669
1109.06,0.073970,407701,343852
1112.7,0.073324,409859,346187
1117.53,0.073176,412494,348531
1121.15,0.074563,414909,349454
1124.77,0.073906,416559,351375
1128.38,0.074950,418532,352191
1131.99,0.075804,419956,352695
1135.6,0.077613,421946,352894
1139.2,0.078958,423881,353416
1143.99,0.080451,426786,354617
1147.58,0.081210,428617,355516
1151.17,0.082315,431169,356724
1154.75,0.083315,433579,357893
1158.33,0.084402,436264,359209
1161.91,0.086701,439132,359662
1165.48,0.088599,442389,360749
1169.04,0.090709,446101,362013
1173.79,0.093828,451929,364118
1177.34,0.095999,456026,365587
1180.9,0.098516,461306,367683
1184.44,0.100095,467657,371392
1187.99,0.101248,473969,375407
1191.52,0.101213,479856,380100
1195.06,0.101308,487372,385969
1199.76,0.100252,497347,394828
1203.29,0.099601,504311,400957
1206.81,0.099407,511507,406860
1210.33,0.098706,519078,413549
1213.84,0.097971,527163,420701
1217.35,0.097476,534208,426810
1220.85,0.096851,540472,432436
1225.51,0.095742,549929,441128
1229.01,0.095656,556888,446799
1232.5,0.094102,562180,452661
1235.98,0.093952,567975,457485
1239.46,0.093308,574815,463682
1242.94,0.092234,582782,471273
1246.41,0.091583,591476,479021
1251.03,0.091448,604016,489328
1254.5,0.091711,612289,495730
1257.96,0.092242,619125,500653
1261.41,0.092486,624551,504756
1264.86,0.093119,629900,508338
1268.31,0.093725,634345,511211
1271.75,0.094380,638574,513844
1276.33,0.094624,642499,516712
1279.76,0.094319,645905,519816
1283.19,0.093709,648307,522482
1286.61,0.093613,650446,524322
1290.03,0.093072,652132,526337
1293.44,0.092677,653907,528249
1296.85,0.092522,655963,530099
1301.39,0.092218,657349,531592
1304.8,0.092324,657558,531631
1308.19,0.092364,658515,532355
1311.58,0.092358,658804,532596
1314.97,0.092571,659011,532502
1318.36,0.093268,658272,531052
1321.73,0.093945,658022,530024
1326.23,0.093892,657870,529966
1329.6,0.094888,656482,527637
1332.97,0.095999,654926,525041
1336.33,0.096615,653727,523337
1339.69,0.098189,652497,520462
1343.04,0.099544,649913,516787
1346.39,0.101899,647671,512219
1349.73,0.103624,645338,508351
1354.18,0.106668,641175,501544
1357.52,0.108297,638376,497485
1360.85,0.110754,635805,492686
1364.17,0.112341,633413,489042
1367.49,0.114599,631026,484672
1370.81,0.117051,628050,479671
1374.12,0.119380,625034,474814
1378.54,0.121353,620272,469061
1381.84,0.124504,616892,463132
1385.14,0.127699,613613,457294
1388.43,0.130859,611526,452435
1391.72,0.135406,610663,447091
1395.01,0.139048,610634,443336
1398.29,0.143847,611700,439229
1402.66,0.149525,614051,435191
1405.93,0.154439,616268,431848
1409.2,0.159288,617795,428111
1412.46,0.163455,618872,424762
1415.72,0.167253,619795,421692
1418.98,0.171104,620495,418441
1422.23,0.174559,621087,415521
1426.56,0.178085,621375,412353
1429.8,0.180119,621616,410585
1433.04,0.183184,622129,408034
1436.27,0.185271,621526,405684
1439.5,0.186941,621113,403859
1442.72,0.189494,620921,401368
1445.94,0.191896,620270,398735
1450.23,0.195717,618860,394344
1453.44,0.198220,617697,391341
1456.64,0.201211,616264,387754
1459.85,0.204191,614413,383945
1463.04,0.207183,612307,380002
1466.24,0.209963,610032,376175
1469.43,0.214099,607345,370968
1473.67,0.220454,603789,363439
1476.85,0.226046,601175,357236
1480.02,0.232572,597737,349895
1483.19,0.238603,594479,343189
1486.36,0.244511,591232,336703
1489.52,0.249463,587853,330983
1492.68,0.252370,583875,326550
1496.89,0.254792,578062,321501
1500.03,0.255391,574159,318890
1503.18,0.255356,570285,316764
1506.32,0.254005,565444,315054
1509.45,0.253004,560571,313059
1512.58,0.251360,555821,311584
1515.71,0.249336,550344,309955
1519.87,0.246385,543983,308461
1522.99,0.243377,538764,307625
1526.1,0.240971,533692,306422
1529.21,0.238124,527902,305091
1532.32,0.235778,521886,303248
1535.42,0.232543,515888,302004
1538.51,0.229499,509987,300649
1541.6,0.227258,503936,298619
1545.72,0.222885,494694,296109
1548.8,0.219833,488378,294390
1551.88,0.218433,481832,291382
1554.95,0.216646,474989,288428
1558.02,0.214259,467818,285639
1561.08,0.213632,460730,281718
1564.15,0.212794,454170,278243
1568.22,0.211380,444181,273011
1571.27,0.211250,436947,268645
1574.32,0.210189,429598,264773
1577.36,0.208423,422039,261174
1580.4,0.208034,414375,256661
1583.43,0.206208,406354,252753
1586.46,0.205101,398475,248485
1590.49,0.203456,388982,243486
1593.51,0.201178,380708,239560
1596.53,0.198891,372727,235776
1599.54,0.196530,365060,232185
1602.55,0.195761,357543,227807
1605.55,0.193414,349495,223886
1608.55,0.191093,341154,219714
1612.54,0.190008,330877,213628
1615.53,0.186982,322904,209938
1618.51,0.188444,315116,204186
1621.49,0.185760,307217,200302
1624.47,0.184559,299481,195799
1627.44,0.184266,292112,191110
1630.41,0.181902,284245,186978
1634.36,0.181331,274079,180528
1637.32,0.180403,266916,176186
1640.27,0.180058,259612,171501
1643.22,0.179299,251804,166634
1646.16,0.178759,244348,161901
1649.1,0.177177,236703,157408
1652.04,0.175484,228171,152327
1655.95,0.172301,215408,144864
1658.88,0.167906,204937,139224
1661.8,0.164223,193395,132502
1664.72,0.156748,179728,125276
1667.63,0.143126,163642,117698
1670.54,0.128300,146312,108888
1673.44,0.113045,128451,99013
1677.31,0.094098,105080,84610
1680.21,0.081175,88906,73749
1683.1,0.076885,75033,62859
1685.99,0.078643,63520,52999
1688.87,0.075892,53714,45102
1691.75,0.085160,45653,37524
1694.62,0.091391,39137,31710
1697.49,0.089086,33776,27512
1701.31,0.098319,28175,22467