File: samples/wool/wool-000811/Column 1_050553_20150331_120108.csv
Method:,Column 1,,
Host Date-Time:,31/3/15 @ 12:1:8,,
Header Version:,1,,
System Temp (C):,33.37,,
Detector Temp (C):,32.35,,
Humidity (%):,2.74,,
Lamp PD:,3820,,
Shift Vector Coefficients:,-10.5391,0.0761263,-0.000134223,,
Pixel to Wavelength Coefficients:,1775.68,-0.916766,-0.000235065,,
Serial Number:,5510004,,
Scan Config Name:,Column 1,,
Scan Config Type:,Slew,,
Section 1,,
Start wavelength (nm):,900,,
End wavelength (nm):,1700,,
Pattern Pixel Width (nm):,   7.03,,,,
Exposure (ms):,  0.635,,,,
Digital Resolution:,228,,
Num Repeats:,6,,
PGA Gain:,64,,
Total Measurement Time in sec:,  2.725,,
Wavelength (nm),Absorbance (AU),Reference Signal (unitless),Sample Signal (unitless)
901.51,0.034056,108485,100303
905.376,0.038524,121306,111009
909.237,0.041448,131909,119902
913.095,0.041906,143299,130118
916.948,0.040964,156982,142852
922.079,0.043237,179937,162886
925.923,0.044889,200504,180815
929.762,0.046558,222660,200025
933.597,0.046159,244426,219780
937.427,0.045783,263972,237561
941.254,0.046692,281845,253115
945.076,0.045679,297271,267592
950.165,0.044814,315605,284662
953.978,0.045394,328029,295473
957.786,0.045400,340470,306675
961.59,0.045851,352317,317017
965.389,0.046301,363056,326342
969.185,0.046490,373162,335280
972.976,0.046777,382632,343561
976.763,0.047467,391202,350699
981.806,0.048626,400190,357800
985.583,0.048810,406088,362919
989.355,0.049056,410162,366353
993.124,0.049685,412868,368236
996.888,0.050761,414263,368566
1000.65,0.051355,415476,369140
1004.4,0.052178,415479,368444
1009.41,0.053893,414358,366001
1013.15,0.054869,412923,363915
1016.89,0.055125,411526,362470
1020.63,0.054830,409066,360548
1024.36,0.054548,406777,358764
1028.09,0.054473,404427,356753
1031.82,0.053954,401911,354957
1036.78,0.053894,398410,351914
1040.49,0.053943,396204,349926
1044.2,0.053227,394236,348762
1047.91,0.052653,392042,347280
1051.61,0.052598,389823,345358
1055.31,0.051482,388234,344835
1059,0.050980,387599,344669
1063.92,0.050120,386688,344541
1067.61,0.050062,386598,344507
1071.29,0.048965,387377,346074
1074.96,0.048378,388536,347579
1078.63,0.047630,389855,349360
1082.3,0.046758,391215,351283
1085.96,0.046321,393215,353435
1090.84,0.045687,396270,356701
1094.49,0.045368,398760,359206
1098.14,0.045157,400987,361388
1101.79,0.045093,403477,363685
1105.43,0.045109,406116,366051
1109.06,0.044187,407701,368260
1112.7,0.043754,409859,370579
1117.53,0.045234,412494,371692
1121.15,0.045120,414909,373967
1124.77,0.045663,416559,374985
1128.38,0.047193,418532,375436
1131.99,0.048287,419956,375765
1135.6,0.049537,421946,376461
1139.2,0.052047,423881,376008
1143.99,0.054925,426786,376084
1147.58,0.055693,428617,377030
1151.17,0.057364,431169,377819
1154.75,0.058444,433579,378987
1158.33,0.059660,436264,380268
1161.91,0.062181,439132,380552
1165.48,0.064697,442389,381160
1169.04,0.067164,446101,382181
1173.79,0.071090,451929,383690
1177.34,0.073280,456026,385221
1180.9,0.075795,461306,387431
1184.44,0.077543,467657,391187
1187.99,0.077997,473969,396053
1191.52,0.078149,479856,400832
1195.06,0.078171,487372,407089
1199.76,0.076935,497347,416605
1203.29,0.075401,504311,423933
1206.81,0.075227,511507,430155
1210.33,0.074417,519078,437336
1213.84,0.073343,527163,445248
1217.35,0.073135,534208,451414
1220.85,0.071712,540472,458206
1225.51,0.071062,549929,466922
1229.01,0.070482,556888,473463
1232.5,0.069597,562180,478937
1235.98,0.069254,567975,484256
1239.46,0.068143,574815,491343
1242.94,0.067097,582782,499355
1246.41,0.066549,591476,507444
1251.03,0.066451,604016,518319
1254.5,0.066691,612289,525128
1257.96,0.067026,619125,530582
1261.41,0.067605,624551,534519
1264.86,0.068572,629900,537897
1268.31,0.068647,634345,541600
1271.75,0.069504,638574,544136
1276.33,0.069864,642499,547026
1279.76,0.069363,645905,550561
1283.19,0.069228,648307,552781
1286.61,0.068716,650446,555258
1290.03,0.068832,652132,556549
1293.44,0.068339,653907,558698
1296.85,0.067949,655963,560958
1301.39,0.067623,657349,562565
1304.8,0.067499,657558,562905
1308.19,0.068007,658515,563065
1311.58,0.068477,658804,562703
1314.97,0.069069,659011,562113
1318.36,0.069667,658272,560710
1321.73,0.069658,658022,560509
1326.23,0.070891,657870,558791
1329.6,0.071678,656482,556602
1332.97,0.073235,654926,553296
1336.33,0.074242,653727,551003
1339.69,0.075891,652497,547882
1343.04,0.077781,649913,543343
1346.39,0.080337,647671,538291
1349.73,0.082840,645338,533270
1354.18,0.085563,641175,526519
1357.52,0.087858,638376,521457
1360.85,0.089954,635805,516856
1364.17,0.092315,633413,512120
1367.49,0.094960,631026,507093
1370.81,0.097235,628050,502064
1374.12,0.099910,625034,496585
1378.54,0.103581,620272,488654
1381.84,0.107385,616892,481753
1385.14,0.111146,613613,475060
1388.43,0.116188,611526,467980
1391.72,0.121591,610663,461541
1395.01,0.126986,610634,455822
1398.29,0.132617,611700,450735
1402.66,0.140797,614051,444025
1405.93,0.146987,616268,439322
1409.2,0.152975,617795,434380
1412.46,0.158452,618872,429684
1415.72,0.164163,619795,424703
1418.98,0.168291,620495,421160
1422.23,0.172381,621087,417611
1426.56,0.176739,621375,413633
1429.8,0.180333,621616,410383
1433.04,0.182912,622129,408290
1436.27,0.185370,621526,405592
1439.5,0.187503,621113,403337
1442.72,0.190155,620921,400757
1445.94,0.192738,620270,397963
1450.23,0.196452,618860,393677
1453.44,0.199177,617697,390480
1456.64,0.201744,616264,387278
1459.85,0.205124,614413,383121
1463.04,0.207730,612307,379524
1466.24,0.210489,610032,375719
1469.43,0.213657,607345,371346
1473.67,0.218702,603789,364908
1476.85,0.224170,601175,358782
1480.02,0.229369,597737,352485
1483.19,0.236087,594479,345183
1486.36,0.241079,591232,339374
1489.52,0.246258,587853,333435
1492.68,0.249757,583875,328521
1496.89,0.251451,578062,323984
1500.03,0.252257,574159,321200
1503.18,0.252545,570285,318821
1506.32,0.251040,565444,317212
1509.45,0.250297,560571,315017
1512.58,0.248564,555821,313596
1515.71,0.245912,550344,312408
1519.87,0.243074,543983,310822
1522.99,0.239922,538764,310082
1526.1,0.237376,533692,308969
1529.21,0.234741,527902,307477
1532.32,0.232027,521886,305878
1535.42,0.228602,515888,304757
1538.51,0.225021,509987,303765
1541.6,0.222691,503936,301776
1545.72,0.217731,494694,299644
1548.8,0.214519,488378,298014
1551.88,0.212476,481832,295406
1554.95,0.209902,474989,292942
1558.02,0.208238,467818,289627
1561.08,0.206608,460730,286311
1564.15,0.206375,454170,282386
1568.22,0.205176,444181,276939
1571.27,0.204032,436947,273147
1574.32,0.203045,429598,269164
1577.36,0.201424,422039,265417
1580.4,0.200223,414375,261319
1583.43,0.198269,406354,257416
1586.46,0.196675,398475,253353
1590.49,0.194076,388982,248802
1593.51,0.191855,380708,244758
1596.53,0.189687,372727,240826
1599.54,0.188052,365060,236762
1602.55,0.186019,357543,232975
1605.55,0.182984,349495,229328
1608.55,0.181438,341154,224653
1612.54,0.179635,330877,218792
1615.53,0.176805,322904,214916
1618.51,0.175427,315116,210399
1621.49,0.173761,307217,205913
1624.47,0.173281,299481,200950
1627.44,0.171341,292112,196883
1630.41,0.169854,284245,192238
1634.36,0.168627,274079,185887
1637.32,0.167438,266916,181525
1640.27,0.167563,259612,176507
1643.22,0.166381,251804,171665
1646.16,0.166735,244348,166446
1649.1,0.163944,236703,162278
1652.04,0.163535,228171,156576
1655.95,0.161053,215408,148665
1658.88,0.159204,204937,142042
1661.8,0.155848,193395,135082
1664.72,0.149753,179728,127310
1667.63,0.142116,163642,117972
1670.54,0.132263,146312,107899
1673.44,0.124381,128451,96462
1677.31,0.111574,105080,81273
1680.21,0.107409,88906,69426
1683.1,0.104209,75033,59026
1685.99,0.105803,63520,49786
1688.87,0.114948,53714,41223
1691.75,0.120531,45653,34589
1694.62,0.122942,39137,29488
1697.49,0.126570,33776,25237
1701.31,0.137200,28175,20543