File: samples/wool/wool-000811/Column 1_050612_20150331_122926.csv
Method:,Column 1,,
Host Date-Time:,31/3/15 @ 12:29:26,,
Header Version:,1,,
System Temp (C):,34.09,,
Detector Temp (C):,34.89,,
Humidity (%):,1.66,,
Lamp PD:,3818,,
Shift Vector Coefficients:,-10.5391,0.0761263,-0.000134223,,
Pixel to Wavelength Coefficients:,1775.68,-0.916766,-0.000235065,,
Serial Number:,5510004,,
Scan Config Name:,Column 1,,
Scan Config Type:,Slew,,
Section 1,,
Start wavelength (nm):,900,,
End wavelength (nm):,1700,,
Pattern Pixel Width (nm):,   7.03,,,,
Exposure (ms):,  0.635,,,,
Digital Resolution:,228,,
Num Repeats:,6,,
PGA Gain:,64,,
Total Measurement Time in sec:,  2.725,,
Wavelength (nm),Absorbance (AU),Reference Signal (unitless),Sample Signal (unitless)
901.51,0.070333,108485,92265
905.376,0.075418,121306,101968
909.237,0.076951,131909,110490
913.095,0.077881,143299,119774
916.948,0.078300,156982,131084
922.079,0.081259,179937,149232
925.923,0.081523,200504,166188
929.762,0.081540,222660,184545
933.597,0.082216,244426,202270
937.427,0.081399,263972,218856
941.254,0.079423,281845,234740
945.076,0.079832,297271,247355
950.165,0.078022,315605,263707
953.978,0.078035,328029,274080
957.786,0.078288,340470,284309
961.59,0.078173,352317,294280
965.389,0.077176,363056,303947
969.185,0.078056,373162,311775
972.976,0.078100,382632,319655
976.763,0.078531,391202,326490
981.806,0.078850,400190,333746
985.583,0.079217,406088,338379
989.355,0.079429,410162,341607
993.124,0.079909,412868,343481
996.888,0.080867,414263,343882
1000.65,0.081253,415476,344582
1004.4,0.082621,415479,343501
1009.41,0.084346,414358,341216
1013.15,0.084439,412923,339962
1016.89,0.085008,411526,338368
1020.63,0.084197,409066,336974
1024.36,0.084860,406777,334577
1028.09,0.084725,404427,332748
1031.82,0.084036,401911,331203
1036.78,0.083390,398410,328806
1040.49,0.083969,396204,326550
1044.2,0.083560,394236,325234
1047.91,0.083146,392042,323733
1051.61,0.083325,389823,321768
1055.31,0.082560,388234,321021
1059,0.082530,387599,320518
1063.92,0.081384,386688,320610
1067.61,0.080338,386598,321308
1071.29,0.080180,387377,322073
1074.96,0.080038,388536,323142
1078.63,0.079226,389855,324846
1082.3,0.078301,391215,326674
1085.96,0.077397,393215,329028
1090.84,0.076949,396270,331927
1094.49,0.076662,398760,334233
1098.14,0.075852,400987,336727
1101.79,0.074662,403477,339748
1105.43,0.075098,406116,341627
1109.06,0.074055,407701,343785
1112.7,0.074100,409859,345569
1117.53,0.073126,412494,348571
1121.15,0.073623,414909,350211
1124.77,0.074100,416559,351218
1128.38,0.074812,418532,352303
1131.99,0.075901,419956,352617
1135.6,0.077138,421946,353280
1139.2,0.078738,423881,353595
1143.99,0.080394,426786,354663
1147.58,0.081303,428617,355440
1151.17,0.082033,431169,356956
1154.75,0.082869,433579,358261
1158.33,0.084493,436264,359134
1161.91,0.086200,439132,360077
1165.48,0.088306,442389,360993
1169.04,0.091111,446101,361678
1173.79,0.094260,451929,363756
1177.34,0.095934,456026,365642
1180.9,0.098473,461306,367719
1184.44,0.100331,467657,371190
1187.99,0.101364,473969,375306
1191.52,0.101198,479856,380113
1195.06,0.101151,487372,386109
1199.76,0.100365,497347,394725
1203.29,0.099589,504311,400968
1206.81,0.099155,511507,407096
1210.33,0.098595,519078,413654
1213.84,0.097930,527163,420741
1217.35,0.097705,534208,426585
1220.85,0.096653,540472,432634
1225.51,0.095762,549929,441108
1229.01,0.095282,556888,447184
1232.5,0.094736,562180,452001
1235.98,0.094448,567975,456963
1239.46,0.093364,574815,463622
1242.94,0.092645,582782,470827
1246.41,0.092009,591476,478551
1251.03,0.091586,604016,489173
1254.5,0.091450,612289,496028
1257.96,0.092132,619125,500779
1261.41,0.092504,624551,504735
1264.86,0.093058,629900,508409
1268.31,0.093459,634345,511525
1271.75,0.094493,638574,513710
1276.33,0.094211,642499,517203
1279.76,0.094306,645905,519831
1283.19,0.093597,648307,522617
1286.61,0.093225,650446,524791
1290.03,0.093125,652132,526272
1293.44,0.092584,653907,528362
1296.85,0.092652,655963,529941
1301.39,0.092095,657349,531742
1304.8,0.091929,657558,532114
1308.19,0.092109,658515,532668
1311.58,0.092352,658804,532604
1314.97,0.092645,659011,532412
1318.36,0.093167,658272,531176
1321.73,0.093514,658022,530550
1326.23,0.094294,657870,529476
1329.6,0.094833,656482,527703
1332.97,0.095810,654926,525270
1336.33,0.096974,653727,522905
1339.69,0.098166,652497,520490
1343.04,0.099687,649913,516617
1346.39,0.101935,647671,512176
1349.73,0.103559,645338,508427
1354.18,0.106304,641175,501964
1357.52,0.108410,638376,497355
1360.85,0.110791,635805,492644
1364.17,0.112163,633413,489242
1367.49,0.114356,631026,484944
1370.81,0.116647,628050,480117
1374.12,0.118606,625034,475661
1378.54,0.121715,620272,468670
1381.84,0.124663,616892,462963
1385.14,0.127874,613613,457110
1388.43,0.131025,611526,452262
1391.72,0.135170,610663,447334
1395.01,0.139252,610634,443128
1398.29,0.143672,611700,439407
1402.66,0.149807,614051,434908
1405.93,0.154707,616268,431581
1409.2,0.159350,617795,428050
1412.46,0.163613,618872,424608
1415.72,0.167533,619795,421420
1418.98,0.170675,620495,418855
1422.23,0.173808,621087,416241
1426.56,0.177554,621375,412857
1429.8,0.180471,621616,410252
1433.04,0.182599,622129,408584
1436.27,0.184782,621526,406141
1439.5,0.187369,621113,403461
1442.72,0.189481,620921,401380
1445.94,0.191676,620270,398937
1450.23,0.195464,618860,394574
1453.44,0.198342,617697,391231
1456.64,0.201277,616264,387695
1459.85,0.203294,614413,384739
1463.04,0.206399,612307,380689
1466.24,0.210224,610032,375949
1469.43,0.213878,607345,371157
1473.67,0.220423,603789,363465
1476.85,0.226271,601175,357051
1480.02,0.232254,597737,350152
1483.19,0.238550,594479,343231
1486.36,0.244376,591232,336808
1489.52,0.249590,587853,330886
1492.68,0.252604,583875,326374
1496.89,0.254248,578062,321904
1500.03,0.255444,574159,318851
1503.18,0.255736,570285,316487
1506.32,0.254166,565444,314937
1509.45,0.253935,560571,312389
1512.58,0.251760,555821,311297
1515.71,0.249626,550344,309748
1519.87,0.246756,543983,308198
1522.99,0.243248,538764,307716
1526.1,0.240767,533692,306566
1529.21,0.237898,527902,305250
1532.32,0.234966,521886,303815
1535.42,0.233039,515888,301659
1538.51,0.229353,509987,300750
1541.6,0.226857,503936,298895
1545.72,0.222781,494694,296180
1548.8,0.219055,488378,294918
1551.88,0.218168,481832,291560
1554.95,0.215986,474989,288867
1558.02,0.214284,467818,285623
1561.08,0.212542,460730,282426
1564.15,0.213335,454170,277897
1568.22,0.211657,444181,272837
1571.27,0.210951,436947,268830
1574.32,0.209875,429598,264964
1577.36,0.209122,422039,260754
1580.4,0.207560,414375,256941
1583.43,0.205681,406354,253060
1586.46,0.204217,398475,248991
1590.49,0.202801,388982,243853
1593.51,0.201230,380708,239531
1596.53,0.198742,372727,235857
1599.54,0.197234,365060,231809
1602.55,0.194651,357543,228390
1605.55,0.192602,349495,224305
1608.55,0.191884,341154,219314
1612.54,0.188730,330877,214258
1615.53,0.187067,322904,209897
1618.51,0.185959,315116,205358
1621.49,0.185966,307217,200207
1624.47,0.184778,299481,195700
1627.44,0.183819,292112,191307
1630.41,0.181847,284245,187002
1634.36,0.180351,274079,180936
1637.32,0.180053,266916,176328
1640.27,0.180443,259612,171349
1643.22,0.178099,251804,167095
1646.16,0.178097,244348,162148
1649.1,0.177782,236703,157189
1652.04,0.176411,228171,152002
1655.95,0.172715,215408,144726
1658.88,0.168109,204937,139159
1661.8,0.164685,193395,132361
1664.72,0.154545,179728,125913
1667.63,0.144986,163642,117195
1670.54,0.128831,146312,108755
1673.44,0.113537,128451,98901
1677.31,0.093216,105080,84782
1680.21,0.081464,88906,73700
1683.1,0.074226,75033,63245
1685.99,0.073900,63520,53581
1688.87,0.079120,53714,44768
1691.75,0.081736,45653,37821
1694.62,0.084408,39137,32224
1697.49,0.093959,33776,27205
1701.31,0.110015,28175,21870