File: samples/wool/wool-000811/Column 1_050534_20150331_115227.csv
Method:,Column 1,,
Host Date-Time:,31/3/15 @ 11:52:27,,
Header Version:,1,,
System Temp (C):,31.08,,
Detector Temp (C):,30.26,,
Humidity (%):,4.05,,
Lamp PD:,3828,,
Shift Vector Coefficients:,-10.5391,0.0761263,-0.000134223,,
Pixel to Wavelength Coefficients:,1775.68,-0.916766,-0.000235065,,
Serial Number:,5510004,,
Scan Config Name:,Column 1,,
Scan Config Type:,Slew,,
Section 1,,
Start wavelength (nm):,900,,
End wavelength (nm):,1700,,
Pattern Pixel Width (nm):,   7.03,,,,
Exposure (ms):,  0.635,,,,
Digital Resolution:,228,,
Num Repeats:,6,,
PGA Gain:,64,,
Total Measurement Time in sec:,  2.722,,
Wavelength (nm),Absorbance (AU),Reference Signal (unitless),Sample Signal (unitless)
901.51,0.041867,108485,98515
905.376,0.047289,121306,108791
909.237,0.047690,131909,118191
913.095,0.048314,143299,128212
916.948,0.047855,156982,140603
922.079,0.048416,179937,160955
925.923,0.048778,200504,179203
929.762,0.050263,222660,198326
933.597,0.050249,244426,217720
937.427,0.050359,263972,235071
941.254,0.051364,281845,250407
945.076,0.052021,297271,263713
950.165,0.052647,315605,279574
953.978,0.052327,328029,290794
957.786,0.052959,340470,301384
961.59,0.053746,352317,311306
965.389,0.053816,363056,320743
969.185,0.053380,373162,330003
972.976,0.054886,382632,337206
976.763,0.054810,391202,344819
981.806,0.055788,400190,351948
985.583,0.056651,406088,356426
989.355,0.057060,410162,359663
993.124,0.057923,412868,361317
996.888,0.058476,414263,362076
1000.65,0.058990,415476,362707
1004.4,0.060383,415479,361548
1009.41,0.061784,414358,359411
1013.15,0.062126,412923,357885
1016.89,0.062742,411526,356168
1020.63,0.062757,409066,354027
1024.36,0.062365,406777,352364
1028.09,0.061907,404427,350698
1031.82,0.061768,401911,348628
1036.78,0.060838,398410,346332
1040.49,0.060983,396204,344299
1044.2,0.060476,394236,342989
1047.91,0.058924,392042,342301
1051.61,0.058586,389823,340629
1055.31,0.058346,388234,339428
1059,0.057570,387599,339479
1063.92,0.056449,386688,339556
1067.61,0.055220,386598,340439
1071.29,0.054903,387377,341374
1074.96,0.053940,388536,343156
1078.63,0.053115,389855,344975
1082.3,0.052480,391215,346685
1085.96,0.052125,393215,348743
1090.84,0.051005,396270,352360
1094.49,0.050089,398760,355322
1098.14,0.050280,400987,357150
1101.79,0.050026,403477,359578
1105.43,0.050407,406116,361612
1109.06,0.050069,407701,363306
1112.7,0.049631,409859,365598
1117.53,0.049328,412494,368205
1121.15,0.050592,414909,369284
1124.77,0.051280,416559,370166
1128.38,0.052535,418532,370846
1131.99,0.054006,419956,370850
1135.6,0.056171,421946,370754
1139.2,0.058652,423881,370333
1143.99,0.061375,426786,370540
1147.58,0.062389,428617,371262
1151.17,0.063865,431169,372205
1154.75,0.065948,433579,372495
1158.33,0.067482,436264,373480
1161.91,0.069374,439132,374301
1165.48,0.073193,442389,373776
1169.04,0.076035,446101,374454
1173.79,0.080141,451929,375776
1177.34,0.082554,456026,377082
1180.9,0.085310,461306,379035
1184.44,0.086612,467657,383103
1187.99,0.087576,473969,387413
1191.52,0.087735,479856,392081
1195.06,0.086684,487372,399187
1199.76,0.085450,497347,408516
1203.29,0.084571,504311,415076
1206.81,0.082978,511507,422546
1210.33,0.081941,519078,429825
1213.84,0.081173,527163,437292
1217.35,0.079353,534208,444997
1220.85,0.078615,540472,450981
1225.51,0.076951,549929,460634
1229.01,0.076253,556888,467213
1232.5,0.076125,562180,471792
1235.98,0.074673,567975,478251
1239.46,0.073386,574815,485447
1242.94,0.072315,582782,493391
1246.41,0.071605,591476,501571
1251.03,0.071466,604016,512368
1254.5,0.071138,612289,519779
1257.96,0.071882,619125,524682
1261.41,0.072116,624551,528995
1264.86,0.072844,629900,532632
1268.31,0.073470,634345,535618
1271.75,0.074282,638574,538182
1276.33,0.074895,642499,540726
1279.76,0.074514,645905,544070
1283.19,0.074121,648307,546587
1286.61,0.073435,650446,549258
1290.03,0.073471,652132,550636
1293.44,0.072920,653907,552836
1296.85,0.072867,655963,554641
1301.39,0.072048,657349,556862
1304.8,0.072107,657558,556964
1308.19,0.072568,658515,557183
1311.58,0.072961,658804,556923
1314.97,0.073709,659011,556140
1318.36,0.074135,658272,554971
1321.73,0.074626,658022,554133
1326.23,0.075799,657870,552511
1329.6,0.076983,656482,549844
1332.97,0.078114,654926,547115
1336.33,0.079167,653727,544790
1339.69,0.081344,652497,541046
1343.04,0.083484,649913,536255
1346.39,0.085922,647671,531413
1349.73,0.088698,645338,526125
1354.18,0.092002,641175,518770
1357.52,0.094315,638376,513762
1360.85,0.096533,635805,509086
1364.17,0.099248,633413,504010
1367.49,0.101813,631026,499154
1370.81,0.104678,628050,493533
1374.12,0.107407,625034,488086
1378.54,0.111164,620272,480196
1381.84,0.115630,616892,472693
1385.14,0.120327,613613,465123
1388.43,0.125457,611526,458098
1391.72,0.131737,610663,450884
1395.01,0.137891,610634,444519
1398.29,0.143996,611700,439079
1402.66,0.153550,614051,431176
1405.93,0.160222,616268,426135
1409.2,0.167267,617795,420317
1412.46,0.173540,618872,415012
1415.72,0.179440,619795,410023
1418.98,0.183667,620495,406510
1422.23,0.188205,621087,402668
1426.56,0.193850,621375,397653
1429.8,0.196880,621616,395041
1433.04,0.199835,622129,392686
1436.27,0.202102,621526,390263
1439.5,0.204996,621113,387413
1442.72,0.206974,620921,385534
1445.94,0.209746,620270,382679
1450.23,0.214087,618860,378012
1453.44,0.216377,617697,375317
1456.64,0.219443,616264,371812
1459.85,0.222183,614413,368364
1463.04,0.224873,612307,364835
1466.24,0.227786,610032,361049
1469.43,0.230416,607345,357289
1473.67,0.235294,603789,351230
1476.85,0.239973,601175,345962
1480.02,0.244790,597737,340189
1483.19,0.250475,594479,333935
1486.36,0.256136,591232,327810
1489.52,0.261768,587853,321737
1492.68,0.264836,583875,317310
1496.89,0.267432,578062,312279
1500.03,0.268127,574159,309674
1503.18,0.269068,570285,306919
1506.32,0.267993,565444,305068
1509.45,0.267912,560571,302495
1512.58,0.266050,555821,301221
1515.71,0.263564,550344,299965
1519.87,0.260496,543983,298600
1522.99,0.257564,538764,297738
1526.1,0.255342,533692,296448
1529.21,0.252175,527902,295378
1532.32,0.249298,521886,293953
1535.42,0.246271,515888,292607
1538.51,0.242380,509987,291863
1541.6,0.239576,503936,290268
1545.72,0.234768,494694,288117
1548.8,0.231366,488378,286675
1551.88,0.227617,481832,285285
1554.95,0.226113,474989,282209
1558.02,0.224445,467818,279018
1561.08,0.222977,460730,275721
1564.15,0.222118,454170,272333
1568.22,0.220079,444181,267597
1571.27,0.219179,436947,263785
1574.32,0.218768,429598,259594
1577.36,0.216592,422039,256307
1580.4,0.215234,414375,252441
1583.43,0.213582,406354,248498
1586.46,0.210581,398475,245369
1590.49,0.208751,388982,240535
1593.51,0.206027,380708,236900
1596.53,0.203284,372727,233403
1599.54,0.201351,365060,229622
1602.55,0.199406,357543,225903
1605.55,0.197137,349495,221975
1608.55,0.194631,341154,217931
1612.54,0.191022,330877,213130
1615.53,0.189982,322904,208493
1618.51,0.187990,315116,204400
1621.49,0.186381,307217,200016
1624.47,0.184375,299481,195882
1627.44,0.183626,292112,191392
1630.41,0.181559,284245,187126
1634.36,0.179636,274079,181234
1637.32,0.179077,266916,176725
1640.27,0.177888,259612,172360
1643.22,0.176511,251804,167707
1646.16,0.176346,244348,162803
1649.1,0.174918,236703,158229
1652.04,0.174436,228171,152695
1655.95,0.172430,215408,144821
1658.88,0.171578,204937,138052
1661.8,0.171864,193395,130191
1664.72,0.170315,179728,121423
1667.63,0.166227,163642,111601
1670.54,0.161768,146312,100812
1673.44,0.161348,128451,88591
1677.31,0.158215,105080,72997
1680.21,0.157907,88906,61805
1683.1,0.160788,75033,51816
1685.99,0.164381,63520,43504
1688.87,0.172929,53714,36071
1691.75,0.173592,45653,30611
1694.62,0.170326,39137,26440
1697.49,0.178632,33776,22386
1701.31,0.178417,28175,18683