File: samples/wool/wool-000811/Column 1_050605_20150331_122601.csv
Method:,Column 1,,
Host Date-Time:,31/3/15 @ 12:26:1,,
Header Version:,1,,
System Temp (C):,34.02,,
Detector Temp (C):,34.85,,
Humidity (%):,1.66,,
Lamp PD:,3818,,
Shift Vector Coefficients:,-10.5391,0.0761263,-0.000134223,,
Pixel to Wavelength Coefficients:,1775.68,-0.916766,-0.000235065,,
Serial Number:,5510004,,
Scan Config Name:,Column 1,,
Scan Config Type:,Slew,,
Section 1,,
Start wavelength (nm):,900,,
End wavelength (nm):,1700,,
Pattern Pixel Width (nm):,   7.03,,,,
Exposure (ms):,  0.635,,,,
Digital Resolution:,228,,
Num Repeats:,6,,
PGA Gain:,64,,
Total Measurement Time in sec:,  2.679,,
Wavelength (nm),Absorbance (AU),Reference Signal (unitless),Sample Signal (unitless)
901.51,0.069068,108485,92534
905.376,0.073905,121306,102324
909.237,0.076547,131909,110593
913.095,0.079512,143299,119325
916.948,0.079754,156982,130646
922.079,0.080665,179937,149436
925.923,0.081435,200504,166222
929.762,0.082537,222660,184122
933.597,0.081855,244426,202438
937.427,0.080832,263972,219142
941.254,0.079829,281845,234521
945.076,0.079978,297271,247272
950.165,0.078856,315605,263201
953.978,0.077362,328029,274505
957.786,0.077054,340470,285118
961.59,0.077941,352317,294437
965.389,0.077781,363056,303524
969.185,0.077485,373162,312185
972.976,0.077925,382632,319784
976.763,0.078849,391202,326251
981.806,0.078920,400190,333692
985.583,0.079572,406088,338102
989.355,0.080219,410162,340986
993.124,0.080182,412868,343265
996.888,0.080719,414263,343999
1000.65,0.082104,415476,343908
1004.4,0.082803,415479,343357
1009.41,0.083728,414358,341702
1013.15,0.084745,412923,339722
1016.89,0.084871,411526,338475
1020.63,0.084254,409066,336930
1024.36,0.084825,406777,334604
1028.09,0.084318,404427,333060
1031.82,0.084270,401911,331024
1036.78,0.083767,398410,328521
1040.49,0.083657,396204,326785
1044.2,0.084614,394236,324446
1047.91,0.083822,392042,323229
1051.61,0.082968,389823,322032
1055.31,0.083298,388234,320476
1059,0.082207,387599,320757
1063.92,0.081186,386688,320756
1067.61,0.080508,386598,321182
1071.29,0.080973,387377,321485
1074.96,0.079518,388536,323529
1078.63,0.079350,389855,324753
1082.3,0.078548,391215,326488
1085.96,0.077977,393215,328589
1090.84,0.077069,396270,331835
1094.49,0.076075,398760,334685
1098.14,0.076168,400987,336482
1101.79,0.075051,403477,339444
1105.43,0.074637,406116,341990
1109.06,0.074131,407701,343725
1112.7,0.073919,409859,345713
1117.53,0.073098,412494,348594
1121.15,0.073994,414909,349912
1124.77,0.073974,416559,351320
1128.38,0.075138,418532,352039
1131.99,0.076218,419956,352359
1135.6,0.077668,421946,352849
1139.2,0.079295,423881,353142
1143.99,0.081233,426786,353979
1147.58,0.081627,428617,355175
1151.17,0.082119,431169,356885
1154.75,0.083529,433579,357717
1158.33,0.085109,436264,358625
1161.91,0.086882,439132,359512
1165.48,0.088255,442389,361035
1169.04,0.090647,446101,362065
1173.79,0.094520,451929,363538
1177.34,0.096149,456026,365461
1180.9,0.098746,461306,367488
1184.44,0.100111,467657,371378
1187.99,0.101213,473969,375437
1191.52,0.101658,479856,379711
1195.06,0.100801,487372,386420
1199.76,0.100323,497347,394763
1203.29,0.099657,504311,400905
1206.81,0.099596,511507,406683
1210.33,0.098951,519078,413315
1213.84,0.098482,527163,420207
1217.35,0.097478,534208,426808
1220.85,0.096898,540472,432390
1225.51,0.096023,549929,440843
1229.01,0.095980,556888,446465
1232.5,0.095254,562180,451462
1235.98,0.094401,567975,457013
1239.46,0.093484,574815,463494
1242.94,0.092628,582782,470845
1246.41,0.092055,591476,478500
1251.03,0.091947,604016,488767
1254.5,0.091572,612289,495889
1257.96,0.092443,619125,500421
1261.41,0.092984,624551,504178
1264.86,0.093164,629900,508285
1268.31,0.094235,634345,510611
1271.75,0.094498,638574,513704
1276.33,0.094943,642499,516332
1279.76,0.094494,645905,519606
1283.19,0.093938,648307,522207
1286.61,0.094140,650446,523686
1290.03,0.093484,652132,525837
1293.44,0.092774,653907,528131
1296.85,0.092512,655963,530112
1301.39,0.092298,657349,531493
1304.8,0.092571,657558,531329
1308.19,0.092859,658515,531749
1311.58,0.093118,658804,531665
1314.97,0.093090,659011,531866
1318.36,0.093320,658272,530989
1321.73,0.093975,658022,529987
1326.23,0.094589,657870,529116
1329.6,0.094952,656482,527559
1332.97,0.096286,654926,524694
1336.33,0.097065,653727,522795
1339.69,0.098730,652497,519815
1343.04,0.100663,649913,515457
1346.39,0.102386,647671,511645
1349.73,0.104279,645338,507584
1354.18,0.107011,641175,501147
1357.52,0.108956,638376,496730
1360.85,0.111128,635805,492262
1364.17,0.112893,633413,488421
1367.49,0.115194,631026,484009
1370.81,0.117408,628050,479277
1374.12,0.119472,625034,474714
1378.54,0.122604,620272,467712
1381.84,0.125465,616892,462109
1385.14,0.129038,613613,455886
1388.43,0.132354,611526,450880
1391.72,0.135962,610663,446519
1395.01,0.140230,610634,442131
1398.29,0.144596,611700,438473
1402.66,0.150541,614051,434174
1405.93,0.156265,616268,430036
1409.2,0.161111,617795,426318
1412.46,0.165121,618872,423136
1415.72,0.169074,619795,419927
1418.98,0.172488,620495,417110
1422.23,0.175623,621087,414505
1426.56,0.179850,621375,410680
1429.8,0.182249,621616,408576
1433.04,0.184512,622129,406788
1436.27,0.186993,621526,404079
1439.5,0.188887,621113,402053
1442.72,0.191412,620921,399599
1445.94,0.194180,620270,396644
1450.23,0.197766,618860,392488
1453.44,0.200019,617697,389723
1456.64,0.202987,616264,386171
1459.85,0.205856,614413,382476
1463.04,0.208623,612307,378744
1466.24,0.212165,610032,374272
1469.43,0.215896,607345,369436
1473.67,0.222141,603789,362030
1476.85,0.227179,601175,356305
1480.02,0.232987,597737,349561
1483.19,0.239779,594479,342261
1486.36,0.244988,591232,336333
1489.52,0.250308,587853,330340
1492.68,0.254367,583875,325052
1496.89,0.255571,578062,320925
1500.03,0.256380,574159,318165
1503.18,0.256313,570285,316067
1506.32,0.255287,565444,314125
1509.45,0.253996,560571,312345
1512.58,0.252624,555821,310678
1515.71,0.249840,550344,309595
1519.87,0.247555,543983,307631
1522.99,0.244276,538764,306989
1526.1,0.242231,533692,305534
1529.21,0.238993,527902,304481
1532.32,0.236408,521886,302808
1535.42,0.233972,515888,301012
1538.51,0.230697,509987,299821
1541.6,0.227680,503936,298329
1545.72,0.224182,494694,295226
1548.8,0.221300,488378,293397
1551.88,0.218994,481832,291006
1554.95,0.216971,474989,288212
1558.02,0.215005,467818,285149
1561.08,0.214912,460730,280889
1564.15,0.213169,454170,278003
1568.22,0.212221,444181,272483
1571.27,0.211218,436947,268665
1574.32,0.211100,429598,264218
1577.36,0.213825,422039,257945
1580.4,0.209374,414375,255870
1583.43,0.207172,406354,252193
1586.46,0.205598,398475,248201
1590.49,0.203456,388982,243486
1593.51,0.201876,380708,239175
1596.53,0.200087,372727,235128
1599.54,0.198166,365060,231312
1602.55,0.195479,357543,227955
1605.55,0.193952,349495,223609
1608.55,0.192084,341154,219213
1612.54,0.189893,330877,213685
1615.53,0.188551,322904,209181
1618.51,0.187563,315116,204601
1621.49,0.186200,307217,200099
1624.47,0.186090,299481,195110
1627.44,0.185021,292112,190778
1630.41,0.183972,284245,186089
1634.36,0.183690,274079,179550
1637.32,0.181222,266916,175854
1640.27,0.180712,259612,171243
1643.22,0.180450,251804,166193
1646.16,0.179205,244348,161735
1649.1,0.179193,236703,156679
1652.04,0.177249,228171,151709
1655.95,0.172580,215408,144771
1658.88,0.169650,204937,138666
1661.8,0.165276,193395,132181
1664.72,0.157897,179728,124945
1667.63,0.144904,163642,117217
1670.54,0.130728,146312,108281
1673.44,0.115570,128451,98439
1677.31,0.094797,105080,84474
1680.21,0.081469,88906,73699
1683.1,0.077999,75033,62698
1685.99,0.082404,63520,52542
1688.87,0.080772,53714,44598
1691.75,0.086064,45653,37446
1694.62,0.086272,39137,32086
1697.49,0.095062,33776,27136
1701.31,0.102007,28175,22277