File: samples/wool/wool-000811/Column 1_050579_20150331_121328.csv
Method:,Column 1,,
Host Date-Time:,31/3/15 @ 12:13:28,,
Header Version:,1,,
System Temp (C):,33.79,,
Detector Temp (C):,34.59,,
Humidity (%):,2.05,,
Lamp PD:,3819,,
Shift Vector Coefficients:,-10.5391,0.0761263,-0.000134223,,
Pixel to Wavelength Coefficients:,1775.68,-0.916766,-0.000235065,,
Serial Number:,5510004,,
Scan Config Name:,Column 1,,
Scan Config Type:,Slew,,
Section 1,,
Start wavelength (nm):,900,,
End wavelength (nm):,1700,,
Pattern Pixel Width (nm):,   7.03,,,,
Exposure (ms):,  0.635,,,,
Digital Resolution:,228,,
Num Repeats:,6,,
PGA Gain:,64,,
Total Measurement Time in sec:,  2.677,,
Wavelength (nm),Absorbance (AU),Reference Signal (unitless),Sample Signal (unitless)
901.51,0.071761,108485,91962
905.376,0.078316,121306,101290
909.237,0.079542,131909,109833
913.095,0.079548,143299,119315
916.948,0.082334,156982,129872
922.079,0.082754,179937,148719
925.923,0.084852,200504,164919
929.762,0.084075,222660,183471
933.597,0.084360,244426,201274
937.427,0.084276,263972,217411
941.254,0.082673,281845,232990
945.076,0.081902,297271,246179
950.165,0.081581,315605,261555
953.978,0.080597,328029,272468
957.786,0.081300,340470,282344
961.59,0.080898,352317,292439
965.389,0.080712,363056,301482
969.185,0.081349,373162,309420
972.976,0.081525,382632,317144
976.763,0.081689,391202,324125
981.806,0.082366,400190,331055
985.583,0.082572,406088,335775
989.355,0.083517,410162,338406
993.124,0.083916,412868,340326
996.888,0.084501,414263,341016
1000.65,0.085167,415476,341491
1004.4,0.086160,415479,340713
1009.41,0.087355,414358,338860
1013.15,0.087716,412923,337406
1016.89,0.087980,411526,336060
1020.63,0.089058,409066,333223
1024.36,0.088299,406777,331938
1028.09,0.088271,404427,330042
1031.82,0.088683,401911,327678
1036.78,0.087974,398410,325354
1040.49,0.087588,396204,323840
1044.2,0.087662,394236,322177
1047.91,0.087246,392042,320691
1051.61,0.086617,389823,319338
1055.31,0.086926,388234,317810
1059,0.086454,387599,317635
1063.92,0.085190,386688,317812
1067.61,0.084604,386598,318167
1071.29,0.083753,387377,319434
1074.96,0.083893,388536,320286
1078.63,0.083097,389855,321963
1082.3,0.082690,391215,323389
1085.96,0.082205,393215,325406
1090.84,0.080917,396270,328908
1094.49,0.079973,398760,331695
1098.14,0.079988,400987,333536
1101.79,0.079439,403477,336031
1105.43,0.079226,406116,338395
1109.06,0.078018,407701,340662
1112.7,0.078124,409859,342382
1117.53,0.077741,412494,344887
1121.15,0.078592,414909,346227
1124.77,0.078950,416559,347317
1128.38,0.079244,418532,348726
1131.99,0.080161,419956,349175
1135.6,0.081910,421946,349419
1139.2,0.083115,423881,350049
1143.99,0.085401,426786,350598
1147.58,0.086158,428617,351489
1151.17,0.087323,431169,352634
1154.75,0.088820,433579,353385
1158.33,0.089877,436264,354709
1161.91,0.091698,439132,355547
1165.48,0.094165,442389,356155
1169.04,0.096287,446101,357393
1173.79,0.099602,451929,359309
1177.34,0.101493,456026,360991
1180.9,0.103712,461306,363310
1184.44,0.105209,467657,367044
1187.99,0.106150,473969,371193
1191.52,0.106147,479856,375806
1195.06,0.106083,487372,381749
1199.76,0.105060,497347,390481
1203.29,0.104406,504311,396545
1206.81,0.103786,511507,402778
1210.33,0.103456,519078,409050
1213.84,0.103188,527163,415678
1217.35,0.102514,534208,421887
1220.85,0.101770,540472,427566
1225.51,0.100784,549929,436036
1229.01,0.100608,556888,441733
1232.5,0.099823,562180,446737
1235.98,0.098954,567975,452246
1239.46,0.098337,574815,458343
1242.94,0.097292,582782,465816
1246.41,0.096938,591476,473150
1251.03,0.096641,604016,483512
1254.5,0.096827,612289,489925
1257.96,0.097140,619125,495038
1261.41,0.097790,624551,498630
1264.86,0.097913,629900,502758
1268.31,0.098641,634345,505457
1271.75,0.099512,638574,507808
1276.33,0.099316,642499,511159
1279.76,0.099724,645905,513387
1283.19,0.099001,648307,516154
1286.61,0.098762,650446,518143
1290.03,0.098270,652132,520075
1293.44,0.097508,653907,522406
1296.85,0.097755,655963,523750
1301.39,0.097677,657349,524951
1304.8,0.097459,657558,525382
1308.19,0.097772,658515,525767
1311.58,0.097764,658804,526008
1314.97,0.098562,659011,525207
1318.36,0.098719,658272,524429
1321.73,0.098872,658022,524045
1326.23,0.100284,657870,522223
1329.6,0.101243,656482,519972
1332.97,0.102242,654926,517547
1336.33,0.103692,653727,514878
1339.69,0.105325,652497,511981
1343.04,0.107182,649913,507777
1346.39,0.108625,647671,504347
1349.73,0.110991,645338,499800
1354.18,0.113890,641175,493272
1357.52,0.116326,638376,488372
1360.85,0.117913,635805,484631
1364.17,0.120103,633413,480379
1367.49,0.122414,631026,476029
1370.81,0.124436,628050,471583
1374.12,0.126745,625034,466830
1378.54,0.130070,620272,459740
1381.84,0.133098,616892,454058
1385.14,0.137375,613613,447218
1388.43,0.141507,611526,441477
1391.72,0.146689,610663,435625
1395.01,0.151280,610634,431024
1398.29,0.157300,611700,425832
1402.66,0.165001,614051,419956
1405.93,0.170882,616268,415803
1409.2,0.176213,617795,411748
1412.46,0.181243,618872,407716
1415.72,0.186677,619795,403247
1418.98,0.190607,620495,400066
1422.23,0.194031,621087,397303
1426.56,0.198747,621375,393194
1429.8,0.201692,621616,390688
1433.04,0.204065,622129,388880
1436.27,0.206338,621526,386475
1439.5,0.208213,621113,384554
1442.72,0.210679,620921,382259
1445.94,0.212828,620270,379973
1450.23,0.216534,618860,375888
1453.44,0.218534,617697,373458
1456.64,0.221525,616264,370034
1459.85,0.223734,614413,367051
1463.04,0.226803,612307,363217
1466.24,0.229595,610032,359549
1469.43,0.232689,607345,355424
1473.67,0.237616,603789,349357
1476.85,0.241852,601175,344468
1480.02,0.246683,597737,338709
1483.19,0.252682,594479,332242
1486.36,0.256686,591232,327395
1489.52,0.261170,587853,322180
1492.68,0.264196,583875,317778
1496.89,0.266358,578062,313052
1500.03,0.267144,574159,310376
1503.18,0.266914,570285,308445
1506.32,0.266102,565444,306399
1509.45,0.264294,560571,305026
1512.58,0.262839,555821,303456
1515.71,0.260583,550344,302031
1519.87,0.258017,543983,300309
1522.99,0.254938,538764,299544
1526.1,0.253013,533692,298042
1529.21,0.250810,527902,296308
1532.32,0.247721,521886,295022
1535.42,0.245328,515888,293243
1538.51,0.241635,509987,292364
1541.6,0.238966,503936,290676
1545.72,0.235093,494694,287901
1548.8,0.232360,488378,286020
1551.88,0.229632,481832,283964
1554.95,0.227824,474989,281099
1558.02,0.226576,467818,277652
1561.08,0.225300,460730,274250
1564.15,0.223765,454170,271302
1568.22,0.222778,444181,265939
1571.27,0.222652,436947,261684
1574.32,0.221358,429598,258050
1577.36,0.219504,422039,254594
1580.4,0.218842,414375,250352
1583.43,0.216748,406354,246693
1586.46,0.214850,398475,242969
1590.49,0.214151,388982,237563
1593.51,0.211697,380708,233827
1596.53,0.209016,372727,230343
1599.54,0.207605,365060,226339
1602.55,0.205571,357543,222719
1605.55,0.203584,349495,218704
1608.55,0.201511,341154,214506
1612.54,0.199622,330877,208951
1615.53,0.197182,322904,205065
1618.51,0.195787,315116,200763
1621.49,0.195923,307217,195669
1624.47,0.193781,299481,191685
1627.44,0.193023,292112,187295
1630.41,0.192575,284245,182439
1634.36,0.190293,274079,176841
1637.32,0.190788,266916,172023
1640.27,0.189843,259612,167680
1643.22,0.189120,251804,162908
1646.16,0.187582,244348,158645
1649.1,0.187617,236703,153669
1652.04,0.185421,228171,148881
1655.95,0.181895,215408,141699
1658.88,0.178433,204937,135890
1661.8,0.172649,193395,129956
1664.72,0.166618,179728,122461
1667.63,0.153367,163642,114955
1670.54,0.140482,146312,105876
1673.44,0.126539,128451,95984
1677.31,0.104351,105080,82636
1680.21,0.095318,88906,71386
1683.1,0.089389,75033,61075
1685.99,0.090050,63520,51625
1688.87,0.098745,53714,42790
1691.75,0.092914,45653,36860
1694.62,0.106270,39137,30642
1697.49,0.102895,33776,26651
1701.31,0.116296,28175,21556