File: samples/wool/wool-000811/Column 1_050605_20150331_122609.csv
Method:,Column 1,,
Host Date-Time:,31/3/15 @ 12:26:9,,
Header Version:,1,,
System Temp (C):,33.98,,
Detector Temp (C):,34.84,,
Humidity (%):,1.66,,
Lamp PD:,3818,,
Shift Vector Coefficients:,-10.5391,0.0761263,-0.000134223,,
Pixel to Wavelength Coefficients:,1775.68,-0.916766,-0.000235065,,
Serial Number:,5510004,,
Scan Config Name:,Column 1,,
Scan Config Type:,Slew,,
Section 1,,
Start wavelength (nm):,900,,
End wavelength (nm):,1700,,
Pattern Pixel Width (nm):,   7.03,,,,
Exposure (ms):,  0.635,,,,
Digital Resolution:,228,,
Num Repeats:,6,,
PGA Gain:,64,,
Total Measurement Time in sec:,  2.678,,
Wavelength (nm),Absorbance (AU),Reference Signal (unitless),Sample Signal (unitless)
901.51,0.067494,108485,92870
905.376,0.074661,121306,102146
909.237,0.076441,131909,110620
913.095,0.077239,143299,119951
916.948,0.078356,156982,131067
922.079,0.080256,179937,149577
925.923,0.082677,200504,165747
929.762,0.082537,222660,184122
933.597,0.081572,244426,202570
937.427,0.080616,263972,219251
941.254,0.080524,281845,234146
945.076,0.078617,297271,248048
950.165,0.077976,315605,263735
953.978,0.076619,328029,274975
957.786,0.077278,340470,284971
961.59,0.078112,352317,294321
965.389,0.077772,363056,303530
969.185,0.077285,373162,312329
972.976,0.077671,382632,319971
976.763,0.078144,391202,326781
981.806,0.078690,400190,333869
985.583,0.079199,406088,338393
989.355,0.080043,410162,341124
993.124,0.080604,412868,342931
996.888,0.080855,414263,343891
1000.65,0.081456,415476,344421
1004.4,0.082382,415479,343690
1009.41,0.083567,414358,341829
1013.15,0.084019,412923,340291
1016.89,0.084966,411526,338401
1020.63,0.084670,409066,336607
1024.36,0.084230,406777,335063
1028.09,0.084091,404427,333234
1031.82,0.084217,401911,331065
1036.78,0.083890,398410,328428
1040.49,0.083795,396204,326681
1044.2,0.084114,394236,324820
1047.91,0.083249,392042,323656
1051.61,0.083346,389823,321752
1055.31,0.082767,388234,320868
1059,0.082438,387599,320586
1063.92,0.082251,386688,319970
1067.61,0.081021,386598,320803
1071.29,0.080455,387377,321869
1074.96,0.080202,388536,323020
1078.63,0.079547,389855,324606
1082.3,0.078685,391215,326385
1085.96,0.077918,393215,328634
1090.84,0.076875,396270,331983
1094.49,0.076430,398760,334412
1098.14,0.075556,400987,336957
1101.79,0.075033,403477,339458
1105.43,0.074727,406116,341919
1109.06,0.074404,407701,343509
1112.7,0.073892,409859,345734
1117.53,0.073467,412494,348298
1121.15,0.074046,414909,349870
1124.77,0.074256,416559,351092
1128.38,0.074816,418532,352300
1131.99,0.075749,419956,352740
1135.6,0.077433,421946,353040
1139.2,0.078937,423881,353433
1143.99,0.080681,426786,354429
1147.58,0.081884,428617,354965
1151.17,0.082559,431169,356524
1154.75,0.083083,433579,358084
1158.33,0.084754,436264,358918
1161.91,0.086534,439132,359800
1165.48,0.088671,442389,360689
1169.04,0.090864,446101,361884
1173.79,0.094304,451929,363719
1177.34,0.096475,456026,365186
1180.9,0.098751,461306,367484
1184.44,0.099998,467657,371475
1187.99,0.101314,473969,375350
1191.52,0.101131,479856,380172
1195.06,0.101011,487372,386233
1199.76,0.100807,497347,394323
1203.29,0.099885,504311,400695
1206.81,0.099281,511507,406978
1210.33,0.098882,519078,413381
1213.84,0.098388,527163,420298
1217.35,0.097602,534208,426686
1220.85,0.097025,540472,432263
1225.51,0.095929,549929,440938
1229.01,0.095800,556888,446651
1232.5,0.094979,562180,451748
1235.98,0.094421,567975,456992
1239.46,0.093536,574815,463439
1242.94,0.092751,582782,470712
1246.41,0.091701,591476,478890
1251.03,0.091540,604016,489225
1254.5,0.091797,612289,495632
1257.96,0.091965,619125,500972
1261.41,0.092891,624551,504286
1264.86,0.093384,629900,508028
1268.31,0.094060,634345,510817
1271.75,0.094731,638574,513429
1276.33,0.094944,642499,516331
1279.76,0.094406,645905,519712
1283.19,0.094342,648307,521722
1286.61,0.093732,650446,524179
1290.03,0.093055,652132,526357
1293.44,0.092801,653907,528099
1296.85,0.092656,655963,529936
1301.39,0.092447,657349,531311
1304.8,0.092530,657558,531379
1308.19,0.092808,658515,531812
1311.58,0.092495,658804,532428
1314.97,0.093246,659011,531675
1318.36,0.093155,658272,531190
1321.73,0.093481,658022,530591
1326.23,0.094446,657870,529290
1329.6,0.095180,656482,527282
1332.97,0.095982,654926,525061
1336.33,0.097137,653727,522708
1339.69,0.098776,652497,519760
1343.04,0.100222,649913,515980
1346.39,0.101927,647671,512186
1349.73,0.104136,645338,507752
1354.18,0.107199,641175,500931
1357.52,0.108900,638376,496794
1360.85,0.110966,635805,492445
1364.17,0.112816,633413,488507
1367.49,0.115114,631026,484098
1370.81,0.117084,628050,479634
1374.12,0.119164,625034,475050
1378.54,0.122304,620272,468035
1381.84,0.125168,616892,462425
1385.14,0.128344,613613,456615
1388.43,0.132306,611526,450930
1391.72,0.136598,610663,445865
1395.01,0.140546,610634,441809
1398.29,0.144823,611700,438244
1402.66,0.150902,614051,433813
1405.93,0.155689,616268,430607
1409.2,0.160736,617795,426686
1412.46,0.165442,618872,422823
1415.72,0.169311,619795,419698
1418.98,0.172315,620495,417276
1422.23,0.175717,621087,414415
1426.56,0.179525,621375,410988
1429.8,0.182007,621616,408804
1433.04,0.184598,622129,406708
1436.27,0.186905,621526,404161
1439.5,0.188644,621113,402278
1442.72,0.191487,620921,399530
1445.94,0.194501,620270,396351
1450.23,0.196986,618860,393194
1453.44,0.200165,617697,389592
1456.64,0.203034,616264,386129
1459.85,0.205332,614413,382938
1463.04,0.208923,612307,378483
1466.24,0.212089,610032,374338
1469.43,0.215830,607345,369492
1473.67,0.221925,603789,362210
1476.85,0.226880,601175,356550
1480.02,0.233101,597737,349469
1483.19,0.239816,594479,342232
1486.36,0.246020,591232,335535
1489.52,0.250721,587853,330026
1492.68,0.253848,583875,325441
1496.89,0.255574,578062,320923
1500.03,0.255604,574159,318734
1503.18,0.256311,570285,316068
1506.32,0.255179,565444,314203
1509.45,0.253939,560571,312386
1512.58,0.252071,555821,311074
1515.71,0.250270,550344,309289
1519.87,0.247067,543983,307977
1522.99,0.244150,538764,307078
1526.1,0.242044,533692,305666
1529.21,0.239407,527902,304191
1532.32,0.236522,521886,302729
1535.42,0.233465,515888,301363
1538.51,0.230057,509987,300263
1541.6,0.227855,503936,298209
1545.72,0.223115,494694,295952
1548.8,0.220944,488378,293638
1551.88,0.218268,481832,291493
1554.95,0.216569,474989,288479
1558.02,0.215802,467818,284626
1561.08,0.213857,460730,281572
1564.15,0.212577,454170,278382
1568.22,0.211927,444181,272667
1571.27,0.211543,436947,268464
1574.32,0.211065,429598,264239
1577.36,0.210645,422039,259841
1580.4,0.208647,414375,256299
1583.43,0.207173,406354,252192
1586.46,0.205839,398475,248063
1590.49,0.204532,388982,242883
1593.51,0.201453,380708,239408
1596.53,0.199725,372727,235324
1599.54,0.197509,365060,231662
1602.55,0.196461,357543,227440
1605.55,0.194632,349495,223259
1608.55,0.192556,341154,218975
1612.54,0.189986,330877,213639
1615.53,0.188286,322904,209309
1618.51,0.188000,315116,204395
1621.49,0.186635,307217,199899
1624.47,0.184960,299481,195618
1627.44,0.183619,292112,191395
1630.41,0.185124,284245,185596
1634.36,0.181468,274079,180471
1637.32,0.182261,266916,175434
1640.27,0.181407,259612,170969
1643.22,0.180923,251804,166012
1646.16,0.179210,244348,161733
1649.1,0.178041,236703,157095
1652.04,0.176185,228171,152081
1655.95,0.174200,215408,144232
1658.88,0.170622,204937,138356
1661.8,0.164574,193395,132395
1664.72,0.157636,179728,125020
1667.63,0.144689,163642,117275
1670.54,0.128923,146312,108732
1673.44,0.112756,128451,99079
1677.31,0.093017,105080,84821
1680.21,0.083377,88906,73376
1683.1,0.077376,75033,62788
1685.99,0.078323,63520,53038
1688.87,0.078006,53714,44883
1691.75,0.086993,45653,37366
1694.62,0.088171,39137,31946
1697.49,0.094503,33776,27171
1701.31,0.103844,28175,22183