File: samples/wool/wool-000811/Column 1_050625_20150331_123520.csv
Method:,Column 1,,
Host Date-Time:,31/3/15 @ 12:35:20,,
Header Version:,1,,
System Temp (C):,34.15,,
Detector Temp (C):,35.05,,
Humidity (%):,1.56,,
Lamp PD:,3818,,
Shift Vector Coefficients:,-10.5391,0.0761263,-0.000134223,,
Pixel to Wavelength Coefficients:,1775.68,-0.916766,-0.000235065,,
Serial Number:,5510004,,
Scan Config Name:,Column 1,,
Scan Config Type:,Slew,,
Section 1,,
Start wavelength (nm):,900,,
End wavelength (nm):,1700,,
Pattern Pixel Width (nm):,   7.03,,,,
Exposure (ms):,  0.635,,,,
Digital Resolution:,228,,
Num Repeats:,6,,
PGA Gain:,64,,
Total Measurement Time in sec:,  2.721,,
Wavelength (nm),Absorbance (AU),Reference Signal (unitless),Sample Signal (unitless)
901.51,0.070017,108485,92332
905.376,0.074644,121306,102150
909.237,0.077979,131909,110229
913.095,0.077823,143299,119790
916.948,0.080466,156982,130432
922.079,0.080395,179937,149529
925.923,0.081398,200504,166236
929.762,0.082572,222660,184107
933.597,0.083028,244426,201892
937.427,0.081225,263972,218944
941.254,0.080624,281845,234092
945.076,0.079783,297271,247383
950.165,0.078049,315605,263691
953.978,0.077305,328029,274541
957.786,0.077862,340470,284588
961.59,0.078111,352317,294322
965.389,0.076893,363056,304145
969.185,0.077654,373162,312064
972.976,0.077911,382632,319794
976.763,0.078330,391202,326641
981.806,0.079131,400190,333530
985.583,0.079396,406088,338239
989.355,0.079717,410162,341380
993.124,0.080227,412868,343229
996.888,0.080564,414263,344122
1000.65,0.081458,415476,344420
1004.4,0.083094,415479,343127
1009.41,0.084247,414358,341294
1013.15,0.084361,412923,340023
1016.89,0.084676,411526,338627
1020.63,0.084158,409066,337004
1024.36,0.084938,406777,334517
1028.09,0.084551,404427,332881
1031.82,0.083927,401911,331286
1036.78,0.083708,398410,328566
1040.49,0.083889,396204,326610
1044.2,0.083483,394236,325292
1047.91,0.083676,392042,323338
1051.61,0.083568,389823,321588
1055.31,0.082275,388234,321232
1059,0.082479,387599,320556
1063.92,0.081328,386688,320651
1067.61,0.080767,386598,320991
1071.29,0.080178,387377,322074
1074.96,0.080278,388536,322963
1078.63,0.079361,389855,324745
1082.3,0.077724,391215,327108
1085.96,0.078031,393215,328548
1090.84,0.076431,396270,332323
1094.49,0.076453,398760,334394
1098.14,0.075397,400987,337080
1101.79,0.075062,403477,339435
1105.43,0.074517,406116,342084
1109.06,0.074428,407701,343490
1112.7,0.073183,409859,346299
1117.53,0.072700,412494,348913
1121.15,0.074055,414909,349863
1124.77,0.074049,416559,351259
1128.38,0.074640,418532,352443
1131.99,0.075540,419956,352910
1135.6,0.077373,421946,353089
1139.2,0.078851,423881,353503
1143.99,0.080973,426786,354191
1147.58,0.081422,428617,355343
1151.17,0.082178,431169,356837
1154.75,0.082969,433579,358178
1158.33,0.083817,436264,359693
1161.91,0.085789,439132,360418
1165.48,0.087989,442389,361256
1169.04,0.089862,446101,362720
1173.79,0.093860,451929,364091
1177.34,0.095850,456026,365712
1180.9,0.097923,461306,368185
1184.44,0.099406,467657,371982
1187.99,0.101326,473969,375339
1191.52,0.100884,479856,380388
1195.06,0.100552,487372,386642
1199.76,0.099832,497347,395210
1203.29,0.099146,504311,401377
1206.81,0.098957,511507,407281
1210.33,0.097617,519078,414587
1213.84,0.098167,527163,420512
1217.35,0.096876,534208,427400
1220.85,0.096574,540472,432712
1225.51,0.095711,549929,441159
1229.01,0.094884,556888,447594
1232.5,0.094629,562180,452112
1235.98,0.093407,567975,458060
1239.46,0.092526,574815,464517
1242.94,0.091705,582782,471847
1246.41,0.091477,591476,479137
1251.03,0.091044,604016,489784
1254.5,0.091479,612289,495995
1257.96,0.091583,619125,501413
1261.41,0.092024,624551,505294
1264.86,0.092938,629900,508550
1268.31,0.093231,634345,511793
1271.75,0.093944,638574,514360
1276.33,0.094112,642499,517322
1279.76,0.094357,645905,519770
1283.19,0.093278,648307,523001
1286.61,0.093136,650446,524898
1290.03,0.092569,652132,526946
1293.44,0.092326,653907,528676
1296.85,0.092037,655963,530692
1301.39,0.091665,657349,532269
1304.8,0.092009,657558,532016
1308.19,0.091887,658515,532940
1311.58,0.091885,658804,533177
1314.97,0.091814,659011,533432
1318.36,0.092834,658272,531583
1321.73,0.092673,658022,531579
1326.23,0.093724,657870,530171
1329.6,0.094267,656482,528391
1332.97,0.095237,654926,525963
1336.33,0.096115,653727,523940
1339.69,0.097541,652497,521240
1343.04,0.098942,649913,517503
1346.39,0.101295,647671,512932
1349.73,0.102980,645338,509105
1354.18,0.105701,641175,502662
1357.52,0.107782,638376,498075
1360.85,0.109859,635805,493702
1364.17,0.111524,633413,489963
1367.49,0.113355,631026,486063
1370.81,0.115990,628050,480844
1374.12,0.118130,625034,476183
1378.54,0.120615,620272,469859
1381.84,0.123338,616892,464377
1385.14,0.126818,613613,458223
1388.43,0.130012,611526,453318
1391.72,0.133712,610663,448838
1395.01,0.138045,610634,444361
1398.29,0.141609,611700,441499
1402.66,0.147506,614051,437218
1405.93,0.152164,616268,434116
1409.2,0.156539,617795,430829
1412.46,0.161073,618872,427098
1415.72,0.164680,619795,424197
1418.98,0.168399,620495,421055
1422.23,0.171053,621087,418889
1426.56,0.175182,621375,415118
1429.8,0.177788,621616,412795
1433.04,0.180144,622129,410900
1436.27,0.182202,621526,408561
1439.5,0.184083,621113,406525
1442.72,0.186869,620921,403801
1445.94,0.188914,620270,401483
1450.23,0.192646,618860,397143
1453.44,0.195597,617697,393712
1456.64,0.198059,616264,390578
1459.85,0.201440,614413,386385
1463.04,0.203861,612307,382920
1466.24,0.208186,610032,377717
1469.43,0.211460,607345,373229
1473.67,0.218456,603789,365115
1476.85,0.224318,601175,358660
1480.02,0.230332,597737,351705
1483.19,0.237106,594479,344374
1486.36,0.243267,591232,337669
1489.52,0.248752,587853,331525
1492.68,0.251546,583875,327170
1496.89,0.253416,578062,322521
1500.03,0.253805,574159,320057
1503.18,0.254333,570285,317511
1506.32,0.253147,565444,315677
1509.45,0.251969,560571,313806
1512.58,0.250601,555821,312129
1515.71,0.248160,550344,310795
1519.87,0.245020,543983,309432
1522.99,0.242176,538764,308477
1526.1,0.239742,533692,307290
1529.21,0.235903,527902,306655
1532.32,0.234182,521886,304364
1535.42,0.231018,515888,303066
1538.51,0.228053,509987,301652
1541.6,0.225597,503936,299763
1545.72,0.220692,494694,297608
1548.8,0.219214,488378,294810
1551.88,0.216973,481832,292363
1554.95,0.214558,474989,289818
1558.02,0.213377,467818,286220
1561.08,0.211737,460730,282950
1564.15,0.210990,454170,279401
1568.22,0.210498,444181,273566
1571.27,0.209852,436947,269511
1574.32,0.208831,429598,265602
1577.36,0.207869,422039,261507
1580.4,0.206650,414375,257480
1583.43,0.205307,406354,253278
1586.46,0.203501,398475,249402
1590.49,0.201983,388982,244313
1593.51,0.200408,380708,239985
1596.53,0.197850,372727,236342
1599.54,0.196545,365060,232177
1602.55,0.194001,357543,228732
1605.55,0.192496,349495,224360
1608.55,0.189948,341154,220294
1612.54,0.187612,330877,214810
1615.53,0.186199,322904,210317
1618.51,0.186249,315116,205221
1621.49,0.184915,307217,200692
1624.47,0.182360,299481,196793
1627.44,0.182977,292112,191678
1630.41,0.181378,284245,187204
1634.36,0.179859,274079,181141
1637.32,0.180443,266916,176170
1640.27,0.179565,259612,171696
1643.22,0.178820,251804,166818
1646.16,0.178365,244348,162048
1649.1,0.174962,236703,158213
1652.04,0.174760,228171,152581
1655.95,0.171564,215408,145110
1658.88,0.167950,204937,139210
1661.8,0.163853,193395,132615
1664.72,0.155042,179728,125769
1667.63,0.142679,163642,117819
1670.54,0.126529,146312,109333
1673.44,0.112449,128451,99149
1677.31,0.091642,105080,85090
1680.21,0.078135,88906,74267
1683.1,0.070316,75033,63817
1685.99,0.073843,63520,53588
1688.87,0.076354,53714,45054
1691.75,0.080509,45653,37928
1694.62,0.092379,39137,31638
1697.49,0.092987,33776,27266
1701.31,0.102632,28175,22245