File: samples/wool/wool-000811/Column 1_050543_20150331_115620.csv
Method:,Column 1,,
Host Date-Time:,31/3/15 @ 11:56:20,,
Header Version:,1,,
System Temp (C):,32.59,,
Detector Temp (C):,30.94,,
Humidity (%):,2.78,,
Lamp PD:,3824,,
Shift Vector Coefficients:,-10.5391,0.0761263,-0.000134223,,
Pixel to Wavelength Coefficients:,1775.68,-0.916766,-0.000235065,,
Serial Number:,5510004,,
Scan Config Name:,Column 1,,
Scan Config Type:,Slew,,
Section 1,,
Start wavelength (nm):,900,,
End wavelength (nm):,1700,,
Pattern Pixel Width (nm):,   7.03,,,,
Exposure (ms):,  0.635,,,,
Digital Resolution:,228,,
Num Repeats:,6,,
PGA Gain:,64,,
Total Measurement Time in sec:,  2.670,,
Wavelength (nm),Absorbance (AU),Reference Signal (unitless),Sample Signal (unitless)
901.51,0.045675,108485,97655
905.376,0.051014,121306,107862
909.237,0.052200,131909,116970
913.095,0.052833,143299,126885
916.948,0.053498,156982,138788
922.079,0.053297,179937,159156
925.923,0.053973,200504,177072
929.762,0.053796,222660,196719
933.597,0.054638,244426,215531
937.427,0.054640,263972,232765
941.254,0.054286,281845,248728
945.076,0.054856,297271,261997
950.165,0.054470,315605,278403
953.978,0.054456,328029,289372
957.786,0.054709,340470,300172
961.59,0.055477,352317,310068
965.389,0.055609,363056,319422
969.185,0.055969,373162,328041
972.976,0.055750,382632,336536
976.763,0.056928,391202,343141
981.806,0.057155,400190,350842
985.583,0.058438,406088,354962
989.355,0.058515,410162,358460
993.124,0.059037,412868,360391
996.888,0.059894,414263,360896
1000.65,0.061053,415476,360988
1004.4,0.061747,415479,360414
1009.41,0.063293,414358,358165
1013.15,0.063807,412923,356502
1016.89,0.063836,411526,355272
1020.63,0.064164,409066,352882
1024.36,0.063452,406777,351483
1028.09,0.064099,404427,348932
1031.82,0.063343,401911,347366
1036.78,0.062568,398410,344955
1040.49,0.061372,396204,343991
1044.2,0.061989,394236,341796
1047.91,0.060930,392042,340724
1051.61,0.060610,389823,339045
1055.31,0.060034,388234,338111
1059,0.058998,387599,338364
1063.92,0.058129,386688,338245
1067.61,0.057162,386598,338920
1071.29,0.055838,387377,340640
1074.96,0.055424,388536,341985
1078.63,0.054376,389855,343975
1082.3,0.053119,391215,346176
1085.96,0.052814,393215,348190
1090.84,0.052243,396270,351357
1094.49,0.052529,398760,353332
1098.14,0.051732,400987,355958
1101.79,0.051444,403477,358406
1105.43,0.051456,406116,360740
1109.06,0.050674,407701,362800
1112.7,0.050455,409859,364905
1117.53,0.050559,412494,367163
1121.15,0.052099,414909,368005
1124.77,0.052324,416559,369277
1128.38,0.054177,418532,369447
1131.99,0.055157,419956,369868
1135.6,0.057305,421946,369787
1139.2,0.059531,423881,369584
1143.99,0.061756,426786,370215
1147.58,0.063319,428617,370468
1151.17,0.064371,431169,371772
1154.75,0.066192,433579,372286
1158.33,0.068447,436264,372651
1161.91,0.070616,439132,373232
1165.48,0.074058,442389,373032
1169.04,0.076249,446101,374269
1173.79,0.080510,451929,375457
1177.34,0.083532,456026,376234
1180.9,0.085965,461306,378464
1184.44,0.087507,467657,382314
1187.99,0.088535,473969,386558
1191.52,0.088040,479856,391806
1195.06,0.087525,487372,398415
1199.76,0.086136,497347,407872
1203.29,0.084211,504311,415420
1206.81,0.083282,511507,422250
1210.33,0.082482,519078,429290
1213.84,0.081169,527163,437296
1217.35,0.080262,534208,444067
1220.85,0.078841,540472,450746
1225.51,0.077607,549929,459938
1229.01,0.077712,556888,465646
1232.5,0.075978,562180,471952
1235.98,0.075525,567975,477314
1239.46,0.074179,574815,484562
1242.94,0.073285,582782,492290
1246.41,0.072171,591476,500917
1251.03,0.071935,604016,511815
1254.5,0.071741,612289,519057
1257.96,0.072583,619125,523836
1261.41,0.072776,624551,528192
1264.86,0.073162,629900,532242
1268.31,0.074145,634345,534787
1271.75,0.074996,638574,537298
1276.33,0.075237,642499,540300
1279.76,0.075113,645905,543320
1283.19,0.074532,648307,546071
1286.61,0.074054,650446,548476
1290.03,0.073973,652132,550000
1293.44,0.073158,653907,552533
1296.85,0.073264,655963,554135
1301.39,0.072635,657349,556111
1304.8,0.072966,657558,555864
1308.19,0.073255,658515,556302
1311.58,0.073260,658804,556540
1314.97,0.073897,659011,555899
1318.36,0.074599,658272,554379
1321.73,0.075008,658022,553646
1326.23,0.076065,657870,552173
1329.6,0.076969,656482,549862
1332.97,0.077981,654926,547282
1336.33,0.079695,653727,544129
1339.69,0.081635,652497,540684
1343.04,0.083336,649913,536437
1346.39,0.085857,647671,531493
1349.73,0.088159,645338,526779
1354.18,0.091820,641175,518987
1357.52,0.093853,638376,514308
1360.85,0.096659,635805,508938
1364.17,0.099310,633413,503938
1367.49,0.101775,631026,499197
1370.81,0.104505,628050,493730
1374.12,0.107068,625034,488467
1378.54,0.111043,620272,480329
1381.84,0.114853,616892,473539
1385.14,0.119488,613613,466022
1388.43,0.124776,611526,458816
1391.72,0.130997,610663,451653
1395.01,0.136516,610634,445928
1398.29,0.142480,611700,440614
1402.66,0.150539,614051,434176
1405.93,0.157859,616268,428460
1409.2,0.163918,617795,423571
1412.46,0.170019,618872,418391
1415.72,0.175694,619795,413575
1418.98,0.179553,620495,410379
1422.23,0.184180,621087,406418
1426.56,0.188932,621375,402181
1429.8,0.191520,621616,399947
1433.04,0.194061,622129,397942
1436.27,0.197370,621526,394538
1439.5,0.199436,621113,392405
1442.72,0.202260,620921,389741
1445.94,0.204790,620270,387071
1450.23,0.207995,618860,383352
1453.44,0.211318,617697,379715
1456.64,0.214331,616264,376215
1459.85,0.216757,614413,372995
1463.04,0.220204,612307,368778
1466.24,0.222616,610032,365373
1469.43,0.225515,607345,361344
1473.67,0.231331,603789,354449
1476.85,0.236050,601175,349101
1480.02,0.241987,597737,342392
1483.19,0.248808,594479,335219
1486.36,0.253609,591232,329723
1489.52,0.258936,587853,323842
1492.68,0.263381,583875,318375
1496.89,0.266254,578062,313127
1500.03,0.267035,574159,310454
1503.18,0.267486,570285,308039
1506.32,0.266763,565444,305933
1509.45,0.265579,560571,304125
1512.58,0.263666,555821,302879
1515.71,0.262094,550344,300982
1519.87,0.258690,543983,299844
1522.99,0.255225,538764,299346
1526.1,0.252690,533692,298264
1529.21,0.250227,527902,296706
1532.32,0.247156,521886,295406
1535.42,0.243565,515888,294436
1538.51,0.241389,509987,292530
1541.6,0.237051,503936,291961
1545.72,0.232139,494694,289866
1548.8,0.228981,488378,288254
1551.88,0.225961,481832,286375
1554.95,0.224046,474989,283555
1558.02,0.221858,467818,280685
1561.08,0.219702,460730,277808
1564.15,0.219655,454170,273882
1568.22,0.218039,444181,268857
1571.27,0.218639,436947,264113
1574.32,0.216943,429598,260687
1577.36,0.214990,422039,257254
1580.4,0.214012,414375,253152
1583.43,0.211526,406354,249677
1586.46,0.209591,398475,245929
1590.49,0.207918,388982,240997
1593.51,0.204503,380708,237733
1596.53,0.202323,372727,233920
1599.54,0.200225,365060,230218
1602.55,0.197243,357543,227031
1605.55,0.194930,349495,223106
1608.55,0.193394,341154,218553
1612.54,0.190845,330877,213217
1615.53,0.188574,322904,209170
1618.51,0.186609,315116,205051
1621.49,0.185470,307217,200436
1624.47,0.183073,299481,196470
1627.44,0.181776,292112,192209
1630.41,0.180812,284245,187448
1634.36,0.179574,274079,181260
1637.32,0.179362,266916,176609
1640.27,0.177108,259612,172670
1643.22,0.175115,251804,168247
1646.16,0.175384,244348,163164
1649.1,0.174984,236703,158205
1652.04,0.173209,228171,153127
1655.95,0.172047,215408,144949
1658.88,0.169854,204937,138601
1661.8,0.168501,193395,131203
1664.72,0.165541,179728,122765
1667.63,0.159607,163642,113315
1670.54,0.153460,146312,102759
1673.44,0.149109,128451,91123
1677.31,0.141696,105080,75827
1680.21,0.140788,88906,64290
1683.1,0.141141,75033,54214
1685.99,0.148089,63520,45167
1688.87,0.159171,53714,37232
1691.75,0.159604,45653,31613
1694.62,0.160228,39137,27062
1697.49,0.165448,33776,23076
1701.31,0.173126,28175,18912