File: samples/wool/wool-000811/Column 1_050586_20150331_121711.csv
Method:,Column 1,,
Host Date-Time:,31/3/15 @ 12:17:11,,
Header Version:,1,,
System Temp (C):,33.79,,
Detector Temp (C):,34.56,,
Humidity (%):,1.86,,
Lamp PD:,3819,,
Shift Vector Coefficients:,-10.5391,0.0761263,-0.000134223,,
Pixel to Wavelength Coefficients:,1775.68,-0.916766,-0.000235065,,
Serial Number:,5510004,,
Scan Config Name:,Column 1,,
Scan Config Type:,Slew,,
Section 1,,
Start wavelength (nm):,900,,
End wavelength (nm):,1700,,
Pattern Pixel Width (nm):,   7.03,,,,
Exposure (ms):,  0.635,,,,
Digital Resolution:,228,,
Num Repeats:,6,,
PGA Gain:,64,,
Total Measurement Time in sec:,  2.694,,
Wavelength (nm),Absorbance (AU),Reference Signal (unitless),Sample Signal (unitless)
901.51,0.070036,108485,92328
905.376,0.075440,121306,101963
909.237,0.077262,131909,110411
913.095,0.077460,143299,119890
916.948,0.077926,156982,131197
922.079,0.081392,179937,149186
925.923,0.081824,200504,166073
929.762,0.083044,222660,183907
933.597,0.082459,244426,202157
937.427,0.081120,263972,218997
941.254,0.081573,281845,233581
945.076,0.080962,297271,246712
950.165,0.080200,315605,262388
953.978,0.079193,328029,273350
957.786,0.079177,340470,283728
961.59,0.079690,352317,293254
965.389,0.078806,363056,302808
969.185,0.078721,373162,311298
972.976,0.080040,382632,318230
976.763,0.080631,391202,324915
981.806,0.080810,400190,332243
985.583,0.081287,406088,336770
989.355,0.081727,410162,339804
993.124,0.081586,412868,342157
996.888,0.082591,414263,342519
1000.65,0.083936,415476,342460
1004.4,0.084609,415479,341932
1009.41,0.085763,414358,340105
1013.15,0.085909,412923,338813
1016.89,0.086774,411526,336995
1020.63,0.086933,409066,334858
1024.36,0.086332,406777,333445
1028.09,0.086226,404427,331600
1031.82,0.086074,401911,329652
1036.78,0.085496,398410,327216
1040.49,0.085791,396204,325183
1044.2,0.085355,394236,323893
1047.91,0.085305,392042,322127
1051.61,0.084919,389823,320589
1055.31,0.084350,388234,319701
1059,0.084259,387599,319245
1063.92,0.083573,386688,318998
1067.61,0.082751,386598,319528
1071.29,0.082100,387377,320652
1074.96,0.081275,388536,322223
1078.63,0.081754,389855,322960
1082.3,0.080213,391215,325239
1085.96,0.080163,393215,326939
1090.84,0.079052,396270,330323
1094.49,0.078301,398760,332974
1098.14,0.077806,400987,335216
1101.79,0.077020,403477,337908
1105.43,0.076727,406116,340348
1109.06,0.076676,407701,341716
1112.7,0.075937,409859,344110
1117.53,0.075905,412494,346348
1121.15,0.076190,414909,348147
1124.77,0.076057,416559,349639
1128.38,0.077481,418532,350145
1131.99,0.078117,419956,350822
1135.6,0.080031,421946,350934
1139.2,0.081366,423881,351462
1143.99,0.083185,426786,352391
1147.58,0.084087,428617,353169
1151.17,0.084764,431169,354718
1154.75,0.086075,433579,355626
1158.33,0.087488,436264,356666
1161.91,0.088883,439132,357859
1165.48,0.090815,442389,358913
1169.04,0.093268,446101,359886
1173.79,0.096797,451929,361637
1177.34,0.098457,456026,363524
1180.9,0.100852,461306,365710
1184.44,0.102461,467657,369374
1187.99,0.104187,473969,372875
1191.52,0.103623,479856,377997
1195.06,0.103533,487372,383997
1199.76,0.102807,497347,392512
1203.29,0.102343,504311,398433
1206.81,0.102152,511507,404296
1210.33,0.101439,519078,410954
1213.84,0.100423,527163,418333
1217.35,0.100084,534208,424254
1220.85,0.099337,540472,429968
1225.51,0.098600,549929,438235
1229.01,0.098894,556888,443480
1232.5,0.097139,562180,449507
1235.98,0.096955,567975,454333
1239.46,0.095980,574815,460838
1242.94,0.095457,582782,467788
1246.41,0.094327,591476,476003
1251.03,0.094174,604016,486267
1254.5,0.094674,612289,492360
1257.96,0.095520,619125,496888
1261.41,0.095312,624551,501483
1264.86,0.096413,629900,504497
1268.31,0.096232,634345,508269
1271.75,0.097073,638574,510668
1276.33,0.097275,642499,513568
1279.76,0.097378,645905,516168
1283.19,0.096510,648307,519123
1286.61,0.096633,650446,520689
1290.03,0.095991,652132,522811
1293.44,0.095377,653907,524976
1296.85,0.095257,655963,526771
1301.39,0.095369,657349,527748
1304.8,0.095234,657558,528080
1308.19,0.095609,658515,528392
1311.58,0.095439,658804,528831
1314.97,0.095998,659011,528317
1318.36,0.096613,658272,526978
1321.73,0.096998,658022,526311
1326.23,0.098100,657870,524856
1329.6,0.098886,656482,522801
1332.97,0.100090,654926,520118
1336.33,0.100789,653727,518331
1339.69,0.102502,652497,515319
1343.04,0.103829,649913,511713
1346.39,0.105885,647671,507539
1349.73,0.107936,645338,503328
1354.18,0.110750,641175,496851
1357.52,0.112426,638376,492777
1360.85,0.114890,635805,488016
1364.17,0.116346,633413,484553
1367.49,0.119253,631026,479506
1370.81,0.121317,628050,474982
1374.12,0.123422,625034,470415
1378.54,0.126256,620272,463795
1381.84,0.129406,616892,457934
1385.14,0.133547,613613,451178
1388.43,0.137709,611526,445355
1391.72,0.141902,610663,440453
1395.01,0.146858,610634,435435
1398.29,0.151167,611700,431888
1402.66,0.158746,614051,426048
1405.93,0.164273,616268,422179
1409.2,0.169468,617795,418193
1412.46,0.174759,618872,413849
1415.72,0.178620,619795,410798
1418.98,0.182683,620495,407432
1422.23,0.186319,621087,404421
1426.56,0.190441,621375,400786
1429.8,0.192563,621616,398987
1433.04,0.195724,622129,396421
1436.27,0.197287,621526,394614
1439.5,0.199882,621113,392002
1442.72,0.202082,620921,389901
1445.94,0.204719,620270,387134
1450.23,0.207972,618860,383372
1453.44,0.210484,617697,380445
1456.64,0.213157,616264,377233
1459.85,0.215444,614413,374125
1463.04,0.218887,612307,369898
1466.24,0.221181,610032,366582
1469.43,0.224195,607345,362444
1473.67,0.230319,603789,355276
1476.85,0.234583,601175,350282
1480.02,0.240494,597737,343571
1483.19,0.246416,594479,337070
1486.36,0.251874,591232,331043
1489.52,0.256183,587853,325901
1492.68,0.258768,583875,321775
1496.89,0.261270,578062,316741
1500.03,0.261655,574159,314324
1503.18,0.261919,570285,312013
1506.32,0.260510,565444,310370
1509.45,0.259942,560571,308098
1512.58,0.257954,555821,306889
1515.71,0.255690,550344,305453
1519.87,0.252938,543983,303842
1522.99,0.250683,538764,302493
1526.1,0.247970,533692,301523
1529.21,0.245289,527902,300099
1532.32,0.242717,521886,298441
1535.42,0.239232,515888,297388
1538.51,0.236420,509987,295896
1541.6,0.233516,503936,294347
1545.72,0.229061,494694,291928
1548.8,0.226526,488378,289888
1551.88,0.224167,481832,287560
1554.95,0.222198,474989,284764
1558.02,0.221204,467818,281108
1561.08,0.219969,460730,277637
1564.15,0.218414,454170,274666
1568.22,0.217451,444181,269221
1571.27,0.217049,436947,265082
1574.32,0.215232,429598,261716
1577.36,0.214751,422039,257396
1580.4,0.213362,414375,253531
1583.43,0.212203,406354,249288
1586.46,0.210268,398475,245546
1590.49,0.208937,388982,240432
1593.51,0.206491,380708,236647
1596.53,0.204684,372727,232652
1599.54,0.202948,365060,228779
1602.55,0.200793,357543,225183
1605.55,0.198568,349495,221245
1608.55,0.196889,341154,216801
1612.54,0.195090,330877,211143
1615.53,0.192594,322904,207243
1618.51,0.191874,315116,202580
1621.49,0.190651,307217,198059
1624.47,0.188879,299481,193861
1627.44,0.189228,292112,188939
1630.41,0.187419,284245,184618
1634.36,0.187085,274079,178152
1637.32,0.184935,266916,174357
1640.27,0.184538,259612,169741
1643.22,0.184736,251804,164561
1646.16,0.183482,244348,160150
1649.1,0.182577,236703,155463
1652.04,0.181218,228171,150329
1655.95,0.177343,215408,143192
1658.88,0.174520,204937,137120
1661.8,0.168270,193395,131273
1664.72,0.161913,179728,123795
1667.63,0.148528,163642,116243
1670.54,0.132512,146312,107837
1673.44,0.118514,128451,97774
1677.31,0.100239,105080,83422
1680.21,0.090304,88906,72215
1683.1,0.084257,75033,61801
1685.99,0.086240,63520,52080
1688.87,0.086882,53714,43975
1691.75,0.089639,45653,37139
1694.62,0.092241,39137,31648
1697.49,0.102227,33776,26692
1701.31,0.112584,28175,21741