File: samples/wool/wool-000811/Column 1_050624_20150331_123448.csv
Method:,Column 1,,
Host Date-Time:,31/3/15 @ 12:34:48,,
Header Version:,1,,
System Temp (C):,34.09,,
Detector Temp (C):,35.06,,
Humidity (%):,1.56,,
Lamp PD:,3818,,
Shift Vector Coefficients:,-10.5391,0.0761263,-0.000134223,,
Pixel to Wavelength Coefficients:,1775.68,-0.916766,-0.000235065,,
Serial Number:,5510004,,
Scan Config Name:,Column 1,,
Scan Config Type:,Slew,,
Section 1,,
Start wavelength (nm):,900,,
End wavelength (nm):,1700,,
Pattern Pixel Width (nm):,   7.03,,,,
Exposure (ms):,  0.635,,,,
Digital Resolution:,228,,
Num Repeats:,6,,
PGA Gain:,64,,
Total Measurement Time in sec:,  2.668,,
Wavelength (nm),Absorbance (AU),Reference Signal (unitless),Sample Signal (unitless)
901.51,0.071256,108485,92069
905.376,0.075866,121306,101863
909.237,0.077183,131909,110431
913.095,0.078225,143299,119679
916.948,0.080306,156982,130480
922.079,0.080863,179937,149368
925.923,0.082287,200504,165896
929.762,0.084406,222660,183331
933.597,0.083039,244426,201887
937.427,0.081451,263972,218830
941.254,0.081101,281845,233835
945.076,0.079284,297271,247667
950.165,0.078057,315605,263686
953.978,0.077835,328029,274206
957.786,0.077762,340470,284654
961.59,0.077850,352317,294499
965.389,0.077350,363056,303825
969.185,0.077652,373162,312065
972.976,0.078175,382632,319600
976.763,0.078630,391202,326416
981.806,0.078939,400190,333678
985.583,0.079445,406088,338201
989.355,0.080076,410162,341098
993.124,0.080784,412868,342789
996.888,0.081004,414263,343773
1000.65,0.081904,415476,344066
1004.4,0.082976,415479,343220
1009.41,0.083900,414358,341567
1013.15,0.084665,412923,339785
1016.89,0.085276,411526,338159
1020.63,0.084891,409066,336436
1024.36,0.084239,406777,335056
1028.09,0.084830,404427,332667
1031.82,0.084467,401911,330874
1036.78,0.084018,398410,328331
1040.49,0.083746,396204,326718
1044.2,0.083771,394236,325076
1047.91,0.084052,392042,323058
1051.61,0.083377,389823,321729
1055.31,0.082926,388234,320751
1059,0.082446,387599,320580
1063.92,0.081389,386688,320606
1067.61,0.080683,386598,321053
1071.29,0.080814,387377,321603
1074.96,0.080114,388536,323085
1078.63,0.079403,389855,324713
1082.3,0.078421,391215,326584
1085.96,0.077754,393215,328758
1090.84,0.076803,396270,332038
1094.49,0.076312,398760,334503
1098.14,0.075759,400987,336799
1101.79,0.075608,403477,339009
1105.43,0.074746,406116,341904
1109.06,0.074172,407701,343692
1112.7,0.073858,409859,345761
1117.53,0.072816,412494,348820
1121.15,0.073530,414909,350286
1124.77,0.073942,416559,351346
1128.38,0.074379,418532,352655
1131.99,0.075556,419956,352897
1135.6,0.077296,421946,353151
1139.2,0.078678,423881,353644
1143.99,0.080941,426786,354217
1147.58,0.081523,428617,355260
1151.17,0.082361,431169,356686
1154.75,0.082825,433579,358297
1158.33,0.084794,436264,358885
1161.91,0.085757,439132,360444
1165.48,0.088806,442389,360577
1169.04,0.090096,446101,362524
1173.79,0.093770,451929,364167
1177.34,0.096058,456026,365537
1180.9,0.097781,461306,368305
1184.44,0.099825,467657,371623
1187.99,0.100847,473969,375753
1191.52,0.100387,479856,380824
1195.06,0.100519,487372,386671
1199.76,0.100390,497347,394702
1203.29,0.099502,504311,401048
1206.81,0.099181,511507,407071
1210.33,0.098587,519078,413662
1213.84,0.097868,527163,420801
1217.35,0.097758,534208,426533
1220.85,0.096432,540472,432854
1225.51,0.095773,549929,441097
1229.01,0.095137,556888,447333
1232.5,0.094807,562180,451927
1235.98,0.094090,567975,457340
1239.46,0.093197,574815,463800
1242.94,0.092117,582782,471399
1246.41,0.091714,591476,478876
1251.03,0.091341,604016,489449
1254.5,0.091442,612289,496038
1257.96,0.091701,619125,501276
1261.41,0.092835,624551,504351
1264.86,0.092954,629900,508531
1268.31,0.093309,634345,511701
1271.75,0.094372,638574,513853
1276.33,0.094368,642499,517017
1279.76,0.094395,645905,519725
1283.19,0.093699,648307,522495
1286.61,0.093593,650446,524346
1290.03,0.092975,652132,526454
1293.44,0.092741,653907,528171
1296.85,0.092415,655963,530230
1301.39,0.092202,657349,531611
1304.8,0.091562,657558,532564
1308.19,0.091926,658515,532893
1311.58,0.092016,658804,533016
1314.97,0.092337,659011,532790
1318.36,0.092838,658272,531579
1321.73,0.092913,658022,531285
1326.23,0.093858,657870,530008
1329.6,0.094958,656482,527551
1332.97,0.095765,654926,525324
1336.33,0.096346,653727,523661
1339.69,0.097313,652497,521513
1343.04,0.099349,649913,517019
1346.39,0.101202,647671,513042
1349.73,0.103064,645338,509006
1354.18,0.106062,641175,502244
1357.52,0.107631,638376,498248
1360.85,0.110069,635805,493463
1364.17,0.111601,633413,489876
1367.49,0.114164,631026,485158
1370.81,0.116063,628050,480763
1374.12,0.118144,625034,476167
1378.54,0.121009,620272,469433
1381.84,0.123764,616892,463922
1385.14,0.126609,613613,458443
1388.43,0.130395,611526,452918
1391.72,0.133942,610663,448600
1395.01,0.137886,610634,444524
1398.29,0.141793,611700,441312
1402.66,0.147653,614051,437070
1405.93,0.152410,616268,433870
1409.2,0.157331,617795,430044
1412.46,0.161635,618872,426546
1415.72,0.165078,619795,423809
1418.98,0.168226,620495,421223
1422.23,0.172122,621087,417860
1426.56,0.175207,621375,415094
1429.8,0.177684,621616,412894
1433.04,0.179984,622129,411052
1436.27,0.182635,621526,408154
1439.5,0.184682,621113,405965
1442.72,0.187123,620921,403565
1445.94,0.189522,620270,400921
1450.23,0.193339,618860,396509
1453.44,0.196247,617697,393123
1456.64,0.198589,616264,390102
1459.85,0.202149,614413,385755
1463.04,0.204166,612307,382651
1466.24,0.208148,610032,377750
1469.43,0.212170,607345,372619
1473.67,0.218308,603789,365239
1476.85,0.224563,601175,358458
1480.02,0.230813,597737,351315
1483.19,0.237733,594479,343877
1486.36,0.243241,591232,337689
1489.52,0.248026,587853,332080
1492.68,0.251625,583875,327111
1496.89,0.254062,578062,322042
1500.03,0.255007,574159,319172
1503.18,0.254725,570285,317225
1506.32,0.253419,565444,315479
1509.45,0.252122,560571,313696
1512.58,0.250566,555821,312154
1515.71,0.247836,550344,311027
1519.87,0.244880,543983,309532
1522.99,0.243570,538764,307488
1526.1,0.240754,533692,306575
1529.21,0.237103,527902,305809
1532.32,0.233983,521886,304504
1535.42,0.231315,515888,302859
1538.51,0.228727,509987,301184
1541.6,0.226177,503936,299363
1545.72,0.222368,494694,296462
1548.8,0.218516,488378,295284
1551.88,0.216360,481832,292776
1554.95,0.214094,474989,290128
1558.02,0.212919,467818,286522
1561.08,0.211930,460730,282824
1564.15,0.211933,454170,278795
1568.22,0.210403,444181,273626
1571.27,0.210097,436947,269359
1574.32,0.209536,429598,265171
1577.36,0.208354,422039,261215
1580.4,0.207310,414375,257089
1583.43,0.205712,406354,253042
1586.46,0.204005,398475,249113
1590.49,0.202330,388982,244118
1593.51,0.200299,380708,240045
1596.53,0.198674,372727,235894
1599.54,0.196349,365060,232282
1602.55,0.194444,357543,228499
1605.55,0.191855,349495,224691
1608.55,0.190717,341154,219904
1612.54,0.189773,330877,213744
1615.53,0.186999,322904,209930
1618.51,0.185403,315116,205621
1621.49,0.185376,307217,200479
1624.47,0.183398,299481,196323
1627.44,0.182843,292112,191737
1630.41,0.182005,284245,186934
1634.36,0.180444,274079,180897
1637.32,0.181148,266916,175884
1640.27,0.180611,259612,171283
1643.22,0.178859,251804,166803
1646.16,0.178068,244348,162159
1649.1,0.177031,236703,157461
1652.04,0.175911,228171,152177
1655.95,0.172718,215408,144725
1658.88,0.168159,204937,139143
1661.8,0.163548,193395,132708
1664.72,0.155049,179728,125767
1667.63,0.143159,163642,117689
1670.54,0.128819,146312,108758
1673.44,0.112410,128451,99158
1677.31,0.090663,105080,85282
1680.21,0.080616,88906,73844
1683.1,0.072335,75033,63521
1685.99,0.075442,63520,53391
1688.87,0.079159,53714,44764
1691.75,0.087772,45653,37299
1694.62,0.084300,39137,32232
1697.49,0.092637,33776,27288
1701.31,0.103961,28175,22177