File: samples/wool/wool-000811/Column 1_050623_20150331_123434.csv
Method:,Column 1,,
Host Date-Time:,31/3/15 @ 12:34:34,,
Header Version:,1,,
System Temp (C):,34.1,,
Detector Temp (C):,35.05,,
Humidity (%):,1.56,,
Lamp PD:,3818,,
Shift Vector Coefficients:,-10.5391,0.0761263,-0.000134223,,
Pixel to Wavelength Coefficients:,1775.68,-0.916766,-0.000235065,,
Serial Number:,5510004,,
Scan Config Name:,Column 1,,
Scan Config Type:,Slew,,
Section 1,,
Start wavelength (nm):,900,,
End wavelength (nm):,1700,,
Pattern Pixel Width (nm):,   7.03,,,,
Exposure (ms):,  0.635,,,,
Digital Resolution:,228,,
Num Repeats:,6,,
PGA Gain:,64,,
Total Measurement Time in sec:,  2.722,,
Wavelength (nm),Absorbance (AU),Reference Signal (unitless),Sample Signal (unitless)
901.51,0.068065,108485,92748
905.376,0.074546,121306,102173
909.237,0.077286,131909,110405
913.095,0.078418,143299,119626
916.948,0.079026,156982,130865
922.079,0.081646,179937,149099
925.923,0.082010,200504,166002
929.762,0.081987,222660,184355
933.597,0.083104,244426,201857
937.427,0.081187,263972,218963
941.254,0.080166,281845,234339
945.076,0.079702,297271,247429
950.165,0.078812,315605,263228
953.978,0.077476,328029,274433
957.786,0.078024,340470,284482
961.59,0.078307,352317,294189
965.389,0.077567,363056,303673
969.185,0.077423,373162,312230
972.976,0.077722,382632,319933
976.763,0.078600,391202,326438
981.806,0.079636,400190,333143
985.583,0.079937,406088,337818
989.355,0.079887,410162,341247
993.124,0.080526,412868,342993
996.888,0.080367,414263,344278
1000.65,0.081750,415476,344188
1004.4,0.082656,415479,343473
1009.41,0.083609,414358,341796
1013.15,0.084179,412923,340165
1016.89,0.084916,411526,338440
1020.63,0.084347,409066,336858
1024.36,0.085019,406777,334455
1028.09,0.084457,404427,332953
1031.82,0.084513,401911,330839
1036.78,0.083737,398410,328544
1040.49,0.083819,396204,326663
1044.2,0.083634,394236,325179
1047.91,0.082989,392042,323850
1051.61,0.083012,389823,322000
1055.31,0.082913,388234,320760
1059,0.082339,387599,320659
1063.92,0.081907,386688,320224
1067.61,0.080971,386598,320840
1071.29,0.080289,387377,321992
1074.96,0.079875,388536,323263
1078.63,0.079169,389855,324888
1082.3,0.078238,391215,326721
1085.96,0.077523,393215,328933
1090.84,0.076605,396270,332190
1094.49,0.076452,398760,334395
1098.14,0.074941,400987,337434
1101.79,0.075499,403477,339094
1105.43,0.074233,406116,342308
1109.06,0.073409,407701,344297
1112.7,0.073592,409859,345973
1117.53,0.072917,412494,348739
1121.15,0.074143,414909,349792
1124.77,0.073434,416559,351757
1128.38,0.074504,418532,352553
1131.99,0.075081,419956,353283
1135.6,0.077231,421946,353204
1139.2,0.078528,423881,353766
1143.99,0.080436,426786,354629
1147.58,0.081636,428617,355168
1151.17,0.081950,431169,357024
1154.75,0.083245,433579,357951
1158.33,0.084634,436264,359017
1161.91,0.086424,439132,359891
1165.48,0.088344,442389,360961
1169.04,0.090534,446101,362159
1173.79,0.093817,451929,364127
1177.34,0.096061,456026,365535
1180.9,0.097983,461306,368134
1184.44,0.100363,467657,371163
1187.99,0.100448,473969,376099
1191.52,0.100732,479856,380521
1195.06,0.100408,487372,386770
1199.76,0.100249,497347,394830
1203.29,0.099335,504311,401202
1206.81,0.098867,511507,407366
1210.33,0.098193,519078,414037
1213.84,0.097467,527163,421190
1217.35,0.097193,534208,427088
1220.85,0.096653,540472,432634
1225.51,0.095706,549929,441165
1229.01,0.095118,556888,447352
1232.5,0.094809,562180,451925
1235.98,0.094119,567975,457310
1239.46,0.093058,574815,463949
1242.94,0.092204,582782,471305
1246.41,0.091206,591476,479436
1251.03,0.090883,604016,489965
1254.5,0.091396,612289,496090
1257.96,0.091853,619125,501101
1261.41,0.092116,624551,505187
1264.86,0.092712,629900,508815
1268.31,0.093028,634345,512033
1271.75,0.094051,638574,514233
1276.33,0.094591,642499,516751
1279.76,0.094161,645905,520005
1283.19,0.093750,648307,522433
1286.61,0.093227,650446,524788
1290.03,0.093111,652132,526289
1293.44,0.092393,653907,528595
1296.85,0.092429,655963,530213
1301.39,0.091736,657349,532182
1304.8,0.091600,657558,532518
1308.19,0.091956,658515,532856
1311.58,0.092102,658804,532911
1314.97,0.092798,659011,532224
1318.36,0.092553,658272,531927
1321.73,0.093064,658022,531100
1326.23,0.093900,657870,529956
1329.6,0.094531,656482,528070
1332.97,0.095314,654926,525870
1336.33,0.096277,653727,523744
1339.69,0.097786,652497,520946
1343.04,0.099057,649913,517366
1346.39,0.101092,647671,513171
1349.73,0.102977,645338,509108
1354.18,0.105756,641175,502598
1357.52,0.107916,638376,497921
1360.85,0.109536,635805,494069
1364.17,0.111912,633413,489525
1367.49,0.113731,631026,485642
1370.81,0.115910,628050,480933
1374.12,0.118270,625034,476029
1378.54,0.121144,620272,469287
1381.84,0.123576,616892,464123
1385.14,0.126400,613613,458664
1388.43,0.130223,611526,453098
1391.72,0.134145,610663,448391
1395.01,0.137547,610634,444871
1398.29,0.141471,611700,441639
1402.66,0.147723,614051,437000
1405.93,0.152501,616268,433779
1409.2,0.156880,617795,430491
1412.46,0.161749,618872,426434
1415.72,0.165354,619795,423540
1418.98,0.168594,620495,420866
1422.23,0.171816,621087,418154
1426.56,0.175205,621375,415096
1429.8,0.177812,621616,412772
1433.04,0.180904,622129,410182
1436.27,0.182643,621526,408147
1439.5,0.184123,621113,406488
1442.72,0.187163,620921,403528
1445.94,0.189258,620270,401165
1450.23,0.193705,618860,396175
1453.44,0.196010,617697,393338
1456.64,0.199511,616264,389274
1459.85,0.201626,614413,386220
1463.04,0.204501,612307,382356
1466.24,0.208060,610032,377827
1469.43,0.212139,607345,372646
1473.67,0.218414,603789,365150
1476.85,0.224518,601175,358495
1480.02,0.230417,597737,351636
1483.19,0.237424,594479,344122
1486.36,0.243733,591232,337307
1489.52,0.248239,587853,331917
1492.68,0.251353,583875,327316
1496.89,0.253338,578062,322579
1500.03,0.253787,574159,320070
1503.18,0.254326,570285,317516
1506.32,0.253363,565444,315520
1509.45,0.252180,560571,313654
1512.58,0.250637,555821,312103
1515.71,0.247930,550344,310960
1519.87,0.244699,543983,309661
1522.99,0.242225,538764,308442
1526.1,0.239963,533692,307134
1529.21,0.236982,527902,305894
1532.32,0.234307,521886,304277
1535.42,0.231823,515888,302505
1538.51,0.228646,509987,301240
1541.6,0.226825,503936,298917
1545.72,0.221478,494694,297070
1548.8,0.219164,488378,294844
1551.88,0.215970,481832,293039
1554.95,0.214389,474989,289931
1558.02,0.212954,467818,286499
1561.08,0.211870,460730,282863
1564.15,0.211622,454170,278995
1568.22,0.210487,444181,273573
1571.27,0.209996,436947,269422
1574.32,0.208645,429598,265716
1577.36,0.208354,422039,261215
1580.4,0.206407,414375,257624
1583.43,0.205477,406354,253179
1586.46,0.203640,398475,249322
1590.49,0.201576,388982,244542
1593.51,0.200325,380708,240031
1596.53,0.197578,372727,236490
1599.54,0.196981,365060,231944
1602.55,0.194222,357543,228616
1605.55,0.191880,349495,224678
1608.55,0.190046,341154,220244
1612.54,0.189060,330877,214095
1615.53,0.186499,322904,210172
1618.51,0.185697,315116,205482
1621.49,0.185010,307217,200648
1624.47,0.184146,299481,195985
1627.44,0.182757,292112,191775
1630.41,0.180970,284245,187380
1634.36,0.181336,274079,180526
1637.32,0.180339,266916,176212
1640.27,0.180567,259612,171300
1643.22,0.178297,251804,167019
1646.16,0.178716,244348,161917
1649.1,0.177925,236703,157137
1652.04,0.175914,228171,152176
1655.95,0.170470,215408,145476
1658.88,0.168518,204937,139028
1661.8,0.163460,193395,132735
1664.72,0.154490,179728,125929
1667.63,0.142963,163642,117742
1670.54,0.126588,146312,109318
1673.44,0.111696,128451,99321
1677.31,0.091376,105080,85142
1680.21,0.077311,88906,74408
1683.1,0.076457,75033,62921
1685.99,0.076289,63520,53287
1688.87,0.075237,53714,45170
1691.75,0.085403,45653,37503
1694.62,0.086394,39137,32077
1697.49,0.086913,33776,27650
1701.31,0.110432,28175,21849