File: samples/wool/wool-000811/Column 1_050543_20150331_115640.csv
Method:,Column 1,,
Host Date-Time:,31/3/15 @ 11:56:40,,
Header Version:,1,,
System Temp (C):,32.66,,
Detector Temp (C):,31.07,,
Humidity (%):,2.74,,
Lamp PD:,3824,,
Shift Vector Coefficients:,-10.5391,0.0761263,-0.000134223,,
Pixel to Wavelength Coefficients:,1775.68,-0.916766,-0.000235065,,
Serial Number:,5510004,,
Scan Config Name:,Column 1,,
Scan Config Type:,Slew,,
Section 1,,
Start wavelength (nm):,900,,
End wavelength (nm):,1700,,
Pattern Pixel Width (nm):,   7.03,,,,
Exposure (ms):,  0.635,,,,
Digital Resolution:,228,,
Num Repeats:,6,,
PGA Gain:,64,,
Total Measurement Time in sec:,  2.725,,
Wavelength (nm),Absorbance (AU),Reference Signal (unitless),Sample Signal (unitless)
901.51,0.045111,108485,97782
905.376,0.050290,121306,108042
909.237,0.052609,131909,116860
913.095,0.052956,143299,126849
916.948,0.053104,156982,138914
922.079,0.052126,179937,159586
925.923,0.053326,200504,177336
929.762,0.054671,222660,196323
933.597,0.055176,244426,215264
937.427,0.053930,263972,233146
941.254,0.054689,281845,248497
945.076,0.054578,297271,262165
950.165,0.054829,315605,278173
953.978,0.054923,328029,289061
957.786,0.054590,340470,300254
961.59,0.055258,352317,310224
965.389,0.055728,363056,319334
969.185,0.055641,373162,328289
972.976,0.056199,382632,336188
976.763,0.056630,391202,343377
981.806,0.057368,400190,350670
985.583,0.058029,406088,355297
989.355,0.058933,410162,358115
993.124,0.058834,412868,360560
996.888,0.059949,414263,360850
1000.65,0.060561,415476,361397
1004.4,0.061667,415479,360481
1009.41,0.063015,414358,358394
1013.15,0.063600,412923,356672
1016.89,0.064163,411526,355005
1020.63,0.064328,409066,352749
1024.36,0.063724,406777,351263
1028.09,0.063405,404427,349490
1031.82,0.063510,401911,347232
1036.78,0.062891,398410,344698
1040.49,0.061797,396204,343654
1044.2,0.061532,394236,342156
1047.91,0.060737,392042,340875
1051.61,0.060465,389823,339158
1055.31,0.059460,388234,338558
1059,0.058580,387599,338690
1063.92,0.058459,386688,337988
1067.61,0.056833,386598,339177
1071.29,0.055839,387377,340639
1074.96,0.055410,388536,341996
1078.63,0.054782,389855,343654
1082.3,0.053916,391215,345541
1085.96,0.053414,393215,347709
1090.84,0.052532,396270,351123
1094.49,0.052280,398760,353534
1098.14,0.051863,400987,355850
1101.79,0.051294,403477,358529
1105.43,0.050836,406116,361255
1109.06,0.051037,407701,362497
1112.7,0.050332,409859,365008
1117.53,0.050805,412494,366955
1121.15,0.051610,414909,368420
1124.77,0.052474,416559,369150
1128.38,0.053417,418532,370094
1131.99,0.055413,419956,369650
1135.6,0.057755,421946,369404
1139.2,0.059926,423881,369248
1143.99,0.061922,426786,370074
1147.58,0.063253,428617,370524
1151.17,0.064383,431169,371762
1154.75,0.065780,433579,372639
1158.33,0.068133,436264,372921
1161.91,0.070258,439132,373540
1165.48,0.073728,442389,373316
1169.04,0.076694,446101,373886
1173.79,0.080513,451929,375454
1177.34,0.083173,456026,376545
1180.9,0.085845,461306,378568
1184.44,0.087753,467657,382098
1187.99,0.088648,473969,386458
1191.52,0.088176,479856,391683
1195.06,0.087122,487372,398785
1199.76,0.086106,497347,407900
1203.29,0.084909,504311,414753
1206.81,0.083683,511507,421860
1210.33,0.082152,519078,429616
1213.84,0.081468,527163,436995
1217.35,0.079867,534208,444471
1220.85,0.079046,540472,450534
1225.51,0.077628,549929,459916
1229.01,0.077144,556888,466255
1232.5,0.076176,562180,471736
1235.98,0.075296,567975,477566
1239.46,0.074237,574815,484497
1242.94,0.073039,582782,492569
1246.41,0.072086,591476,501016
1251.03,0.072073,604016,511653
1254.5,0.071666,612289,519147
1257.96,0.072428,619125,524023
1261.41,0.072888,624551,528056
1264.86,0.072990,629900,532454
1268.31,0.073971,634345,535001
1271.75,0.074920,638574,537392
1276.33,0.075228,642499,540312
1279.76,0.075194,645905,543218
1283.19,0.074683,648307,545881
1286.61,0.074528,650446,547877
1290.03,0.073642,652132,550419
1293.44,0.073017,653907,552712
1296.85,0.072878,655963,554628
1301.39,0.072951,657349,555706
1304.8,0.072684,657558,556224
1308.19,0.072809,658515,556874
1311.58,0.073312,658804,556473
1314.97,0.073923,659011,555865
1318.36,0.074312,658272,554745
1321.73,0.074964,658022,553703
1326.23,0.075974,657870,552288
1329.6,0.077265,656482,549487
1332.97,0.078304,654926,546875
1336.33,0.079801,653727,543996
1339.69,0.081088,652497,541365
1343.04,0.082888,649913,536991
1346.39,0.085725,647671,531654
1349.73,0.088238,645338,526683
1354.18,0.091673,641175,519163
1357.52,0.094338,638376,513734
1360.85,0.096598,635805,509010
1364.17,0.099012,633413,504284
1367.49,0.101717,631026,499264
1370.81,0.104703,628050,493505
1374.12,0.106962,625034,488587
1378.54,0.110668,620272,480744
1381.84,0.114645,616892,473766
1385.14,0.119613,613613,465888
1388.43,0.125077,611526,458498
1391.72,0.129998,610663,452693
1395.01,0.136053,610634,446404
1398.29,0.141830,611700,441274
1402.66,0.150887,614051,433828
1405.93,0.157227,616268,429084
1409.2,0.163144,617795,424327
1412.46,0.169204,618872,419176
1415.72,0.174838,619795,414391
1418.98,0.179166,620495,410745
1422.23,0.182596,621087,407903
1426.56,0.188639,621375,402453
1429.8,0.190578,621616,400815
1433.04,0.194295,622129,397727
1436.27,0.196460,621526,395366
1439.5,0.199401,621113,392437
1442.72,0.201825,620921,390132
1445.94,0.204592,620270,387248
1450.23,0.207357,618860,383915
1453.44,0.210970,617697,380019
1456.64,0.213786,616264,376687
1459.85,0.216378,614413,373321
1463.04,0.218753,612307,370012
1466.24,0.221978,610032,365910
1469.43,0.225534,607345,361328
1473.67,0.230767,603789,354910
1476.85,0.235623,601175,349444
1480.02,0.241853,597737,342497
1483.19,0.247695,594479,336079
1486.36,0.253897,591232,329504
1489.52,0.258669,587853,324041
1492.68,0.262754,583875,318835
1496.89,0.265553,578062,313633
1500.03,0.266358,574159,310938
1503.18,0.266643,570285,308638
1506.32,0.265667,565444,306706
1509.45,0.264480,560571,304895
1512.58,0.263713,555821,302846
1515.71,0.261013,550344,301732
1519.87,0.257612,543983,300589
1522.99,0.255756,538764,298980
1526.1,0.252993,533692,298056
1529.21,0.249871,527902,296949
1532.32,0.246134,521886,296102
1535.42,0.242819,515888,294942
1538.51,0.239235,509987,293984
1541.6,0.236303,503936,292464
1545.72,0.232379,494694,289706
1548.8,0.227854,488378,289003
1551.88,0.225932,481832,286394
1554.95,0.223345,474989,284013
1558.02,0.220807,467818,281365
1561.08,0.219631,460730,277853
1564.15,0.219381,454170,274055
1568.22,0.218519,444181,268560
1571.27,0.217344,436947,264902
1574.32,0.216157,429598,261159
1577.36,0.214152,422039,257751
1580.4,0.212259,414375,254176
1583.43,0.210777,406354,250108
1586.46,0.209312,398475,246087
1590.49,0.206524,388982,241772
1593.51,0.204278,380708,237856
1596.53,0.201635,372727,234291
1599.54,0.199080,365060,230826
1602.55,0.197274,357543,227015
1605.55,0.195321,349495,222905
1608.55,0.192647,341154,218929
1612.54,0.189933,330877,213665
1615.53,0.187320,322904,209775
1618.51,0.186422,315116,205139
1621.49,0.184465,307217,200900
1624.47,0.183349,299481,196345
1627.44,0.181069,292112,192522
1630.41,0.180363,284245,187642
1634.36,0.178495,274079,181711
1637.32,0.178065,266916,177137
1640.27,0.176967,259612,172726
1643.22,0.174904,251804,168329
1646.16,0.174109,244348,163644
1649.1,0.173660,236703,158688
1652.04,0.172050,228171,153536
1655.95,0.170551,215408,145449
1658.88,0.168443,204937,139052
1661.8,0.166217,193395,131895
1664.72,0.163973,179728,123209
1667.63,0.156434,163642,114146
1670.54,0.150533,146312,103454
1673.44,0.146146,128451,91747
1677.31,0.138916,105080,76314
1680.21,0.138074,88906,64693
1683.1,0.132684,75033,55280
1685.99,0.142387,63520,45764
1688.87,0.146945,53714,38295
1691.75,0.149850,45653,32331
1694.62,0.154885,39137,27397
1697.49,0.157079,33776,23525
1701.31,0.168126,28175,19131