File: samples/wool/wool-000811/Column 1_050546_20150331_115749.csv
Method:,Column 1,,
Host Date-Time:,31/3/15 @ 11:57:49,,
Header Version:,1,,
System Temp (C):,32.91,,
Detector Temp (C):,31.47,,
Humidity (%):,2.54,,
Lamp PD:,3823,,
Shift Vector Coefficients:,-10.5391,0.0761263,-0.000134223,,
Pixel to Wavelength Coefficients:,1775.68,-0.916766,-0.000235065,,
Serial Number:,5510004,,
Scan Config Name:,Column 1,,
Scan Config Type:,Slew,,
Section 1,,
Start wavelength (nm):,900,,
End wavelength (nm):,1700,,
Pattern Pixel Width (nm):,   7.03,,,,
Exposure (ms):,  0.635,,,,
Digital Resolution:,228,,
Num Repeats:,6,,
PGA Gain:,64,,
Total Measurement Time in sec:,  2.679,,
Wavelength (nm),Absorbance (AU),Reference Signal (unitless),Sample Signal (unitless)
901.51,0.047373,108485,97274
905.376,0.050994,121306,107867
909.237,0.053624,131909,116587
913.095,0.053295,143299,126750
916.948,0.053686,156982,138728
922.079,0.054273,179937,158799
925.923,0.054601,200504,176816
929.762,0.055176,222660,196095
933.597,0.056216,244426,214749
937.427,0.056042,263972,232015
941.254,0.055934,281845,247786
945.076,0.054757,297271,262057
950.165,0.055861,315605,277513
953.978,0.055153,328029,288908
957.786,0.055412,340470,299686
961.59,0.056197,352317,309554
965.389,0.056256,363056,318946
969.185,0.056340,373162,327761
972.976,0.057144,382632,335457
976.763,0.057282,391202,342862
981.806,0.058188,400190,350008
985.583,0.058661,406088,354780
989.355,0.059846,410162,357363
993.124,0.059681,412868,359857
996.888,0.060240,414263,360609
1000.65,0.061456,415476,360653
1004.4,0.062486,415479,359802
1009.41,0.064009,414358,357575
1013.15,0.064187,412923,356190
1016.89,0.064635,411526,354619
1020.63,0.064335,409066,352743
1024.36,0.064473,406777,350658
1028.09,0.063737,404427,349223
1031.82,0.063872,401911,346943
1036.78,0.063599,398410,344137
1040.49,0.062865,396204,342810
1044.2,0.061985,394236,341799
1047.91,0.061596,392042,340202
1051.61,0.061295,389823,338511
1055.31,0.060475,388234,337768
1059,0.059429,387599,338029
1063.92,0.057901,386688,338423
1067.61,0.057872,386598,338367
1071.29,0.056587,387377,340053
1074.96,0.055791,388536,341696
1078.63,0.055643,389855,342973
1082.3,0.053926,391215,345533
1085.96,0.054084,393215,347173
1090.84,0.052927,396270,350804
1094.49,0.052462,398760,353386
1098.14,0.052456,400987,355365
1101.79,0.051932,403477,358003
1105.43,0.051758,406116,360489
1109.06,0.050890,407701,362620
1112.7,0.051181,409859,364295
1117.53,0.050843,412494,366923
1121.15,0.051713,414909,368332
1124.77,0.052352,416559,369253
1128.38,0.054058,418532,369548
1131.99,0.055775,419956,369342
1135.6,0.057838,421946,369334
1139.2,0.059485,423881,369623
1143.99,0.062278,426786,369770
1147.58,0.063543,428617,370277
1151.17,0.064858,431169,371355
1154.75,0.066228,433579,372255
1158.33,0.068458,436264,372642
1161.91,0.071182,439132,372746
1165.48,0.073795,442389,373258
1169.04,0.076795,446101,373799
1173.79,0.081042,451929,374997
1177.34,0.083902,456026,375913
1180.9,0.086324,461306,378151
1184.44,0.088760,467657,381213
1187.99,0.088762,473969,386356
1191.52,0.088472,479856,391416
1195.06,0.088038,487372,397945
1199.76,0.086695,497347,407347
1203.29,0.085058,504311,414611
1206.81,0.083732,511507,421813
1210.33,0.082540,519078,429233
1213.84,0.082401,527163,436058
1217.35,0.080963,534208,443351
1220.85,0.079377,540472,450190
1225.51,0.078355,549929,459147
1229.01,0.077740,556888,465616
1232.5,0.076508,562180,471376
1235.98,0.075984,567975,476810
1239.46,0.074881,574815,483779
1242.94,0.073801,582782,491706
1246.41,0.072878,591476,500103
1251.03,0.072238,604016,511458
1254.5,0.072338,612289,518344
1257.96,0.073092,619125,523223
1261.41,0.073670,624551,527106
1264.86,0.073981,629900,531240
1268.31,0.074680,634345,534128
1271.75,0.075607,638574,536543
1276.33,0.075894,642499,539484
1279.76,0.075649,645905,542650
1283.19,0.074819,648307,545710
1286.61,0.074504,650446,547907
1290.03,0.074264,652132,549632
1293.44,0.073573,653907,552005
1296.85,0.073659,655963,553631
1301.39,0.073182,657349,555411
1304.8,0.073420,657558,555282
1308.19,0.073256,658515,556301
1311.58,0.073729,658804,555939
1314.97,0.074254,659011,555442
1318.36,0.074772,658272,554158
1321.73,0.074957,658022,553711
1326.23,0.076103,657870,552124
1329.6,0.077404,656482,549312
1332.97,0.078440,654926,546704
1336.33,0.079596,653727,544253
1339.69,0.081300,652497,541101
1343.04,0.083532,649913,536196
1346.39,0.085959,647671,531368
1349.73,0.088635,645338,526202
1354.18,0.091990,641175,518784
1357.52,0.094187,638376,513913
1360.85,0.096968,635805,508576
1364.17,0.099205,633413,504060
1367.49,0.101914,631026,499038
1370.81,0.104811,628050,493382
1374.12,0.107313,625034,488192
1378.54,0.111101,620272,480265
1381.84,0.114939,616892,473446
1385.14,0.119680,613613,465816
1388.43,0.124485,611526,459124
1391.72,0.130012,610663,452678
1395.01,0.135468,610634,447006
1398.29,0.141909,611700,441194
1402.66,0.150384,614051,434331
1405.93,0.156835,616268,429472
1409.2,0.162608,617795,424851
1412.46,0.168617,618872,419743
1415.72,0.173867,619795,415318
1418.98,0.178309,620495,411556
1422.23,0.182659,621087,407843
1426.56,0.186961,621375,404011
1429.8,0.190075,621616,401280
1433.04,0.193016,622129,398900
1436.27,0.195302,621526,396422
1439.5,0.197592,621113,394075
1442.72,0.200149,620921,391640
1445.94,0.202972,620270,388695
1450.23,0.206802,618860,384406
1453.44,0.209196,617697,381575
1456.64,0.212126,616264,378130
1459.85,0.215445,614413,374124
1463.04,0.217710,612307,370902
1466.24,0.221370,610032,366423
1469.43,0.224554,607345,362144
1473.67,0.229678,603789,355801
1476.85,0.234672,601175,350210
1480.02,0.240580,597737,343503
1483.19,0.247452,594479,336267
1486.36,0.253409,591232,329875
1489.52,0.258365,587853,324268
1492.68,0.262818,583875,318788
1496.89,0.264736,578062,314223
1500.03,0.266269,574159,311002
1503.18,0.266716,570285,308586
1506.32,0.265929,565444,306521
1509.45,0.264841,560571,304642
1512.58,0.263305,555821,303131
1515.71,0.261361,550344,301490
1519.87,0.257830,543983,300438
1522.99,0.254716,538764,299697
1526.1,0.252767,533692,298211
1529.21,0.249423,527902,297256
1532.32,0.246623,521886,295769
1535.42,0.242588,515888,295099
1538.51,0.240000,509987,293467
1541.6,0.236649,503936,292231
1545.72,0.231834,494694,290070
1548.8,0.228175,488378,288789
1551.88,0.225435,481832,286722
1554.95,0.222954,474989,284269
1558.02,0.220722,467818,281420
1561.08,0.219927,460730,277664
1564.15,0.219086,454170,274241
1568.22,0.217821,444181,268992
1571.27,0.217557,436947,264772
1574.32,0.216026,429598,261238
1577.36,0.214125,422039,257767
1580.4,0.212714,414375,253910
1583.43,0.211281,406354,249818
1586.46,0.208211,398475,246712
1590.49,0.206432,388982,241823
1593.51,0.204601,380708,237679
1596.53,0.202422,372727,233867
1599.54,0.199140,365060,230794
1602.55,0.197279,357543,227012
1605.55,0.193965,349495,223602
1608.55,0.191765,341154,219374
1612.54,0.189484,330877,213886
1615.53,0.187210,322904,209828
1618.51,0.186302,315116,205196
1621.49,0.184396,307217,200932
1624.47,0.183836,299481,196125
1627.44,0.183140,292112,191606
1630.41,0.180351,284245,187647
1634.36,0.178239,274079,181818
1637.32,0.177245,266916,177472
1640.27,0.177375,259612,172564
1643.22,0.175402,251804,168136
1646.16,0.174661,244348,163436
1649.1,0.174745,236703,158292
1652.04,0.173166,228171,153142
1655.95,0.170590,215408,145436
1658.88,0.167853,204937,139241
1661.8,0.163866,193395,132611
1664.72,0.161303,179728,123969
1667.63,0.154123,163642,114755
1670.54,0.147221,146312,104246
1673.44,0.140904,128451,92861
1677.31,0.132061,105080,77528
1680.21,0.128769,88906,66094
1683.1,0.132252,75033,55335
1685.99,0.140530,63520,45960
1688.87,0.145361,53714,38435
1691.75,0.146745,45653,32563
1694.62,0.150108,39137,27700
1697.49,0.158595,33776,23443
1701.31,0.166269,28175,19213