File: samples/wool/wool-000811/Column 1_050560_20150331_120436.csv
Method:,Column 1,,
Host Date-Time:,31/3/15 @ 12:4:36,,
Header Version:,1,,
System Temp (C):,33.67,,
Detector Temp (C):,33.17,,
Humidity (%):,2.15,,
Lamp PD:,3819,,
Shift Vector Coefficients:,-10.5391,0.0761263,-0.000134223,,
Pixel to Wavelength Coefficients:,1775.68,-0.916766,-0.000235065,,
Serial Number:,5510004,,
Scan Config Name:,Column 1,,
Scan Config Type:,Slew,,
Section 1,,
Start wavelength (nm):,900,,
End wavelength (nm):,1700,,
Pattern Pixel Width (nm):,   7.03,,,,
Exposure (ms):,  0.635,,,,
Digital Resolution:,228,,
Num Repeats:,6,,
PGA Gain:,64,,
Total Measurement Time in sec:,  2.662,,
Wavelength (nm),Absorbance (AU),Reference Signal (unitless),Sample Signal (unitless)
901.51,0.033126,108485,100518
905.376,0.040249,121306,110569
909.237,0.041281,131909,119948
913.095,0.042611,143299,129907
916.948,0.042154,156982,142461
922.079,0.045080,179937,162196
925.923,0.045425,200504,180592
929.762,0.046999,222660,199822
933.597,0.047285,244426,219211
937.427,0.046837,263972,236985
941.254,0.046928,281845,252978
945.076,0.046025,297271,267379
950.165,0.045446,315605,284248
953.978,0.045487,328029,295410
957.786,0.045280,340470,306760
961.59,0.046136,352317,316809
965.389,0.046118,363056,326479
969.185,0.046197,373162,335506
972.976,0.047371,382632,343092
976.763,0.047702,391202,350509
981.806,0.047884,400190,358412
985.583,0.048661,406088,363044
989.355,0.049516,410162,365965
993.124,0.049429,412868,368453
996.888,0.050343,414263,368921
1000.65,0.051317,415476,369172
1004.4,0.052719,415479,367985
1009.41,0.053826,414358,366058
1013.15,0.054341,412923,364358
1016.89,0.054740,411526,362792
1020.63,0.054609,409066,360732
1024.36,0.054193,406777,359057
1028.09,0.054010,404427,357133
1031.82,0.053845,401911,355046
1036.78,0.053815,398410,351978
1040.49,0.053510,396204,350275
1044.2,0.053431,394236,348598
1047.91,0.052538,392042,347372
1051.61,0.052246,389823,345638
1055.31,0.051695,388234,344666
1059,0.050878,387599,344750
1063.92,0.050177,386688,344496
1067.61,0.049083,386598,345284
1071.29,0.048679,387377,346302
1074.96,0.048177,388536,347740
1078.63,0.047309,389855,349618
1082.3,0.047007,391215,351082
1085.96,0.046561,393215,353239
1090.84,0.045712,396270,356680
1094.49,0.045386,398760,359191
1098.14,0.044883,400987,361616
1101.79,0.044948,403477,363807
1105.43,0.044595,406116,366484
1109.06,0.043947,407701,368464
1112.7,0.043849,409859,370498
1117.53,0.044263,412494,372524
1121.15,0.045183,414909,373912
1124.77,0.044953,416559,375598
1128.38,0.046760,418532,375810
1131.99,0.047670,419956,376300
1135.6,0.049614,421946,376394
1139.2,0.051729,423881,376283
1143.99,0.054165,426786,376743
1147.58,0.055009,428617,377625
1151.17,0.057057,431169,378086
1154.75,0.058013,433579,379363
1158.33,0.059539,436264,380374
1161.91,0.061847,439132,380845
1165.48,0.063691,442389,382044
1169.04,0.066622,446101,382658
1173.79,0.070515,451929,384198
1177.34,0.072132,456026,386240
1180.9,0.074948,461306,388187
1184.44,0.076873,467657,391791
1187.99,0.077518,473969,396490
1191.52,0.077398,479856,401525
1195.06,0.077315,487372,407892
1199.76,0.076304,497347,417211
1203.29,0.075083,504311,424244
1206.81,0.074731,511507,430646
1210.33,0.073259,519078,438504
1213.84,0.073265,527163,445328
1217.35,0.072381,534208,452199
1220.85,0.071394,540472,458542
1225.51,0.070229,549929,467819
1229.01,0.069814,556888,474192
1232.5,0.069298,562180,479267
1235.98,0.068841,567975,484717
1239.46,0.067707,574815,491837
1242.94,0.066600,582782,499926
1246.41,0.065917,591476,508183
1251.03,0.065679,604016,519241
1254.5,0.066079,612289,525869
1257.96,0.066282,619125,531491
1261.41,0.067007,624551,535255
1264.86,0.067821,629900,538828
1268.31,0.068269,634345,542071
1271.75,0.068766,638574,545061
1276.33,0.068992,642499,548126
1279.76,0.069282,645905,550664
1283.19,0.068820,648307,553300
1286.61,0.068101,650446,556045
1290.03,0.068190,652132,557373
1293.44,0.067393,653907,559916
1296.85,0.067240,655963,561874
1301.39,0.067089,657349,563258
1304.8,0.067087,657558,563439
1308.19,0.067487,658515,563740
1311.58,0.067247,658804,564299
1314.97,0.068293,659011,563118
1318.36,0.068363,658272,562396
1321.73,0.068784,658022,561638
1326.23,0.069675,657870,560357
1329.6,0.070957,656482,557527
1332.97,0.072169,654926,554655
1336.33,0.073166,653727,552370
1339.69,0.075048,652497,548947
1343.04,0.076549,649913,544887
1346.39,0.079214,647671,539685
1349.73,0.080943,645338,535604
1354.18,0.084297,641175,528055
1357.52,0.086706,638376,522842
1360.85,0.088958,635805,518043
1364.17,0.091084,633413,513574
1367.49,0.093956,631026,508266
1370.81,0.095721,628050,503817
1374.12,0.098605,625034,498079
1378.54,0.101755,620272,490713
1381.84,0.105100,616892,484294
1385.14,0.109513,613613,476850
1388.43,0.114003,611526,470340
1391.72,0.118664,610663,464662
1395.01,0.123603,610634,459386
1398.29,0.129568,611700,453911
1402.66,0.137083,614051,447839
1405.93,0.143053,616268,443319
1409.2,0.148726,617795,438650
1412.46,0.153986,618872,434125
1415.72,0.158229,619795,430546
1418.98,0.162454,620495,426859
1422.23,0.166297,621087,423502
1426.56,0.171212,621375,418930
1429.8,0.173648,621616,416749
1433.04,0.176612,622129,414256
1436.27,0.179057,621526,411531
1439.5,0.181219,621113,409215
1442.72,0.184207,620921,406284
1445.94,0.186837,620270,403407
1450.23,0.190274,618860,399318
1453.44,0.193010,617697,396064
1456.64,0.196381,616264,392090
1459.85,0.198638,614413,388886
1463.04,0.201914,612307,384641
1466.24,0.205019,610032,380482
1469.43,0.208369,607345,375895
1473.67,0.214284,603789,368639
1476.85,0.219257,601175,362864
1480.02,0.225192,597737,355892
1483.19,0.231351,594479,348968
1486.36,0.237811,591232,341938
1489.52,0.243255,587853,335748
1492.68,0.246388,583875,331079
1496.89,0.248709,578062,326036
1500.03,0.249418,574159,323306
1503.18,0.249488,570285,321073
1506.32,0.248388,565444,319155
1509.45,0.247014,560571,317407
1512.58,0.245865,555821,315551
1515.71,0.243233,550344,314341
1519.87,0.239780,543983,313188
1522.99,0.237560,538764,311773
1526.1,0.234643,533692,310919
1529.21,0.231780,527902,309580
1532.32,0.228290,521886,308522
1535.42,0.225031,515888,307273
1538.51,0.222228,509987,305725
1541.6,0.219908,503936,303716
1545.72,0.214999,494694,301535
1548.8,0.212269,488378,299562
1551.88,0.209015,481832,297770
1554.95,0.207955,474989,294258
1558.02,0.205373,467818,291544
1561.08,0.204443,460730,287742
1564.15,0.203194,454170,284462
1568.22,0.202071,444181,278926
1571.27,0.201727,436947,274601
1574.32,0.200325,429598,270855
1577.36,0.198902,422039,266963
1580.4,0.197269,414375,263102
1583.43,0.196046,406354,258737
1586.46,0.193871,398475,254994
1590.49,0.191686,388982,250175
1593.51,0.189152,380708,246286
1596.53,0.187452,372727,242069
1599.54,0.184485,365060,238715
1602.55,0.182787,357543,234715
1605.55,0.181115,349495,230317
1608.55,0.178214,341154,226327
1612.54,0.176077,330877,220592
1615.53,0.173898,322904,216359
1618.51,0.172801,315116,211675
1621.49,0.171998,307217,206751
1624.47,0.170262,299481,202352
1627.44,0.169411,292112,197760
1630.41,0.167562,284245,193255
1634.36,0.166932,274079,186614
1637.32,0.165607,266916,182292
1640.27,0.164667,259612,177688
1643.22,0.163012,251804,173002
1646.16,0.162519,244348,168070
1649.1,0.162408,236703,162853
1652.04,0.160511,228171,157670
1655.95,0.158409,215408,149573
1658.88,0.155417,204937,143286
1661.8,0.150394,193395,136789
1664.72,0.145037,179728,128700
1667.63,0.135445,163642,119798
1670.54,0.125026,146312,109712
1673.44,0.114891,128451,98593
1677.31,0.100552,105080,83362
1680.21,0.094097,88906,71587
1683.1,0.092307,75033,60666
1685.99,0.098314,63520,50652
1688.87,0.099334,53714,42732
1691.75,0.103107,45653,36005
1694.62,0.118007,39137,29825
1697.49,0.117730,33776,25756
1701.31,0.129095,28175,20930