File: samples/wool/wool-000811/Column 1_050544_20150331_115655.csv
Method:,Column 1,,
Host Date-Time:,31/3/15 @ 11:56:55,,
Header Version:,1,,
System Temp (C):,32.75,,
Detector Temp (C):,31.12,,
Humidity (%):,2.64,,
Lamp PD:,3823,,
Shift Vector Coefficients:,-10.5391,0.0761263,-0.000134223,,
Pixel to Wavelength Coefficients:,1775.68,-0.916766,-0.000235065,,
Serial Number:,5510004,,
Scan Config Name:,Column 1,,
Scan Config Type:,Slew,,
Section 1,,
Start wavelength (nm):,900,,
End wavelength (nm):,1700,,
Pattern Pixel Width (nm):,   7.03,,,,
Exposure (ms):,  0.635,,,,
Digital Resolution:,228,,
Num Repeats:,6,,
PGA Gain:,64,,
Total Measurement Time in sec:,  2.667,,
Wavelength (nm),Absorbance (AU),Reference Signal (unitless),Sample Signal (unitless)
901.51,0.044259,108485,97974
905.376,0.050611,121306,107962
909.237,0.053077,131909,116734
913.095,0.053031,143299,126827
916.948,0.053101,156982,138915
922.079,0.053729,179937,158998
925.923,0.053904,200504,177100
929.762,0.054474,222660,196412
933.597,0.054420,244426,215639
937.427,0.053988,263972,233115
941.254,0.054906,281845,248373
945.076,0.054744,297271,262065
950.165,0.055277,315605,277886
953.978,0.054634,328029,289253
957.786,0.054730,340470,300157
961.59,0.055571,352317,310001
965.389,0.055394,363056,319580
969.185,0.055813,373162,328159
972.976,0.056237,382632,336159
976.763,0.056941,391202,343131
981.806,0.057780,400190,350337
985.583,0.058584,406088,354843
989.355,0.058695,410162,358311
993.124,0.059386,412868,360102
996.888,0.059729,414263,361033
1000.65,0.060183,415476,361712
1004.4,0.062068,415479,360148
1009.41,0.063059,414358,358358
1013.15,0.063660,412923,356623
1016.89,0.064417,411526,354797
1020.63,0.063043,409066,353794
1024.36,0.063503,406777,351442
1028.09,0.063428,404427,349472
1031.82,0.062881,401911,347735
1036.78,0.062546,398410,344972
1040.49,0.061213,396204,344117
1044.2,0.061759,394236,341977
1047.91,0.060745,392042,340869
1051.61,0.060019,389823,339507
1055.31,0.059978,388234,338155
1059,0.058725,387599,338577
1063.92,0.057619,386688,338643
1067.61,0.056836,386598,339175
1071.29,0.055836,387377,340642
1074.96,0.055536,388536,341897
1078.63,0.054548,389855,343839
1082.3,0.053203,391215,346109
1085.96,0.052685,393215,348293
1090.84,0.052304,396270,351307
1094.49,0.051689,398760,354016
1098.14,0.051683,400987,355998
1101.79,0.051326,403477,358503
1105.43,0.051250,406116,360911
1109.06,0.050719,407701,362763
1112.7,0.050651,409859,364740
1117.53,0.050001,412494,367635
1121.15,0.051762,414909,368291
1124.77,0.051902,416559,369636
1128.38,0.053298,418532,370195
1131.99,0.055462,419956,369608
1135.6,0.057117,421946,369947
1139.2,0.058940,423881,370087
1143.99,0.061863,426786,370124
1147.58,0.063226,428617,370547
1151.17,0.064755,431169,371443
1154.75,0.066279,433579,372211
1158.33,0.067403,436264,373548
1161.91,0.069864,439132,373879
1165.48,0.073397,442389,373600
1169.04,0.075470,446101,374941
1173.79,0.080316,451929,375625
1177.34,0.083328,456026,376410
1180.9,0.085701,461306,378694
1184.44,0.087460,467657,382356
1187.99,0.088363,473969,386711
1191.52,0.087628,479856,392178
1195.06,0.087525,487372,398415
1199.76,0.085596,497347,408379
1203.29,0.084401,504311,415238
1206.81,0.083522,511507,422017
1210.33,0.081807,519078,429958
1213.84,0.081070,527163,437396
1217.35,0.080151,534208,444180
1220.85,0.078711,540472,450881
1225.51,0.077613,549929,459932
1229.01,0.076768,556888,466659
1232.5,0.076233,562180,471675
1235.98,0.075142,567975,477735
1239.46,0.074272,574815,484458
1242.94,0.072574,582782,493097
1246.41,0.072074,591476,501029
1251.03,0.071450,604016,512387
1254.5,0.071764,612289,519030
1257.96,0.072338,619125,524131
1261.41,0.073031,624551,527882
1264.86,0.073103,629900,532315
1268.31,0.074050,634345,534903
1271.75,0.074621,638574,537762
1276.33,0.075141,642499,540420
1279.76,0.074703,645905,543833
1283.19,0.074028,648307,546704
1286.61,0.073703,650446,548919
1290.03,0.073424,652132,550696
1293.44,0.072983,653907,552755
1296.85,0.072835,655963,554682
1301.39,0.072397,657349,556415
1304.8,0.072393,657558,556597
1308.19,0.072821,658515,556858
1311.58,0.073031,658804,556833
1314.97,0.073666,659011,556194
1318.36,0.074059,658272,555068
1321.73,0.074219,658022,554653
1326.23,0.075898,657870,552385
1329.6,0.076605,656482,550323
1332.97,0.077702,654926,547634
1336.33,0.079320,653727,544598
1339.69,0.080825,652497,541693
1343.04,0.082694,649913,537231
1346.39,0.085088,647671,532435
1349.73,0.087891,645338,527104
1354.18,0.091443,641175,519438
1357.52,0.093432,638376,514807
1360.85,0.096358,635805,509291
1364.17,0.098632,633413,504725
1367.49,0.101462,631026,499557
1370.81,0.104048,628050,494249
1374.12,0.106589,625034,489006
1378.54,0.111092,620272,480275
1381.84,0.114327,616892,474113
1385.14,0.119499,613613,466010
1388.43,0.124551,611526,459054
1391.72,0.129771,610663,452929
1395.01,0.135304,610634,447174
1398.29,0.141378,611700,441734
1402.66,0.149887,614051,434828
1405.93,0.156743,616268,429563
1409.2,0.163265,617795,424209
1412.46,0.168890,618872,419480
1415.72,0.174199,619795,415001
1418.98,0.178820,620495,411072
1422.23,0.183335,621087,407209
1426.56,0.187825,621375,403208
1429.8,0.190238,621616,401129
1433.04,0.194128,622129,397880
1436.27,0.196024,621526,395763
1439.5,0.198250,621113,393478
1442.72,0.201184,620921,390708
1445.94,0.203258,620270,388439
1450.23,0.207365,618860,383908
1453.44,0.210161,617697,380728
1456.64,0.212490,616264,377813
1459.85,0.215787,614413,373829
1463.04,0.218487,612307,370239
1466.24,0.221727,610032,366122
1469.43,0.225118,607345,361674
1473.67,0.230191,603789,355381
1476.85,0.235222,601175,349767
1480.02,0.241320,597737,342918
1483.19,0.247553,594479,336189
1486.36,0.253599,591232,329730
1489.52,0.258768,587853,323967
1492.68,0.262904,583875,318725
1496.89,0.265204,578062,313885
1500.03,0.265895,574159,311270
1503.18,0.266403,570285,308808
1506.32,0.266680,565444,305992
1509.45,0.264560,560571,304839
1512.58,0.263521,555821,302980
1515.71,0.260787,550344,301889
1519.87,0.257789,543983,300467
1522.99,0.254854,538764,299602
1526.1,0.252668,533692,298279
1529.21,0.249382,527902,297284
1532.32,0.246234,521886,296034
1535.42,0.243217,515888,294672
1538.51,0.239754,509987,293633
1541.6,0.236089,503936,292608
1545.72,0.231265,494694,290450
1548.8,0.228024,488378,288890
1551.88,0.225238,481832,286852
1554.95,0.222754,474989,284400
1558.02,0.221077,467818,281190
1561.08,0.219294,460730,278069
1564.15,0.219078,454170,274246
1568.22,0.217745,444181,269039
1571.27,0.217324,436947,264914
1574.32,0.215833,429598,261354
1577.36,0.214449,422039,257575
1580.4,0.212497,414375,254037
1583.43,0.211050,406354,249951
1586.46,0.208704,398475,246432
1590.49,0.206374,388982,241855
1593.51,0.203997,380708,238010
1596.53,0.201204,372727,234524
1599.54,0.198626,365060,231067
1602.55,0.196824,357543,227250
1605.55,0.193750,349495,223713
1608.55,0.192590,341154,218958
1612.54,0.189765,330877,213748
1615.53,0.187131,322904,209866
1618.51,0.185251,315116,205693
1621.49,0.184199,307217,201023
1624.47,0.183053,299481,196479
1627.44,0.181518,292112,192323
1630.41,0.179782,284245,187893
1634.36,0.177974,274079,181929
1637.32,0.177032,266916,177559
1640.27,0.177312,259612,172589
1643.22,0.175149,251804,168234
1646.16,0.175491,244348,163124
1649.1,0.174007,236703,158561
1652.04,0.171561,228171,153709
1655.95,0.170590,215408,145436
1658.88,0.168037,204937,139182
1661.8,0.166329,193395,131861
1664.72,0.163892,179728,123232
1667.63,0.156240,163642,114197
1670.54,0.150222,146312,103528
1673.44,0.143842,128451,92235
1677.31,0.136430,105080,76752
1680.21,0.135017,88906,65150
1683.1,0.134250,75033,55081
1685.99,0.142586,63520,45743
1688.87,0.145508,53714,38422
1691.75,0.149045,45653,32391
1694.62,0.153618,39137,27477
1697.49,0.153548,33776,23717
1701.31,0.157187,28175,19619