File: samples/wool/wool-000811/Column 1_050617_20150331_123151.csv
Method:,Column 1,,
Host Date-Time:,31/3/15 @ 12:31:51,,
Header Version:,1,,
System Temp (C):,34.11,,
Detector Temp (C):,34.95,,
Humidity (%):,1.66,,
Lamp PD:,3818,,
Shift Vector Coefficients:,-10.5391,0.0761263,-0.000134223,,
Pixel to Wavelength Coefficients:,1775.68,-0.916766,-0.000235065,,
Serial Number:,5510004,,
Scan Config Name:,Column 1,,
Scan Config Type:,Slew,,
Section 1,,
Start wavelength (nm):,900,,
End wavelength (nm):,1700,,
Pattern Pixel Width (nm):,   7.03,,,,
Exposure (ms):,  0.635,,,,
Digital Resolution:,228,,
Num Repeats:,6,,
PGA Gain:,64,,
Total Measurement Time in sec:,  2.722,,
Wavelength (nm),Absorbance (AU),Reference Signal (unitless),Sample Signal (unitless)
901.51,0.067878,108485,92788
905.376,0.075193,121306,102021
909.237,0.077305,131909,110400
913.095,0.077997,143299,119742
916.948,0.078526,156982,131016
922.079,0.080994,179937,149323
925.923,0.082258,200504,165907
929.762,0.082185,222660,184271
933.597,0.082607,244426,202088
937.427,0.081136,263972,218989
941.254,0.079964,281845,234448
945.076,0.078703,297271,247999
950.165,0.077673,315605,263919
953.978,0.077232,328029,274587
957.786,0.077847,340470,284598
961.59,0.077719,352317,294588
965.389,0.077731,363056,303559
969.185,0.078027,373162,311796
972.976,0.077527,382632,320077
976.763,0.078473,391202,326534
981.806,0.078611,400190,333930
985.583,0.079796,406088,337928
989.355,0.080011,410162,341149
993.124,0.080269,412868,343196
996.888,0.080594,414263,344098
1000.65,0.081377,415476,344484
1004.4,0.082409,415479,343669
1009.41,0.083677,414358,341742
1013.15,0.083938,412923,340354
1016.89,0.084868,411526,338477
1020.63,0.083820,409066,337267
1024.36,0.084731,406777,334677
1028.09,0.084419,404427,332982
1031.82,0.084307,401911,330996
1036.78,0.083591,398410,328654
1040.49,0.083915,396204,326591
1044.2,0.084016,394236,324893
1047.91,0.083358,392042,323575
1051.61,0.083319,389823,321772
1055.31,0.083106,388234,320618
1059,0.082514,387599,320530
1063.92,0.081032,386688,320870
1067.61,0.080619,386598,321100
1071.29,0.080513,387377,321826
1074.96,0.080391,388536,322879
1078.63,0.079496,389855,324644
1082.3,0.078058,391215,326857
1085.96,0.077726,393215,328779
1090.84,0.076639,396270,332164
1094.49,0.076023,398760,334725
1098.14,0.075809,400987,336761
1101.79,0.075262,403477,339279
1105.43,0.074672,406116,341962
1109.06,0.074201,407701,343669
1112.7,0.073884,409859,345741
1117.53,0.072841,412494,348800
1121.15,0.073604,414909,350226
1124.77,0.074274,416559,351077
1128.38,0.074801,418532,352312
1131.99,0.075592,419956,352868
1135.6,0.077123,421946,353292
1139.2,0.079254,423881,353175
1143.99,0.080307,426786,354734
1147.58,0.081015,428617,355676
1151.17,0.082626,431169,356469
1154.75,0.082614,433579,358471
1158.33,0.083982,436264,359557
1161.91,0.085790,439132,360417
1165.48,0.088114,442389,361152
1169.04,0.090584,446101,362117
1173.79,0.094271,451929,363747
1177.34,0.095796,456026,365758
1180.9,0.098196,461306,367954
1184.44,0.100484,467657,371059
1187.99,0.100756,473969,375832
1191.52,0.101147,479856,380158
1195.06,0.100880,487372,386350
1199.76,0.100282,497347,394800
1203.29,0.100162,504311,400439
1206.81,0.099101,511507,407146
1210.33,0.097734,519078,414475
1213.84,0.098363,527163,420322
1217.35,0.097283,534208,427000
1220.85,0.096280,540472,433005
1225.51,0.095878,549929,440990
1229.01,0.095268,556888,447198
1232.5,0.094220,562180,452538
1235.98,0.094036,567975,457397
1239.46,0.093250,574815,463744
1242.94,0.092080,582782,471440
1246.41,0.091230,591476,479410
1251.03,0.091432,604016,489346
1254.5,0.091346,612289,496147
1257.96,0.091970,619125,500966
1261.41,0.092594,624551,504631
1264.86,0.092813,629900,508696
1268.31,0.093583,634345,511379
1271.75,0.094484,638574,513721
1276.33,0.093973,642499,517487
1279.76,0.093962,645905,520243
1283.19,0.094032,648307,522094
1286.61,0.093428,650446,524546
1290.03,0.093012,652132,526409
1293.44,0.092774,653907,528132
1296.85,0.092373,655963,530281
1301.39,0.091832,657349,532064
1304.8,0.091879,657558,532176
1308.19,0.091977,658515,532830
1311.58,0.092179,658804,532816
1314.97,0.092645,659011,532412
1318.36,0.092891,658272,531513
1321.73,0.093323,658022,530784
1326.23,0.093935,657870,529914
1329.6,0.095227,656482,527225
1332.97,0.095289,654926,525900
1336.33,0.096252,653727,523774
1339.69,0.097687,652497,521064
1343.04,0.099443,649913,516907
1346.39,0.101287,647671,512941
1349.73,0.103192,645338,508856
1354.18,0.105784,641175,502565
1357.52,0.107862,638376,497983
1360.85,0.109840,635805,493724
1364.17,0.111942,633413,489491
1367.49,0.114508,631026,484774
1370.81,0.116379,628050,480413
1374.12,0.118487,625034,475791
1378.54,0.120964,620272,469481
1381.84,0.123771,616892,463915
1385.14,0.127141,613613,457882
1388.43,0.130667,611526,452635
1391.72,0.134418,610663,448109
1395.01,0.138521,610634,443874
1398.29,0.142632,611700,440460
1402.66,0.148240,614051,436480
1405.93,0.153763,616268,432520
1409.2,0.158009,617795,429374
1412.46,0.162699,618872,425502
1415.72,0.166070,619795,422842
1418.98,0.169459,620495,420029
1422.23,0.173012,621087,417004
1426.56,0.175768,621375,414558
1429.8,0.178597,621616,412027
1433.04,0.181470,622129,409648
1436.27,0.183884,621526,406982
1439.5,0.185548,621113,405156
1442.72,0.188302,620921,402471
1445.94,0.190500,620270,400019
1450.23,0.193990,618860,395915
1453.44,0.197031,617697,392414
1456.64,0.200242,616264,388620
1459.85,0.202638,614413,385321
1463.04,0.205645,612307,381350
1466.24,0.209106,610032,376918
1469.43,0.213013,607345,371897
1473.67,0.219660,603789,364104
1476.85,0.225432,601175,357741
1480.02,0.230977,597737,351183
1483.19,0.237358,594479,344174
1486.36,0.244191,591232,336951
1489.52,0.248624,587853,331623
1492.68,0.252175,583875,326697
1496.89,0.254163,578062,321967
1500.03,0.254300,574159,319692
1503.18,0.254610,570285,317309
1506.32,0.254318,565444,314827
1509.45,0.252530,560571,313401
1512.58,0.250974,555821,311861
1515.71,0.248682,550344,310422
1519.87,0.245957,543983,308765
1522.99,0.243189,538764,307758
1526.1,0.240737,533692,306587
1529.21,0.237966,527902,305202
1532.32,0.234955,521886,303823
1535.42,0.231784,515888,302532
1538.51,0.229131,509987,300904
1541.6,0.226353,503936,299242
1545.72,0.221519,494694,297042
1548.8,0.219398,488378,294685
1551.88,0.217085,481832,292288
1554.95,0.215175,474989,289407
1558.02,0.213127,467818,286385
1561.08,0.212456,460730,282482
1564.15,0.212409,454170,278490
1568.22,0.211661,444181,272834
1571.27,0.210807,436947,268919
1574.32,0.209304,429598,265313
1577.36,0.208167,422039,261328
1580.4,0.207138,414375,257191
1583.43,0.206107,406354,252812
1586.46,0.203994,398475,249119
1590.49,0.202563,388982,243987
1593.51,0.200929,380708,239697
1596.53,0.198416,372727,236034
1599.54,0.195835,365060,232557
1602.55,0.194102,357543,228679
1605.55,0.192140,349495,224544
1608.55,0.190482,341154,220023
1612.54,0.187913,330877,214661
1615.53,0.187096,322904,209883
1618.51,0.185754,315116,205455
1621.49,0.185832,307217,200269
1624.47,0.182788,299481,196599
1627.44,0.183256,292112,191555
1630.41,0.182558,284245,186696
1634.36,0.180653,274079,180810
1637.32,0.179527,266916,176542
1640.27,0.180484,259612,171333
1643.22,0.179221,251804,166664
1646.16,0.178494,244348,162000
1649.1,0.177417,236703,157321
1652.04,0.175951,228171,152163
1655.95,0.173118,215408,144592
1658.88,0.168437,204937,139054
1661.8,0.163948,193395,132586
1664.72,0.155301,179728,125694
1667.63,0.142746,163642,117801
1670.54,0.127304,146312,109138
1673.44,0.114218,128451,98746
1677.31,0.092817,105080,84860
1680.21,0.079564,88906,74023
1683.1,0.073348,75033,63373
1685.99,0.075841,63520,53342
1688.87,0.078664,53714,44815
1691.75,0.078066,45653,38142
1694.62,0.088321,39137,31935
1697.49,0.089149,33776,27508
1701.31,0.096063,28175,22584