File: samples/wool/wool-000811/Column 1_050583_20150331_121525.csv
Method:,Column 1,,
Host Date-Time:,31/3/15 @ 12:15:25,,
Header Version:,1,,
System Temp (C):,33.75,,
Detector Temp (C):,34.49,,
Humidity (%):,1.95,,
Lamp PD:,3819,,
Shift Vector Coefficients:,-10.5391,0.0761263,-0.000134223,,
Pixel to Wavelength Coefficients:,1775.68,-0.916766,-0.000235065,,
Serial Number:,5510004,,
Scan Config Name:,Column 1,,
Scan Config Type:,Slew,,
Section 1,,
Start wavelength (nm):,900,,
End wavelength (nm):,1700,,
Pattern Pixel Width (nm):,   7.03,,,,
Exposure (ms):,  0.635,,,,
Digital Resolution:,228,,
Num Repeats:,6,,
PGA Gain:,64,,
Total Measurement Time in sec:,  2.728,,
Wavelength (nm),Absorbance (AU),Reference Signal (unitless),Sample Signal (unitless)
901.51,0.071780,108485,91958
905.376,0.074525,121306,102178
909.237,0.078046,131909,110212
913.095,0.079588,143299,119304
916.948,0.080120,156982,130536
922.079,0.081917,179937,149006
925.923,0.084239,200504,165152
929.762,0.082541,222660,184120
933.597,0.084250,244426,201325
937.427,0.082998,263972,218052
941.254,0.082066,281845,233316
945.076,0.081637,297271,246329
950.165,0.081144,315605,261818
953.978,0.079723,328029,273017
957.786,0.080788,340470,282677
961.59,0.080297,352317,292844
965.389,0.080567,363056,301583
969.185,0.079737,373162,310571
972.976,0.080321,382632,318024
976.763,0.081277,391202,324432
981.806,0.081284,400190,331881
985.583,0.082316,406088,335973
989.355,0.082703,410162,339041
993.124,0.083145,412868,340931
996.888,0.083790,414263,341575
1000.65,0.084326,415476,342153
1004.4,0.085769,415479,341020
1009.41,0.086677,414358,339390
1013.15,0.086602,412923,338273
1016.89,0.087522,411526,336415
1020.63,0.087397,409066,334500
1024.36,0.087688,406777,332406
1028.09,0.087773,404427,330421
1031.82,0.087309,401911,328716
1036.78,0.086773,398410,326255
1040.49,0.087190,396204,324137
1044.2,0.086766,394236,322842
1047.91,0.086437,392042,321289
1051.61,0.086037,389823,319765
1055.31,0.085778,388234,318651
1059,0.084838,387599,318819
1063.92,0.084358,386688,318422
1067.61,0.083779,386598,318772
1071.29,0.083803,387377,319397
1074.96,0.082680,388536,321182
1078.63,0.082914,389855,322099
1082.3,0.081527,391215,324256
1085.96,0.081045,393215,326276
1090.84,0.080173,396270,329472
1094.49,0.079842,398760,331795
1098.14,0.079085,400987,334230
1101.79,0.078493,403477,336764
1105.43,0.077890,406116,339438
1109.06,0.077027,407701,341440
1112.7,0.077534,409859,342847
1117.53,0.076028,412494,346250
1121.15,0.077256,414909,347294
1124.77,0.077563,416559,348428
1128.38,0.078407,418532,349399
1131.99,0.079578,419956,349644
1135.6,0.080612,421946,350465
1139.2,0.082475,423881,350565
1143.99,0.085216,426786,350747
1147.58,0.085553,428617,351979
1151.17,0.085842,431169,353839
1154.75,0.087633,433579,354352
1158.33,0.088745,436264,355635
1161.91,0.090650,439132,356406
1165.48,0.092651,442389,357399
1169.04,0.094799,446101,358620
1173.79,0.098214,451929,360459
1177.34,0.100312,456026,361974
1180.9,0.102338,461306,364461
1184.44,0.104245,467657,367860
1187.99,0.105246,473969,371967
1191.52,0.104995,479856,376804
1195.06,0.104998,487372,382704
1199.76,0.104132,497347,391316
1203.29,0.103574,504311,397305
1206.81,0.103096,511507,403418
1210.33,0.102839,519078,409632
1213.84,0.101345,527163,417446
1217.35,0.101271,534208,423096
1220.85,0.100501,540472,428817
1225.51,0.100155,549929,436668
1229.01,0.099737,556888,442620
1232.5,0.098888,562180,447700
1235.98,0.098298,567975,452930
1239.46,0.097152,574815,459596
1242.94,0.095698,582782,467529
1246.41,0.095803,591476,474388
1251.03,0.095757,604016,484497
1254.5,0.095790,612289,491096
1257.96,0.096170,619125,496145
1261.41,0.096527,624551,500082
1264.86,0.097022,629900,503790
1268.31,0.097692,634345,506563
1271.75,0.098328,638574,509194
1276.33,0.098320,642499,512333
1279.76,0.098468,645905,514874
1283.19,0.098096,648307,517231
1286.61,0.097617,650446,519510
1290.03,0.097463,652132,521042
1293.44,0.097076,653907,522926
1296.85,0.096867,655963,524822
1301.39,0.096555,657349,526309
1304.8,0.096265,657558,526828
1308.19,0.096734,658515,527025
1311.58,0.096680,658804,527322
1314.97,0.097180,659011,526881
1318.36,0.097933,658272,525379
1321.73,0.098006,658022,525091
1326.23,0.099076,657870,523678
1329.6,0.100203,656482,521219
1332.97,0.101104,654926,518906
1336.33,0.102391,653727,516423
1339.69,0.103675,652497,513930
1343.04,0.105620,649913,509607
1346.39,0.107718,647671,505401
1349.73,0.109726,645338,501258
1354.18,0.112453,641175,494907
1357.52,0.114553,638376,490370
1360.85,0.116065,635805,486697
1364.17,0.118464,633413,482195
1367.49,0.120459,631026,478177
1370.81,0.122821,628050,473340
1374.12,0.125241,625034,468449
1378.54,0.128079,620272,461852
1381.84,0.131445,616892,455789
1385.14,0.135487,613613,449167
1388.43,0.139559,611526,443461
1391.72,0.144187,610663,438142
1395.01,0.148804,610634,433488
1398.29,0.154114,611700,428968
1402.66,0.161830,614051,423033
1405.93,0.166908,616268,419625
1409.2,0.172852,617795,414947
1412.46,0.177913,618872,410854
1415.72,0.182092,619795,407527
1418.98,0.186935,620495,403463
1422.23,0.190019,621087,400990
1426.56,0.193975,621375,397538
1429.8,0.196185,621616,395674
1433.04,0.199450,622129,393034
1436.27,0.201777,621526,390555
1439.5,0.203728,621113,388546
1442.72,0.206045,620921,386359
1445.94,0.207959,620270,384257
1450.23,0.212178,618860,379677
1453.44,0.214398,617697,377031
1456.64,0.217148,616264,373782
1459.85,0.219240,614413,370869
1463.04,0.221998,612307,367258
1466.24,0.224982,610032,363388
1469.43,0.228452,607345,358908
1473.67,0.233869,603789,352384
1476.85,0.238235,601175,347349
1480.02,0.243711,597737,341035
1483.19,0.249181,594479,334931
1486.36,0.253862,591232,329531
1489.52,0.258488,587853,324176
1492.68,0.261287,583875,319914
1496.89,0.262833,578062,315603
1500.03,0.263804,574159,312772
1503.18,0.263837,570285,310638
1506.32,0.263080,565444,308539
1509.45,0.261620,560571,306910
1512.58,0.259925,555821,305499
1515.71,0.258300,550344,303623
1519.87,0.255512,543983,302046
1522.99,0.252919,538764,300940
1526.1,0.250397,533692,299843
1529.21,0.247131,527902,298829
1532.32,0.244341,521886,297327
1535.42,0.241911,515888,295559
1538.51,0.238987,509987,294152
1541.6,0.235890,503936,292742
1545.72,0.232408,494694,289687
1548.8,0.229498,488378,287911
1551.88,0.227083,481832,285636
1554.95,0.225232,474989,282782
1558.02,0.222899,467818,280013
1561.08,0.222523,460730,276009
1564.15,0.221964,454170,272430
1568.22,0.219642,444181,267866
1571.27,0.219421,436947,263638
1574.32,0.218547,429598,259726
1577.36,0.216994,422039,256070
1580.4,0.216038,414375,251974
1583.43,0.214858,406354,247769
1586.46,0.213683,398475,243623
1590.49,0.210961,388982,239314
1593.51,0.208743,380708,235423
1596.53,0.206975,372727,231428
1599.54,0.205471,365060,227454
1602.55,0.203272,357543,223901
1605.55,0.201070,349495,219974
1608.55,0.198943,341154,215778
1612.54,0.197555,330877,209948
1615.53,0.195622,322904,205803
1618.51,0.194340,315116,201433
1621.49,0.194001,307217,196537
1624.47,0.192401,299481,192295
1627.44,0.190720,292112,188291
1630.41,0.190495,284245,183315
1634.36,0.188763,274079,177465
1637.32,0.187503,266916,173329
1640.27,0.186376,259612,169024
1643.22,0.186505,251804,163892
1646.16,0.184932,244348,159616
1649.1,0.185132,236703,154551
1652.04,0.183068,228171,149690
1655.95,0.179788,215408,142388
1658.88,0.176504,204937,136495
1661.8,0.170752,193395,130525
1664.72,0.163360,179728,123383
1667.63,0.152035,163642,115308
1670.54,0.138845,146312,106276
1673.44,0.123217,128451,96721
1677.31,0.103605,105080,82778
1680.21,0.092196,88906,71901
1683.1,0.087282,75033,61372
1685.99,0.089949,63520,51637
1688.87,0.091708,53714,43489
1691.75,0.096487,45653,36558
1694.62,0.098057,39137,31227
1697.49,0.117494,33776,25770
1701.31,0.116618,28175,21540