File: samples/wool/wool-000811/Column 1_050594_20150331_122053.csv
Method:,Column 1,,
Host Date-Time:,31/3/15 @ 12:20:53,,
Header Version:,1,,
System Temp (C):,33.93,,
Detector Temp (C):,34.64,,
Humidity (%):,1.76,,
Lamp PD:,3818,,
Shift Vector Coefficients:,-10.5391,0.0761263,-0.000134223,,
Pixel to Wavelength Coefficients:,1775.68,-0.916766,-0.000235065,,
Serial Number:,5510004,,
Scan Config Name:,Column 1,,
Scan Config Type:,Slew,,
Section 1,,
Start wavelength (nm):,900,,
End wavelength (nm):,1700,,
Pattern Pixel Width (nm):,   7.03,,,,
Exposure (ms):,  0.635,,,,
Digital Resolution:,228,,
Num Repeats:,6,,
PGA Gain:,64,,
Total Measurement Time in sec:,  2.688,,
Wavelength (nm),Absorbance (AU),Reference Signal (unitless),Sample Signal (unitless)
901.51,0.068984,108485,92552
905.376,0.075721,121306,101897
909.237,0.078321,131909,110142
913.095,0.077326,143299,119927
916.948,0.080539,156982,130410
922.079,0.082211,179937,148905
925.923,0.082012,200504,166001
929.762,0.083179,222660,183850
933.597,0.083282,244426,201774
937.427,0.081471,263972,218820
941.254,0.081608,281845,233562
945.076,0.080113,297271,247195
950.165,0.079145,315605,263026
953.978,0.078401,328029,273849
957.786,0.079366,340470,283604
961.59,0.078799,352317,293856
965.389,0.078898,363056,302744
969.185,0.078837,373162,311215
972.976,0.079086,382632,318930
976.763,0.080181,391202,325252
981.806,0.079980,400190,332879
985.583,0.080854,406088,337106
989.355,0.081566,410162,339930
993.124,0.081648,412868,342108
996.888,0.082196,414263,342831
1000.65,0.082742,415476,343403
1004.4,0.083823,415479,342552
1009.41,0.085177,414358,340564
1013.15,0.085374,412923,339231
1016.89,0.086171,411526,337463
1020.63,0.085839,409066,335702
1024.36,0.086418,406777,333379
1028.09,0.085258,404427,332340
1031.82,0.085837,401911,329832
1036.78,0.085778,398410,327003
1040.49,0.085148,396204,325665
1044.2,0.084516,394236,324519
1047.91,0.084460,392042,322755
1051.61,0.084553,389823,320859
1055.31,0.084153,388234,319846
1059,0.084166,387599,319313
1063.92,0.083256,386688,319231
1067.61,0.082412,386598,319777
1071.29,0.081918,387377,320786
1074.96,0.081744,388536,321875
1078.63,0.080717,389855,323732
1082.3,0.079902,391215,325472
1085.96,0.078510,393215,328186
1090.84,0.078069,396270,331072
1094.49,0.077988,398760,333214
1098.14,0.076972,400987,335860
1101.79,0.076107,403477,338619
1105.43,0.076269,406116,340707
1109.06,0.075220,407701,342864
1112.7,0.074987,409859,344864
1117.53,0.074999,412494,347071
1121.15,0.075800,414909,348460
1124.77,0.075259,416559,350282
1128.38,0.075960,418532,351373
1131.99,0.077114,419956,351633
1135.6,0.079519,421946,351348
1139.2,0.080397,423881,352247
1143.99,0.082507,426786,352942
1147.58,0.083423,428617,353709
1151.17,0.084491,431169,354941
1154.75,0.085354,433579,356217
1158.33,0.086693,436264,357319
1161.91,0.088748,439132,357970
1165.48,0.090727,442389,358986
1169.04,0.092364,446101,360636
1173.79,0.095295,451929,362890
1177.34,0.098206,456026,363734
1180.9,0.100277,461306,366195
1184.44,0.101714,467657,370010
1187.99,0.102951,473969,373937
1191.52,0.102943,479856,378589
1195.06,0.103156,487372,384330
1199.76,0.102365,497347,392911
1203.29,0.103703,504311,397187
1206.81,0.101156,511507,405224
1210.33,0.100255,519078,412076
1213.84,0.099822,527163,418912
1217.35,0.099239,534208,425081
1220.85,0.098453,540472,430844
1225.51,0.097658,549929,439186
1229.01,0.097110,556888,445305
1232.5,0.096360,562180,450314
1235.98,0.096023,567975,455309
1239.46,0.095185,574815,461682
1242.94,0.094150,582782,469198
1246.41,0.093547,591476,476859
1251.03,0.093775,604016,486714
1254.5,0.094064,612289,493052
1257.96,0.094321,619125,498261
1261.41,0.094661,624551,502235
1264.86,0.095185,629900,505926
1268.31,0.095636,634345,508967
1271.75,0.096095,638574,511819
1276.33,0.096236,642499,514797
1279.76,0.095974,645905,517839
1283.19,0.095731,648307,520056
1286.61,0.095377,650446,522197
1290.03,0.095004,652132,524000
1293.44,0.094514,653907,526020
1296.85,0.094458,655963,527742
1301.39,0.094381,657349,528950
1304.8,0.094146,657558,529405
1308.19,0.094375,658515,529896
1311.58,0.094306,658804,530213
1314.97,0.094800,659011,529777
1318.36,0.095457,658272,528382
1321.73,0.095607,658022,527999
1326.23,0.096594,657870,526679
1329.6,0.097267,656482,524754
1332.97,0.098333,654926,522227
1336.33,0.099401,653727,519991
1339.69,0.100836,652497,517300
1343.04,0.102472,649913,513314
1346.39,0.104289,647671,509408
1349.73,0.106439,645338,505066
1354.18,0.109494,641175,498291
1357.52,0.111814,638376,493472
1360.85,0.113470,635805,489614
1364.17,0.115041,633413,486011
1367.49,0.117843,631026,481066
1370.81,0.119775,628050,476672
1374.12,0.121842,625034,472130
1378.54,0.124896,620272,465250
1381.84,0.127639,616892,459801
1385.14,0.130991,613613,453841
1388.43,0.135437,611526,447691
1391.72,0.139523,610663,442872
1395.01,0.144206,610634,438102
1398.29,0.148421,611700,434628
1402.66,0.155347,614051,429395
1405.93,0.160019,616268,426335
1409.2,0.165354,617795,422173
1412.46,0.170090,618872,418322
1415.72,0.174020,619795,415172
1418.98,0.177619,620495,412211
1422.23,0.181098,621087,409312
1426.56,0.185090,621375,405755
1429.8,0.188246,621616,402973
1433.04,0.189800,622129,401865
1436.27,0.192668,621526,398833
1439.5,0.194626,621113,396775
1442.72,0.196665,620921,394795
1445.94,0.199075,620270,392198
1450.23,0.202645,618860,388103
1453.44,0.205737,617697,384626
1456.64,0.208341,616264,381440
1459.85,0.210688,614413,378244
1463.04,0.213366,612307,374631
1466.24,0.217192,610032,369965
1469.43,0.220423,607345,365605
1473.67,0.226343,603789,358544
1476.85,0.231285,601175,352952
1480.02,0.237617,597737,345854
1483.19,0.243476,594479,339360
1486.36,0.248752,591232,333431
1489.52,0.253176,587853,328165
1492.68,0.256630,583875,323363
1496.89,0.258749,578062,318585
1500.03,0.259084,574159,316190
1503.18,0.259550,570285,313720
1506.32,0.258249,565444,311990
1509.45,0.257241,560571,310020
1512.58,0.255626,555821,308538
1515.71,0.252892,550344,307427
1519.87,0.250227,543983,305744
1522.99,0.247502,538764,304717
1526.1,0.244802,533692,303731
1529.21,0.242339,527902,302144
1532.32,0.240007,521886,300309
1535.42,0.237165,515888,298807
1538.51,0.234161,509987,297439
1541.6,0.231109,503936,295983
1545.72,0.226999,494694,293317
1548.8,0.224118,488378,291500
1551.88,0.222468,481832,288687
1554.95,0.219645,474989,286443
1558.02,0.218879,467818,282617
1561.08,0.216818,460730,279659
1564.15,0.216629,454170,275797
1568.22,0.215077,444181,270697
1571.27,0.214538,436947,266619
1574.32,0.214050,429598,262429
1577.36,0.212753,422039,258583
1580.4,0.212150,414375,254240
1583.43,0.209319,406354,250949
1586.46,0.208960,398475,246287
1590.49,0.206791,388982,241623
1593.51,0.204548,380708,237708
1596.53,0.203163,372727,233468
1599.54,0.201037,365060,229788
1602.55,0.199093,357543,226066
1605.55,0.196875,349495,222109
1608.55,0.194480,341154,218007
1612.54,0.193028,330877,212148
1615.53,0.190495,322904,208247
1618.51,0.191066,315116,202957
1621.49,0.188374,307217,199100
1624.47,0.188297,299481,194121
1627.44,0.186709,292112,190038
1630.41,0.186024,284245,185212
1634.36,0.184826,274079,179081
1637.32,0.183297,266916,175016
1640.27,0.183059,259612,170320
1643.22,0.181717,251804,165709
1646.16,0.180986,244348,161073
1649.1,0.182010,236703,155666
1652.04,0.179692,228171,150858
1655.95,0.176667,215408,143415
1658.88,0.171493,204937,138079
1661.8,0.167130,193395,131618
1664.72,0.160281,179728,124261
1667.63,0.148442,163642,116266
1670.54,0.134373,146312,107376
1673.44,0.117862,128451,97921
1677.31,0.100292,105080,83412
1680.21,0.087110,88906,72748
1683.1,0.082966,75033,61985
1685.99,0.081999,63520,52591
1688.87,0.082040,53714,44468
1691.75,0.093610,45653,36801
1694.62,0.096045,39137,31372
1697.49,0.099163,33776,26881
1701.31,0.107856,28175,21979