File: samples/wool/wool-000811/Column 1_050559_20150331_120410.csv
Method:,Column 1,,
Host Date-Time:,31/3/15 @ 12:4:10,,
Header Version:,1,,
System Temp (C):,33.63,,
Detector Temp (C):,33.04,,
Humidity (%):,2.15,,
Lamp PD:,3819,,
Shift Vector Coefficients:,-10.5391,0.0761263,-0.000134223,,
Pixel to Wavelength Coefficients:,1775.68,-0.916766,-0.000235065,,
Serial Number:,5510004,,
Scan Config Name:,Column 1,,
Scan Config Type:,Slew,,
Section 1,,
Start wavelength (nm):,900,,
End wavelength (nm):,1700,,
Pattern Pixel Width (nm):,   7.03,,,,
Exposure (ms):,  0.635,,,,
Digital Resolution:,228,,
Num Repeats:,6,,
PGA Gain:,64,,
Total Measurement Time in sec:,  2.674,,
Wavelength (nm),Absorbance (AU),Reference Signal (unitless),Sample Signal (unitless)
901.51,0.032707,108485,100615
905.376,0.039919,121306,110653
909.237,0.039630,131909,120405
913.095,0.043019,143299,129785
916.948,0.043718,156982,141949
922.079,0.045201,179937,162151
925.923,0.044989,200504,180773
929.762,0.047771,222660,199467
933.597,0.047301,244426,219203
937.427,0.046613,263972,237107
941.254,0.047211,281845,252813
945.076,0.045769,297271,267537
950.165,0.046239,315605,283730
953.978,0.044921,328029,295795
957.786,0.046085,340470,306192
961.59,0.045641,352317,317170
965.389,0.046152,363056,326454
969.185,0.046021,373162,335642
972.976,0.046982,382632,343399
976.763,0.048280,391202,350043
981.806,0.048158,400190,358186
985.583,0.048667,406088,363039
989.355,0.049739,410162,365777
993.124,0.049735,412868,368194
996.888,0.050722,414263,368599
1000.65,0.051390,415476,369110
1004.4,0.052568,415479,368113
1009.41,0.053542,414358,366297
1013.15,0.054195,412923,364480
1016.89,0.055063,411526,362522
1020.63,0.053727,409066,361465
1024.36,0.054429,406777,358862
1028.09,0.054410,404427,356804
1031.82,0.054493,401911,354517
1036.78,0.053323,398410,352377
1040.49,0.052852,396204,350806
1044.2,0.053505,394236,348539
1047.91,0.053135,392042,346895
1051.61,0.052638,389823,345326
1055.31,0.051990,388234,344432
1059,0.051101,387599,344573
1063.92,0.050039,386688,344605
1067.61,0.049464,386598,344981
1071.29,0.048709,387377,346278
1074.96,0.048530,388536,347457
1078.63,0.047347,389855,349588
1082.3,0.047116,391215,350994
1085.96,0.046432,393215,353344
1090.84,0.046089,396270,356371
1094.49,0.045073,398760,359450
1098.14,0.045268,400987,361295
1101.79,0.043908,403477,364679
1105.43,0.044673,406116,366418
1109.06,0.044223,407701,368230
1112.7,0.043610,409859,370702
1117.53,0.043694,412494,373013
1121.15,0.044565,414909,374445
1124.77,0.045615,416559,375026
1128.38,0.046822,418532,375757
1131.99,0.048151,419956,375883
1135.6,0.050111,421946,375964
1139.2,0.051968,423881,376076
1143.99,0.054378,426786,376558
1147.58,0.054957,428617,377670
1151.17,0.056254,431169,378786
1154.75,0.057792,433579,379556
1158.33,0.060038,436264,379937
1161.91,0.061930,439132,380772
1165.48,0.064195,442389,381601
1169.04,0.066938,446101,382380
1173.79,0.070777,451929,383966
1177.34,0.072330,456026,386064
1180.9,0.074946,461306,388189
1184.44,0.076512,467657,392117
1187.99,0.077975,473969,396073
1191.52,0.077846,479856,401111
1195.06,0.077253,487372,407951
1199.76,0.076083,497347,417423
1203.29,0.075456,504311,423880
1206.81,0.074879,511507,430499
1210.33,0.074096,519078,437660
1213.84,0.073051,527163,445547
1217.35,0.072318,534208,452264
1220.85,0.071122,540472,458829
1225.51,0.070418,549929,467615
1229.01,0.070094,556888,473886
1232.5,0.069388,562180,479168
1235.98,0.069150,567975,484372
1239.46,0.067790,574815,491743
1242.94,0.066970,582782,499501
1246.41,0.065826,591476,508289
1251.03,0.065919,604016,518955
1254.5,0.066063,612289,525888
1257.96,0.066278,619125,531497
1261.41,0.066880,624551,535412
1264.86,0.067561,629900,539151
1268.31,0.068525,634345,541752
1271.75,0.068956,638574,544823
1276.33,0.069160,642499,547914
1279.76,0.069347,645905,550581
1283.19,0.068811,648307,553312
1286.61,0.068308,650446,555780
1290.03,0.067723,652132,557972
1293.44,0.067790,653907,559404
1296.85,0.067516,655963,561518
1301.39,0.067197,657349,563117
1304.8,0.067073,657558,563457
1308.19,0.067715,658515,563444
1311.58,0.067462,658804,564019
1314.97,0.068259,659011,563163
1318.36,0.068741,658272,561907
1321.73,0.069047,658022,561298
1326.23,0.069985,657870,559957
1329.6,0.070912,656482,557585
1332.97,0.072250,654926,554552
1336.33,0.073521,653727,551919
1339.69,0.075281,652497,548653
1343.04,0.076965,649913,544365
1346.39,0.079021,647671,539925
1349.73,0.080830,645338,535744
1354.18,0.084648,641175,527629
1357.52,0.086991,638376,522499
1360.85,0.088965,635805,518035
1364.17,0.091265,633413,513360
1367.49,0.093605,631026,508677
1370.81,0.096216,628050,503244
1374.12,0.098531,625034,498164
1378.54,0.101958,620272,490483
1381.84,0.105594,616892,483744
1385.14,0.109597,613613,476757
1388.43,0.114475,611526,469829
1391.72,0.119477,610663,463793
1395.01,0.124444,610634,458497
1398.29,0.129536,611700,453944
1402.66,0.137655,614051,447249
1405.93,0.143426,616268,442939
1409.2,0.149273,617795,438098
1412.46,0.154401,618872,433710
1415.72,0.159770,619795,429021
1418.98,0.163902,620495,425438
1422.23,0.167112,621087,422708
1426.56,0.171620,621375,418537
1429.8,0.174445,621616,415985
1433.04,0.177204,622129,413691
1436.27,0.179485,621526,411125
1439.5,0.181852,621113,408619
1442.72,0.184391,620921,406112
1445.94,0.187414,620270,402872
1450.23,0.190798,618860,398836
1453.44,0.193469,617697,395646
1456.64,0.196605,616264,391888
1459.85,0.199331,614413,388266
1463.04,0.201891,612307,384661
1466.24,0.204929,610032,380560
1469.43,0.209035,607345,375319
1473.67,0.214925,603789,368095
1476.85,0.219717,601175,362480
1480.02,0.226208,597737,355060
1483.19,0.232481,594479,348061
1486.36,0.238363,591232,341503
1489.52,0.242723,587853,336160
1492.68,0.246535,583875,330967
1496.89,0.249023,578062,325800
1500.03,0.249311,574159,323386
1503.18,0.250211,570285,320539
1506.32,0.248863,565444,318806
1509.45,0.247380,560571,317140
1512.58,0.245352,555821,315924
1515.71,0.243486,550344,314158
1519.87,0.240065,543983,312983
1522.99,0.237390,538764,311895
1526.1,0.235001,533692,310663
1529.21,0.232117,527902,309340
1532.32,0.229105,521886,307943
1535.42,0.225907,515888,306654
1538.51,0.222872,509987,305272
1541.6,0.219459,503936,304030
1545.72,0.214413,494694,301942
1548.8,0.211726,488378,299937
1551.88,0.209358,481832,297535
1554.95,0.206635,474989,295154
1558.02,0.205376,467818,291542
1561.08,0.204386,460730,287780
1564.15,0.203568,454170,284217
1568.22,0.202143,444181,278880
1571.27,0.201286,436947,274880
1574.32,0.200119,429598,270984
1577.36,0.199110,422039,266835
1580.4,0.197687,414375,262849
1583.43,0.195494,406354,259066
1586.46,0.193798,398475,255037
1590.49,0.191304,388982,250395
1593.51,0.189124,380708,246302
1596.53,0.187502,372727,242041
1599.54,0.185204,365060,238320
1602.55,0.183010,357543,234595
1605.55,0.180220,349495,230792
1608.55,0.178859,341154,225991
1612.54,0.176311,330877,220473
1615.53,0.173383,322904,216616
1618.51,0.171850,315116,212139
1621.49,0.171697,307217,206894
1624.47,0.170401,299481,202287
1627.44,0.168713,292112,198078
1630.41,0.168662,284245,192766
1634.36,0.165925,274079,187047
1637.32,0.165988,266916,182132
1640.27,0.165761,259612,177241
1643.22,0.164095,251804,172571
1646.16,0.162188,244348,168198
1649.1,0.162915,236703,162663
1652.04,0.159543,228171,158022
1655.95,0.158839,215408,149425
1658.88,0.156758,204937,142844
1661.8,0.152255,193395,136204
1664.72,0.145419,179728,128587
1667.63,0.136683,163642,119457
1670.54,0.125588,146312,109570
1673.44,0.113906,128451,98817
1677.31,0.103133,105080,82868
1680.21,0.093757,88906,71643
1683.1,0.091427,75033,60789
1685.99,0.094209,63520,51133
1688.87,0.101923,53714,42478
1691.75,0.105732,45653,35788
1694.62,0.111145,39137,30300
1697.49,0.113034,33776,26036
1701.31,0.118700,28175,21437