File: samples/wool/wool-000811/Column 1_050582_20150331_121511.csv
Method:,Column 1,,
Host Date-Time:,31/3/15 @ 12:15:11,,
Header Version:,1,,
System Temp (C):,33.74,,
Detector Temp (C):,34.52,,
Humidity (%):,1.95,,
Lamp PD:,3819,,
Shift Vector Coefficients:,-10.5391,0.0761263,-0.000134223,,
Pixel to Wavelength Coefficients:,1775.68,-0.916766,-0.000235065,,
Serial Number:,5510004,,
Scan Config Name:,Column 1,,
Scan Config Type:,Slew,,
Section 1,,
Start wavelength (nm):,900,,
End wavelength (nm):,1700,,
Pattern Pixel Width (nm):,   7.03,,,,
Exposure (ms):,  0.635,,,,
Digital Resolution:,228,,
Num Repeats:,6,,
PGA Gain:,64,,
Total Measurement Time in sec:,  2.721,,
Wavelength (nm),Absorbance (AU),Reference Signal (unitless),Sample Signal (unitless)
901.51,0.071464,108485,92025
905.376,0.077224,121306,101545
909.237,0.079581,131909,109823
913.095,0.079333,143299,119374
916.948,0.080912,156982,130298
922.079,0.081949,179937,148995
925.923,0.082764,200504,165714
929.762,0.084016,222660,183496
933.597,0.084474,244426,201221
937.427,0.082610,263972,218247
941.254,0.081913,281845,233398
945.076,0.081408,297271,246459
950.165,0.080255,315605,262355
953.978,0.080421,328029,272578
957.786,0.079727,340470,283369
961.59,0.080017,352317,293033
965.389,0.079204,363056,302531
969.185,0.080464,373162,310051
972.976,0.080282,382632,318053
976.763,0.081255,391202,324449
981.806,0.081567,400190,331665
985.583,0.082642,406088,335721
989.355,0.082616,410162,339109
993.124,0.082695,412868,341284
996.888,0.083582,414263,341739
1000.65,0.084519,415476,342001
1004.4,0.085199,415479,341468
1009.41,0.086718,414358,339358
1013.15,0.087213,412923,337797
1016.89,0.087627,411526,336334
1020.63,0.087544,409066,334387
1024.36,0.087634,406777,332447
1028.09,0.087974,404427,330268
1031.82,0.086914,401911,329015
1036.78,0.086467,398410,326485
1040.49,0.086533,396204,324628
1044.2,0.086422,394236,323098
1047.91,0.086553,392042,321203
1051.61,0.086403,389823,319495
1055.31,0.084935,388234,319270
1059,0.085161,387599,318582
1063.92,0.085134,386688,317853
1067.61,0.084336,386598,318364
1071.29,0.083318,387377,319754
1074.96,0.082987,388536,320955
1078.63,0.082225,389855,322610
1082.3,0.081195,391215,324504
1085.96,0.080804,393215,326457
1090.84,0.080040,396270,329573
1094.49,0.079854,398760,331786
1098.14,0.079065,400987,334245
1101.79,0.078841,403477,336494
1105.43,0.078023,406116,339334
1109.06,0.078177,407701,340537
1112.7,0.077190,409859,343119
1117.53,0.077680,412494,344935
1121.15,0.077383,414909,347192
1124.77,0.077396,416559,348562
1128.38,0.077517,418532,350116
1131.99,0.079347,419956,349830
1135.6,0.081057,421946,350106
1139.2,0.082329,423881,350683
1143.99,0.084365,426786,351435
1147.58,0.085185,428617,352277
1151.17,0.086487,431169,353314
1154.75,0.087481,433579,354476
1158.33,0.088907,436264,355502
1161.91,0.091004,439132,356116
1165.48,0.092565,442389,357470
1169.04,0.095160,446101,358322
1173.79,0.098348,451929,360348
1177.34,0.100215,456026,362055
1180.9,0.102451,461306,364366
1184.44,0.104336,467657,367783
1187.99,0.104792,473969,372356
1191.52,0.105110,479856,376705
1195.06,0.104914,487372,382778
1199.76,0.103775,497347,391638
1203.29,0.103713,504311,397178
1206.81,0.103070,511507,403442
1210.33,0.101973,519078,410449
1213.84,0.101735,527163,417071
1217.35,0.101201,534208,423165
1220.85,0.100417,540472,428900
1225.51,0.099874,549929,436951
1229.01,0.099287,556888,443079
1232.5,0.098968,562180,447618
1235.98,0.098576,567975,452640
1239.46,0.097419,574815,459313
1242.94,0.096040,582782,467161
1246.41,0.095814,591476,474376
1251.03,0.095712,604016,484548
1254.5,0.096016,612289,490841
1257.96,0.096394,619125,495889
1261.41,0.096613,624551,499983
1264.86,0.097151,629900,503641
1268.31,0.097355,634345,506956
1271.75,0.098672,638574,508791
1276.33,0.098449,642499,512181
1279.76,0.098440,645905,514907
1283.19,0.097899,648307,517466
1286.61,0.097550,650446,519591
1290.03,0.097712,652132,520743
1293.44,0.096897,653907,523141
1296.85,0.096843,655963,524851
1301.39,0.096497,657349,526379
1304.8,0.096462,657558,526589
1308.19,0.096790,658515,526957
1311.58,0.096510,658804,527529
1314.97,0.097209,659011,526846
1318.36,0.098087,658272,525192
1321.73,0.098521,658022,524468
1326.23,0.099199,657870,523529
1329.6,0.100115,656482,521324
1332.97,0.101022,654926,519003
1336.33,0.102521,653727,516268
1339.69,0.104058,652497,513477
1343.04,0.105471,649913,509782
1346.39,0.107565,647671,505579
1349.73,0.109600,645338,501403
1354.18,0.112491,641175,494864
1357.52,0.114595,638376,490322
1360.85,0.116477,635805,486236
1364.17,0.118503,633413,482152
1367.49,0.120620,631026,477999
1370.81,0.123188,628050,472940
1374.12,0.125256,625034,468433
1378.54,0.128469,620272,461438
1381.84,0.131874,616892,455339
1385.14,0.135535,613613,449117
1388.43,0.139655,611526,443363
1391.72,0.144200,610663,438129
1395.01,0.149094,610634,433199
1398.29,0.154526,611700,428561
1402.66,0.161788,614051,423074
1405.93,0.167361,616268,419188
1409.2,0.173203,617795,414612
1412.46,0.177948,618872,410821
1415.72,0.182479,619795,407164
1418.98,0.186475,620495,403890
1422.23,0.189845,621087,401151
1426.56,0.194140,621375,397387
1429.8,0.197411,621616,394558
1433.04,0.199472,622129,393014
1436.27,0.202002,621526,390353
1439.5,0.204126,621113,388190
1442.72,0.206578,620921,385885
1445.94,0.208971,620270,383363
1450.23,0.212335,618860,379540
1453.44,0.214653,617697,376810
1456.64,0.217409,616264,373558
1459.85,0.219616,614413,370548
1463.04,0.222082,612307,367187
1466.24,0.225591,610032,362879
1469.43,0.228779,607345,358638
1473.67,0.234286,603789,352046
1476.85,0.239060,601175,346690
1480.02,0.244361,597737,340525
1483.19,0.249063,594479,335022
1486.36,0.253955,591232,329460
1489.52,0.258342,587853,324285
1492.68,0.262096,583875,319318
1496.89,0.263697,578062,314976
1500.03,0.263929,574159,312682
1503.18,0.263867,570285,310617
1506.32,0.262947,565444,308633
1509.45,0.261809,560571,306776
1512.58,0.260249,555821,305271
1515.71,0.258301,550344,303622
1519.87,0.255058,543983,302362
1522.99,0.252441,538764,301271
1526.1,0.250755,533692,299596
1529.21,0.247484,527902,298586
1532.32,0.244699,521886,297082
1535.42,0.242192,515888,295368
1538.51,0.239433,509987,293850
1541.6,0.236686,503936,292206
1545.72,0.231907,494694,290021
1548.8,0.229608,488378,287838
1551.88,0.227055,481832,285654
1554.95,0.224903,474989,282996
1558.02,0.223194,467818,279823
1561.08,0.222146,460730,276249
1564.15,0.221280,454170,272859
1568.22,0.219860,444181,267732
1571.27,0.219475,436947,263605
1574.32,0.218241,429598,259909
1577.36,0.217518,422039,255761
1580.4,0.215976,414375,252010
1583.43,0.214173,406354,248160
1586.46,0.212986,398475,244014
1590.49,0.210356,388982,239648
1593.51,0.209371,380708,235083
1596.53,0.206510,372727,231676
1599.54,0.205551,365060,227412
1602.55,0.203142,357543,223968
1605.55,0.201862,349495,219573
1608.55,0.198988,341154,215756
1612.54,0.197139,330877,210149
1615.53,0.195571,322904,205827
1618.51,0.194549,315116,201336
1621.49,0.192404,307217,197261
1624.47,0.192115,299481,192422
1627.44,0.191692,292112,187870
1630.41,0.189962,284245,183540
1634.36,0.188147,274079,177717
1637.32,0.189487,266916,172539
1640.27,0.187053,259612,168761
1643.22,0.186309,251804,163966
1646.16,0.186052,244348,159205
1649.1,0.184365,236703,154824
1652.04,0.182383,228171,149926
1655.95,0.179984,215408,142324
1658.88,0.177093,204937,136310
1661.8,0.170865,193395,130491
1664.72,0.163561,179728,123326
1667.63,0.150817,163642,115632
1670.54,0.137006,146312,106727
1673.44,0.121398,128451,97127
1677.31,0.103511,105080,82796
1680.21,0.092220,88906,71897
1683.1,0.090671,75033,60895
1685.99,0.092421,63520,51344
1688.87,0.092238,53714,43436
1691.75,0.091467,45653,36983
1694.62,0.103473,39137,30840
1697.49,0.107399,33776,26376
1701.31,0.111009,28175,21820