File: samples/wool/wool-000811/Column 1_050536_20150331_115327.csv
Method:,Column 1,,
Host Date-Time:,31/3/15 @ 11:53:27,,
Header Version:,1,,
System Temp (C):,31.65,,
Detector Temp (C):,30.11,,
Humidity (%):,3.61,,
Lamp PD:,3827,,
Shift Vector Coefficients:,-10.5391,0.0761263,-0.000134223,,
Pixel to Wavelength Coefficients:,1775.68,-0.916766,-0.000235065,,
Serial Number:,5510004,,
Scan Config Name:,Column 1,,
Scan Config Type:,Slew,,
Section 1,,
Start wavelength (nm):,900,,
End wavelength (nm):,1700,,
Pattern Pixel Width (nm):,   7.03,,,,
Exposure (ms):,  0.635,,,,
Digital Resolution:,228,,
Num Repeats:,6,,
PGA Gain:,64,,
Total Measurement Time in sec:,  2.676,,
Wavelength (nm),Absorbance (AU),Reference Signal (unitless),Sample Signal (unitless)
901.51,0.042335,108485,98409
905.376,0.047102,121306,108838
909.237,0.050000,131909,117564
913.095,0.049855,143299,127758
916.948,0.048585,156982,140367
922.079,0.050070,179937,160343
925.923,0.049306,200504,178985
929.762,0.049906,222660,198489
933.597,0.051220,244426,217234
937.427,0.050584,263972,234949
941.254,0.051090,281845,250565
945.076,0.051419,297271,264079
950.165,0.051377,315605,280393
953.978,0.051788,328029,291155
957.786,0.051977,340470,302066
961.59,0.053570,352317,311432
965.389,0.053105,363056,321269
969.185,0.053299,373162,330064
972.976,0.053919,382632,337958
976.763,0.054378,391202,345162
981.806,0.055736,400190,351990
985.583,0.056183,406088,356810
989.355,0.056921,410162,359778
993.124,0.057250,412868,361877
996.888,0.057778,414263,362659
1000.65,0.058664,415476,362979
1004.4,0.060163,415479,361731
1009.41,0.061686,414358,359492
1013.15,0.061650,412923,358277
1016.89,0.062252,411526,356570
1020.63,0.062428,409066,354295
1024.36,0.061822,406777,352805
1028.09,0.061383,404427,351121
1031.82,0.061566,401911,348790
1036.78,0.060772,398410,346384
1040.49,0.059970,396204,345103
1044.2,0.059981,394236,343380
1047.91,0.059484,392042,341860
1051.61,0.058325,389823,340834
1055.31,0.057871,388234,339799
1059,0.057138,387599,339817
1063.92,0.056213,386688,339741
1067.61,0.055343,386598,340343
1071.29,0.053870,387377,342187
1074.96,0.053377,388536,343601
1078.63,0.053178,389855,344925
1082.3,0.051514,391215,347457
1085.96,0.051002,393215,349646
1090.84,0.050546,396270,352732
1094.49,0.049947,398760,355439
1098.14,0.049689,400987,357636
1101.79,0.049435,403477,360067
1105.43,0.049603,406116,362282
1109.06,0.049465,407701,363812
1112.7,0.049175,409859,365982
1117.53,0.049205,412494,368309
1121.15,0.049928,414909,369849
1124.77,0.050202,416559,371086
1128.38,0.052046,418532,371264
1131.99,0.053767,419956,371054
1135.6,0.055895,421946,370990
1139.2,0.057744,423881,371108
1143.99,0.060816,426786,371017
1147.58,0.061877,428617,371700
1151.17,0.062849,431169,373077
1154.75,0.065182,433579,373152
1158.33,0.067000,436264,373895
1161.91,0.069427,439132,374255
1165.48,0.072516,442389,374359
1169.04,0.075037,446101,375315
1173.79,0.079912,451929,375974
1177.34,0.082106,456026,377471
1180.9,0.084792,461306,379487
1184.44,0.086647,467657,383072
1187.99,0.087395,473969,387574
1191.52,0.087033,479856,392715
1195.06,0.086619,487372,399247
1199.76,0.084734,497347,409190
1203.29,0.083579,504311,416025
1206.81,0.082390,511507,423118
1210.33,0.080876,519078,430880
1213.84,0.079911,527163,438565
1217.35,0.078950,534208,445410
1220.85,0.077783,540472,451846
1225.51,0.076557,549929,461052
1229.01,0.075631,556888,467883
1232.5,0.074972,562180,473046
1235.98,0.074111,567975,478871
1239.46,0.072694,574815,486221
1242.94,0.071632,582782,494167
1246.41,0.070793,591476,502509
1251.03,0.070785,604016,513173
1254.5,0.070708,612289,520293
1257.96,0.070980,619125,525773
1261.41,0.071815,624551,529362
1264.86,0.071889,629900,533805
1268.31,0.072878,634345,536349
1271.75,0.073547,638574,539094
1276.33,0.073792,642499,542101
1279.76,0.073877,645905,544868
1283.19,0.073355,648307,547552
1286.61,0.072883,650446,549957
1290.03,0.072612,652132,551726
1293.44,0.071863,653907,554183
1296.85,0.071637,655963,556215
1301.39,0.071784,657349,557201
1304.8,0.072216,657558,556824
1308.19,0.072019,658515,557887
1311.58,0.072324,658804,557741
1314.97,0.072785,659011,557324
1318.36,0.073067,658272,556338
1321.73,0.074152,658022,554738
1326.23,0.075033,657870,553486
1329.6,0.075784,656482,551365
1332.97,0.077134,654926,548350
1336.33,0.078927,653727,545091
1339.69,0.080732,652497,541810
1343.04,0.082580,649913,537372
1346.39,0.085285,647671,532193
1349.73,0.087310,645338,527810
1354.18,0.091272,641175,519642
1357.52,0.093657,638376,514540
1360.85,0.096184,635805,509495
1364.17,0.098282,633413,505132
1367.49,0.101272,631026,499776
1370.81,0.103848,628050,494477
1374.12,0.107029,625034,488511
1378.54,0.110930,620272,480454
1381.84,0.114928,616892,473458
1385.14,0.119349,613613,466171
1388.43,0.124717,611526,458879
1391.72,0.130425,610663,452248
1395.01,0.136686,610634,445754
1398.29,0.143275,611700,439808
1402.66,0.152025,614051,432693
1405.93,0.159220,616268,427120
1409.2,0.165976,617795,421569
1412.46,0.172044,618872,416444
1415.72,0.177193,619795,412150
1418.98,0.182345,620495,407749
1422.23,0.186407,621087,404339
1426.56,0.191626,621375,399694
1429.8,0.194170,621616,397514
1433.04,0.197414,622129,394881
1436.27,0.200134,621526,392035
1439.5,0.202591,621113,389565
1442.72,0.205242,620921,387074
1445.94,0.207892,620270,384316
1450.23,0.211378,618860,380377
1453.44,0.214880,617697,376613
1456.64,0.217068,616264,373851
1459.85,0.219342,614413,370782
1463.04,0.222750,612307,366623
1466.24,0.225851,610032,362662
1469.43,0.228571,607345,358810
1473.67,0.233181,603789,352943
1476.85,0.237882,601175,347631
1480.02,0.243332,597737,341333
1483.19,0.249467,594479,334711
1486.36,0.255752,591232,328100
1489.52,0.260415,587853,322741
1492.68,0.264165,583875,317801
1496.89,0.266590,578062,312885
1500.03,0.267661,574159,310007
1503.18,0.268182,570285,307546
1506.32,0.267283,565444,305567
1509.45,0.266204,560571,303687
1512.58,0.265137,555821,301855
1515.71,0.262195,550344,300912
1519.87,0.258770,543983,299789
1522.99,0.257223,538764,297972
1526.1,0.254283,533692,297172
1529.21,0.251083,527902,296122
1532.32,0.247648,521886,295072
1535.42,0.244347,515888,293906
1538.51,0.241077,509987,292740
1541.6,0.237301,503936,291793
1545.72,0.232322,494694,289744
1548.8,0.229905,488378,287641
1551.88,0.226975,481832,285707
1554.95,0.224244,474989,283426
1558.02,0.222716,467818,280131
1561.08,0.220819,460730,277094
1564.15,0.221056,454170,273000
1568.22,0.219187,444181,268147
1571.27,0.218509,436947,264192
1574.32,0.217271,429598,260490
1577.36,0.215834,422039,256755
1580.4,0.213208,414375,253621
1583.43,0.211895,406354,249465
1586.46,0.209371,398475,246054
1590.49,0.207783,388982,241072
1593.51,0.205494,380708,237191
1596.53,0.202901,372727,233609
1599.54,0.200918,365060,229851
1602.55,0.197678,357543,226804
1605.55,0.195237,349495,222948
1608.55,0.193748,341154,218375
1612.54,0.191828,330877,212735
1615.53,0.187624,322904,209628
1618.51,0.187274,315116,204737
1621.49,0.185145,307217,200586
1624.47,0.183708,299481,196183
1627.44,0.182973,292112,191680
1630.41,0.180356,284245,187645
1634.36,0.179298,274079,181375
1637.32,0.178056,266916,177141
1640.27,0.177805,259612,172393
1643.22,0.176237,251804,167813
1646.16,0.175384,244348,163164
1649.1,0.174235,236703,158478
1652.04,0.173299,228171,153095
1655.95,0.172223,215408,144890
1658.88,0.170271,204937,138468
1661.8,0.169844,193395,130798
1664.72,0.169718,179728,121590
1667.63,0.165173,163642,111872
1670.54,0.161716,146312,100824
1673.44,0.158767,128451,89119
1677.31,0.153440,105080,73804
1680.21,0.157079,88906,61923
1683.1,0.157915,75033,52160
1685.99,0.163823,63520,43560
1688.87,0.166428,53714,36615
1691.75,0.176253,45653,30424
1694.62,0.177948,39137,25980
1697.49,0.183136,33776,22155
1701.31,0.186938,28175,18320