File: samples/wool/wool-000811/Column 1_050579_20150331_121340.csv
Method:,Column 1,,
Host Date-Time:,31/3/15 @ 12:13:40,,
Header Version:,1,,
System Temp (C):,33.82,,
Detector Temp (C):,34.67,,
Humidity (%):,1.95,,
Lamp PD:,3819,,
Shift Vector Coefficients:,-10.5391,0.0761263,-0.000134223,,
Pixel to Wavelength Coefficients:,1775.68,-0.916766,-0.000235065,,
Serial Number:,5510004,,
Scan Config Name:,Column 1,,
Scan Config Type:,Slew,,
Section 1,,
Start wavelength (nm):,900,,
End wavelength (nm):,1700,,
Pattern Pixel Width (nm):,   7.03,,,,
Exposure (ms):,  0.635,,,,
Digital Resolution:,228,,
Num Repeats:,6,,
PGA Gain:,64,,
Total Measurement Time in sec:,  2.663,,
Wavelength (nm),Absorbance (AU),Reference Signal (unitless),Sample Signal (unitless)
901.51,0.072920,108485,91717
905.376,0.077990,121306,101366
909.237,0.080222,131909,109661
913.095,0.079603,143299,119300
916.948,0.081072,156982,130250
922.079,0.082888,179937,148673
925.923,0.082869,200504,165674
929.762,0.083680,222660,183638
933.597,0.084714,244426,201110
937.427,0.084252,263972,217423
941.254,0.082783,281845,232931
945.076,0.081695,297271,246296
950.165,0.081161,315605,261808
953.978,0.080826,328029,272324
957.786,0.080768,340470,282690
961.59,0.081103,352317,292301
965.389,0.081175,363056,301161
969.185,0.081540,373162,309284
972.976,0.081521,382632,317147
976.763,0.082398,391202,323596
981.806,0.082399,400190,331030
985.583,0.083491,406088,335065
989.355,0.084185,410162,337886
993.124,0.083847,412868,340380
996.888,0.084447,414263,341059
1000.65,0.084937,415476,341672
1004.4,0.086593,415479,340374
1009.41,0.087546,414358,338711
1013.15,0.088541,412923,336766
1016.89,0.088665,411526,335531
1020.63,0.088500,409066,333652
1024.36,0.088710,406777,331624
1028.09,0.087632,404427,330528
1031.82,0.087708,401911,328414
1036.78,0.088061,398410,325289
1040.49,0.087709,396204,323750
1044.2,0.087182,394236,322533
1047.91,0.087235,392042,320699
1051.61,0.086990,389823,319064
1055.31,0.086384,388234,318207
1059,0.086012,387599,317959
1063.92,0.085117,386688,317866
1067.61,0.085144,386598,317772
1071.29,0.084067,387377,319203
1074.96,0.083754,388536,320389
1078.63,0.083401,389855,321738
1082.3,0.082290,391215,323687
1085.96,0.081145,393215,326201
1090.84,0.080987,396270,328855
1094.49,0.080190,398760,331529
1098.14,0.080303,400987,333294
1101.79,0.079100,403477,336294
1105.43,0.078353,406116,339076
1109.06,0.078263,407701,340470
1112.7,0.078083,409859,342414
1117.53,0.077514,412494,345067
1121.15,0.077946,414909,346742
1124.77,0.078541,416559,347645
1128.38,0.078933,418532,348976
1131.99,0.080069,419956,349249
1135.6,0.081721,421946,349571
1139.2,0.083779,423881,349514
1143.99,0.085408,426786,350592
1147.58,0.086292,428617,351380
1151.17,0.087467,431169,352517
1154.75,0.088082,433579,353986
1158.33,0.089848,436264,354733
1161.91,0.091978,439132,355318
1165.48,0.093724,442389,356517
1169.04,0.096243,446101,357429
1173.79,0.099415,451929,359464
1177.34,0.101059,456026,361352
1180.9,0.103390,461306,363579
1184.44,0.104981,467657,367237
1187.99,0.106437,473969,370948
1191.52,0.106550,479856,375458
1195.06,0.105423,487372,382329
1199.76,0.105322,497347,390245
1203.29,0.104856,504311,396134
1206.81,0.103990,511507,402589
1210.33,0.103562,519078,408950
1213.84,0.102633,527163,416209
1217.35,0.102271,534208,422123
1220.85,0.101840,540472,427497
1225.51,0.100856,549929,435964
1229.01,0.099862,556888,442492
1232.5,0.099659,562180,446906
1235.98,0.099029,567975,452168
1239.46,0.098265,574815,458420
1242.94,0.097071,582782,466053
1246.41,0.096561,591476,473561
1251.03,0.096700,604016,483446
1254.5,0.096964,612289,489770
1257.96,0.096610,619125,495642
1261.41,0.097199,624551,499308
1264.86,0.098050,629900,502599
1268.31,0.098668,634345,505426
1271.75,0.099195,638574,508178
1276.33,0.099659,642499,510756
1279.76,0.099545,645905,513598
1283.19,0.099210,648307,515906
1286.61,0.098790,650446,518109
1290.03,0.098234,652132,520118
1293.44,0.097617,653907,522275
1296.85,0.097603,655963,523934
1301.39,0.097687,657349,524939
1304.8,0.097180,657558,525719
1308.19,0.097425,658515,526188
1311.58,0.097965,658804,525765
1314.97,0.098520,659011,525258
1318.36,0.098840,658272,524282
1321.73,0.099211,658022,523636
1326.23,0.100407,657870,522075
1329.6,0.101416,656482,519765
1332.97,0.102321,654926,517453
1336.33,0.103431,653727,515188
1339.69,0.104945,652497,512429
1343.04,0.106722,649913,508315
1346.39,0.109009,647671,503901
1349.73,0.110614,645338,500234
1354.18,0.113864,641175,493302
1357.52,0.115894,638376,488858
1360.85,0.117662,635805,484911
1364.17,0.120157,633413,480319
1367.49,0.121928,631026,476562
1370.81,0.124548,628050,471461
1374.12,0.126411,625034,467189
1378.54,0.129812,620272,460013
1381.84,0.133405,616892,453737
1385.14,0.137022,613613,447582
1388.43,0.140923,611526,442071
1391.72,0.146314,610663,436001
1395.01,0.151617,610634,430689
1398.29,0.156377,611700,426738
1402.66,0.164138,614051,420791
1405.93,0.170251,616268,416408
1409.2,0.175574,617795,412354
1412.46,0.181164,618872,407790
1415.72,0.185696,619795,404159
1418.98,0.190245,620495,400399
1422.23,0.193729,621087,397579
1426.56,0.198528,621375,393392
1429.8,0.200879,621616,391420
1433.04,0.203473,622129,389410
1436.27,0.205937,621526,386832
1439.5,0.207879,621113,384850
1442.72,0.210078,620921,382788
1445.94,0.211964,620270,380730
1450.23,0.216169,618860,376204
1453.44,0.218584,617697,373415
1456.64,0.221000,616264,370482
1459.85,0.223280,614413,367435
1463.04,0.226175,612307,363743
1466.24,0.228880,610032,360141
1469.43,0.232038,607345,355957
1473.67,0.237123,603789,349754
1476.85,0.241584,601175,344681
1480.02,0.246580,597737,338790
1483.19,0.251589,594479,333079
1486.36,0.257073,591232,327103
1489.52,0.261169,587853,322181
1492.68,0.264526,583875,317537
1496.89,0.265963,578062,313337
1500.03,0.266159,574159,311081
1503.18,0.265632,570285,309357
1506.32,0.264787,565444,307328
1509.45,0.263237,560571,305769
1512.58,0.262137,555821,303947
1515.71,0.260461,550344,302116
1519.87,0.257325,543983,300788
1522.99,0.255103,538764,299430
1526.1,0.252301,533692,298531
1529.21,0.250089,527902,296800
1532.32,0.247468,521886,295194
1535.42,0.244396,515888,293873
1538.51,0.241567,509987,292410
1541.6,0.238365,503936,291079
1545.72,0.234387,494694,288370
1548.8,0.231994,488378,286261
1551.88,0.229837,481832,283830
1554.95,0.227014,474989,281624
1558.02,0.225361,467818,278430
1561.08,0.224447,460730,274789
1564.15,0.223916,454170,271208
1568.22,0.222967,444181,265823
1571.27,0.221915,436947,262128
1574.32,0.220674,429598,258457
1577.36,0.219145,422039,254805
1580.4,0.217699,414375,251012
1583.43,0.216749,406354,246692
1586.46,0.215996,398475,242329
1590.49,0.212425,388982,238509
1593.51,0.211165,380708,234114
1596.53,0.209606,372727,230030
1599.54,0.207766,365060,226255
1602.55,0.205495,357543,222758
1605.55,0.203209,349495,218893
1608.55,0.201015,341154,214751
1612.54,0.199003,330877,209249
1615.53,0.197508,322904,204911
1618.51,0.196272,315116,200539
1621.49,0.195712,307217,195764
1624.47,0.194198,299481,191501
1627.44,0.193891,292112,186921
1630.41,0.191296,284245,182977
1634.36,0.190551,274079,176736
1637.32,0.189291,266916,172617
1640.27,0.189326,259612,167880
1643.22,0.188159,251804,163269
1646.16,0.188095,244348,158458
1649.1,0.187584,236703,153681
1652.04,0.185083,228171,148997
1655.95,0.183031,215408,141329
1658.88,0.178254,204937,135946
1661.8,0.173127,193395,129813
1664.72,0.165552,179728,122762
1667.63,0.153726,163642,114860
1670.54,0.138824,146312,106281
1673.44,0.125355,128451,96246
1677.31,0.103731,105080,82754
1680.21,0.095848,88906,71299
1683.1,0.088026,75033,61267
1685.99,0.092666,63520,51315
1688.87,0.093199,53714,43340
1691.75,0.099443,45653,36310
1694.62,0.104714,39137,30752
1697.49,0.108190,33776,26328
1701.31,0.120242,28175,21361