File: samples/wool/wool-000811/Column 1_050568_20150331_120812.csv
Method:,Column 1,,
Host Date-Time:,31/3/15 @ 12:8:12,,
Header Version:,1,,
System Temp (C):,33.97,,
Detector Temp (C):,33.94,,
Humidity (%):,1.86,,
Lamp PD:,3819,,
Shift Vector Coefficients:,-10.5391,0.0761263,-0.000134223,,
Pixel to Wavelength Coefficients:,1775.68,-0.916766,-0.000235065,,
Serial Number:,5510004,,
Scan Config Name:,Column 1,,
Scan Config Type:,Slew,,
Section 1,,
Start wavelength (nm):,900,,
End wavelength (nm):,1700,,
Pattern Pixel Width (nm):,   7.03,,,,
Exposure (ms):,  0.635,,,,
Digital Resolution:,228,,
Num Repeats:,6,,
PGA Gain:,64,,
Total Measurement Time in sec:,  2.732,,
Wavelength (nm),Absorbance (AU),Reference Signal (unitless),Sample Signal (unitless)
901.51,0.034632,108485,100170
905.376,0.041295,121306,110303
909.237,0.043161,131909,119430
913.095,0.043990,143299,129495
916.948,0.046098,156982,141173
922.079,0.047058,179937,161459
925.923,0.047761,200504,179623
929.762,0.048811,222660,198990
933.597,0.050068,244426,217811
937.427,0.048442,263972,236111
941.254,0.048124,281845,252282
945.076,0.047149,297271,266688
950.165,0.046445,315605,283595
953.978,0.046245,328029,294895
957.786,0.046143,340470,306151
961.59,0.047637,352317,315716
965.389,0.046969,363056,325840
969.185,0.047116,373162,334797
972.976,0.047957,382632,342629
976.763,0.047546,391202,350635
981.806,0.048792,400190,357663
985.583,0.048977,406088,362780
989.355,0.050151,410162,365430
993.124,0.050320,412868,367698
996.888,0.050619,414263,368686
1000.65,0.051807,415476,368756
1004.4,0.053159,415479,367612
1009.41,0.053968,414358,365938
1013.15,0.054656,412923,364094
1016.89,0.055107,411526,362485
1020.63,0.055210,409066,360233
1024.36,0.055262,406777,358174
1028.09,0.054289,404427,356904
1031.82,0.054691,401911,354355
1036.78,0.054128,398410,351724
1040.49,0.053598,396204,350204
1044.2,0.053995,394236,348146
1047.91,0.053248,392042,346804
1051.61,0.052878,389823,345135
1055.31,0.051740,388234,344630
1059,0.051350,387599,344376
1063.92,0.050464,386688,344268
1067.61,0.049966,386598,344583
1071.29,0.049143,387377,345932
1074.96,0.048839,388536,347210
1078.63,0.048329,389855,348798
1082.3,0.047600,391215,350603
1085.96,0.046753,393215,353083
1090.84,0.045705,396270,356686
1094.49,0.046009,398760,358676
1098.14,0.045336,400987,361239
1101.79,0.044709,403477,364007
1105.43,0.045055,406116,366096
1109.06,0.044161,407701,368282
1112.7,0.044150,409859,370241
1117.53,0.043951,412494,372792
1121.15,0.044900,414909,374156
1124.77,0.045499,416559,375126
1128.38,0.047054,418532,375556
1131.99,0.048312,419956,375744
1135.6,0.050606,421946,375535
1139.2,0.051766,423881,376251
1143.99,0.054967,426786,376048
1147.58,0.055105,428617,377541
1151.17,0.056825,431169,378288
1154.75,0.057493,433579,379818
1158.33,0.059346,436264,380543
1161.91,0.061116,439132,381486
1165.48,0.064001,442389,381771
1169.04,0.066983,446101,382340
1173.79,0.070134,451929,384535
1177.34,0.073068,456026,385409
1180.9,0.075041,461306,388104
1184.44,0.076893,467657,391773
1187.99,0.078020,473969,396032
1191.52,0.077729,479856,401219
1195.06,0.077274,487372,407931
1199.76,0.076265,497347,417248
1203.29,0.075415,504311,423920
1206.81,0.074858,511507,430520
1210.33,0.073813,519078,437945
1213.84,0.073057,527163,445541
1217.35,0.072241,534208,452345
1220.85,0.071639,540472,458283
1225.51,0.070388,549929,467648
1229.01,0.070072,556888,473910
1232.5,0.069208,562180,479366
1235.98,0.068662,567975,484917
1239.46,0.067811,574815,491719
1242.94,0.066898,582782,499584
1246.41,0.066014,591476,508069
1251.03,0.065664,604016,519260
1254.5,0.066166,612289,525764
1257.96,0.066673,619125,531013
1261.41,0.066893,624551,535396
1264.86,0.067880,629900,538755
1268.31,0.068402,634345,541906
1271.75,0.068992,638574,544777
1276.33,0.069798,642499,547110
1279.76,0.069310,645905,550628
1283.19,0.068651,648307,553515
1286.61,0.068555,650446,555464
1290.03,0.068338,652132,557182
1293.44,0.067703,653907,559516
1296.85,0.067376,655963,561699
1301.39,0.066874,657349,563537
1304.8,0.066961,657558,563603
1308.19,0.067201,658515,564111
1311.58,0.067705,658804,563704
1314.97,0.068204,659011,563234
1318.36,0.068299,658272,562479
1321.73,0.068882,658022,561511
1326.23,0.069975,657870,559970
1329.6,0.070777,656482,557758
1332.97,0.071473,654926,555545
1336.33,0.072726,653727,552930
1339.69,0.074713,652497,549371
1343.04,0.076260,649913,545250
1346.39,0.079048,647671,539891
1349.73,0.080755,645338,535837
1354.18,0.083931,641175,528501
1357.52,0.086319,638376,523308
1360.85,0.088509,635805,518579
1364.17,0.090521,633413,514240
1367.49,0.092895,631026,509509
1370.81,0.095625,628050,503929
1374.12,0.097741,625034,499071
1378.54,0.100846,620272,491741
1381.84,0.104769,616892,484663
1385.14,0.107998,613613,478516
1388.43,0.112637,611526,471822
1391.72,0.117583,610663,465820
1395.01,0.122094,610634,460985
1398.29,0.127503,611700,456074
1402.66,0.134503,614051,450507
1405.93,0.140159,616268,446283
1409.2,0.145905,617795,441509
1412.46,0.150630,618872,437493
1415.72,0.155175,619795,433584
1418.98,0.159459,620495,429813
1422.23,0.163227,621087,426506
1426.56,0.167671,621375,422360
1429.8,0.170396,621616,419881
1433.04,0.173016,622129,417700
1436.27,0.175142,621526,415257
1439.5,0.177355,621113,412872
1442.72,0.179984,620921,410254
1445.94,0.182101,620270,407831
1450.23,0.186237,618860,403047
1453.44,0.189642,617697,399148
1456.64,0.192324,616264,395770
1459.85,0.195025,614413,392135
1463.04,0.198256,612307,387894
1466.24,0.201163,610032,383875
1469.43,0.204805,607345,378992
1473.67,0.211126,603789,371329
1476.85,0.216979,601175,364772
1480.02,0.223551,597737,357239
1483.19,0.229416,594479,350526
1486.36,0.235532,591232,343737
1489.52,0.241395,587853,337189
1492.68,0.245090,583875,332070
1496.89,0.247388,578062,327029
1500.03,0.247890,574159,324446
1503.18,0.248177,570285,322044
1506.32,0.246850,565444,320287
1509.45,0.245563,560571,318469
1512.58,0.243955,555821,316942
1515.71,0.241961,550344,315263
1519.87,0.237704,543983,314689
1522.99,0.235666,538764,313136
1526.1,0.233103,533692,312024
1529.21,0.231928,527902,309475
1532.32,0.226789,521886,309590
1535.42,0.224401,515888,307719
1538.51,0.220159,509987,307185
1541.6,0.219692,503936,303867
1545.72,0.212921,494694,302981
1548.8,0.209907,488378,301196
1551.88,0.207223,481832,299001
1554.95,0.204674,474989,296490
1558.02,0.203454,467818,292835
1561.08,0.202079,460730,289313
1564.15,0.200567,454170,286188
1568.22,0.200683,444181,279819
1571.27,0.199495,436947,276016
1574.32,0.198527,429598,271979
1577.36,0.196923,422039,268182
1580.4,0.195670,414375,264073
1583.43,0.193395,406354,260321
1586.46,0.192370,398475,255877
1590.49,0.189670,388982,251339
1593.51,0.188085,380708,246892
1596.53,0.185611,372727,243097
1599.54,0.183503,365060,239255
1602.55,0.180617,357543,235891
1605.55,0.178777,349495,231560
1608.55,0.176974,341154,226974
1612.54,0.175156,330877,221060
1615.53,0.173792,322904,216412
1618.51,0.171660,315116,212232
1621.49,0.169839,307217,207781
1624.47,0.169130,299481,202880
1627.44,0.167946,292112,198428
1630.41,0.166296,284245,193819
1634.36,0.165967,274079,187029
1637.32,0.164230,266916,182871
1640.27,0.164176,259612,177889
1643.22,0.161978,251804,173414
1646.16,0.161711,244348,168383
1649.1,0.161902,236703,163043
1652.04,0.160547,228171,157657
1655.95,0.157272,215408,149965
1658.88,0.152764,204937,144164
1661.8,0.149471,193395,137080
1664.72,0.142524,179728,129447
1667.63,0.132447,163642,120628
1670.54,0.121372,146312,110639
1673.44,0.106679,128451,100475
1677.31,0.087729,105080,85860
1680.21,0.082195,88906,73576
1683.1,0.078685,75033,62599
1685.99,0.079200,63520,52931
1688.87,0.082656,53714,44405
1691.75,0.092549,45653,36891
1694.62,0.099116,39137,31151
1697.49,0.099712,33776,26847
1701.31,0.110631,28175,21839