File: samples/wool/wool-000811/Column 1_050607_20150331_122700.csv
Method:,Column 1,,
Host Date-Time:,31/3/15 @ 12:27:0,,
Header Version:,1,,
System Temp (C):,34,,
Detector Temp (C):,34.85,,
Humidity (%):,1.66,,
Lamp PD:,3818,,
Shift Vector Coefficients:,-10.5391,0.0761263,-0.000134223,,
Pixel to Wavelength Coefficients:,1775.68,-0.916766,-0.000235065,,
Serial Number:,5510004,,
Scan Config Name:,Column 1,,
Scan Config Type:,Slew,,
Section 1,,
Start wavelength (nm):,900,,
End wavelength (nm):,1700,,
Pattern Pixel Width (nm):,   7.03,,,,
Exposure (ms):,  0.635,,,,
Digital Resolution:,228,,
Num Repeats:,6,,
PGA Gain:,64,,
Total Measurement Time in sec:,  2.681,,
Wavelength (nm),Absorbance (AU),Reference Signal (unitless),Sample Signal (unitless)
901.51,0.068637,108485,92626
905.376,0.074261,121306,102240
909.237,0.076402,131909,110630
913.095,0.077768,143299,119805
916.948,0.079259,156982,130795
922.079,0.080096,179937,149632
925.923,0.082347,200504,165873
929.762,0.082709,222660,184049
933.597,0.082577,244426,202102
937.427,0.080553,263972,219283
941.254,0.079782,281845,234546
945.076,0.079286,297271,247666
950.165,0.077958,315605,263746
953.978,0.076647,328029,274957
957.786,0.076400,340470,285548
961.59,0.076908,352317,295138
965.389,0.077945,363056,303409
969.185,0.076978,373162,312550
972.976,0.077862,382632,319830
976.763,0.078171,391202,326761
981.806,0.078585,400190,333950
985.583,0.079597,406088,338083
989.355,0.079604,410162,341469
993.124,0.080022,412868,343391
996.888,0.080358,414263,344285
1000.65,0.081792,415476,344155
1004.4,0.082510,415479,343589
1009.41,0.083641,414358,341771
1013.15,0.084109,412923,340220
1016.89,0.084840,411526,338499
1020.63,0.084731,409066,336560
1024.36,0.084457,406777,334888
1028.09,0.084505,404427,332916
1031.82,0.084826,401911,330601
1036.78,0.083889,398410,328429
1040.49,0.083647,396204,326792
1044.2,0.083475,394236,325298
1047.91,0.082817,392042,323978
1051.61,0.082452,389823,322415
1055.31,0.082827,388234,320824
1059,0.082335,387599,320662
1063.92,0.081208,386688,320740
1067.61,0.080494,386598,321193
1071.29,0.079829,387377,322333
1074.96,0.079859,388536,323275
1078.63,0.079512,389855,324632
1082.3,0.077974,391215,326920
1085.96,0.077492,393215,328956
1090.84,0.076856,396270,331998
1094.49,0.076822,398760,334110
1098.14,0.075765,400987,336795
1101.79,0.074767,403477,339666
1105.43,0.074888,406116,341792
1109.06,0.074363,407701,343541
1112.7,0.073609,409859,345960
1117.53,0.073485,412494,348283
1121.15,0.074016,414909,349894
1124.77,0.074189,416559,351146
1128.38,0.075128,418532,352047
1131.99,0.075941,419956,352584
1135.6,0.077137,421946,353281
1139.2,0.078799,423881,353545
1143.99,0.080437,426786,354628
1147.58,0.081878,428617,354970
1151.17,0.082660,431169,356441
1154.75,0.083072,433579,358093
1158.33,0.084334,436264,359265
1161.91,0.086373,439132,359933
1165.48,0.088842,442389,360547
1169.04,0.090178,446101,362456
1173.79,0.093987,451929,363985
1177.34,0.096266,456026,365362
1180.9,0.098320,461306,367849
1184.44,0.100146,467657,371348
1187.99,0.101479,473969,375207
1191.52,0.101079,479856,380217
1195.06,0.100801,487372,386420
1199.76,0.099633,497347,395391
1203.29,0.099765,504311,400805
1206.81,0.099335,511507,406927
1210.33,0.098506,519078,413739
1213.84,0.097871,527163,420798
1217.35,0.097601,534208,426687
1220.85,0.096503,540472,432783
1225.51,0.095915,549929,440952
1229.01,0.095394,556888,447068
1232.5,0.094494,562180,452253
1235.98,0.093853,567975,457590
1239.46,0.093260,574815,463733
1242.94,0.092636,582782,470836
1246.41,0.091491,591476,479122
1251.03,0.091570,604016,489191
1254.5,0.091972,612289,495433
1257.96,0.091897,619125,501050
1261.41,0.092682,624551,504529
1264.86,0.093728,629900,507626
1268.31,0.093487,634345,511492
1271.75,0.094525,638574,513672
1276.33,0.094549,642499,516801
1279.76,0.094152,645905,520016
1283.19,0.093600,648307,522614
1286.61,0.093797,650446,524100
1290.03,0.093177,652132,526209
1293.44,0.092751,653907,528159
1296.85,0.092507,655963,530118
1301.39,0.092535,657349,531204
1304.8,0.092425,657558,531507
1308.19,0.092348,658515,532375
1311.58,0.092779,658804,532080
1314.97,0.092995,659011,531983
1318.36,0.093366,658272,530932
1321.73,0.093492,658022,530577
1326.23,0.094591,657870,529114
1329.6,0.095356,656482,527068
1332.97,0.096142,654926,524868
1336.33,0.097078,653727,522779
1339.69,0.098256,652497,520382
1343.04,0.099750,649913,516542
1346.39,0.101829,647671,512301
1349.73,0.103851,645338,508085
1354.18,0.106966,641175,501199
1357.52,0.109086,638376,496581
1360.85,0.110604,635805,492856
1364.17,0.112416,633413,488957
1367.49,0.115182,631026,484022
1370.81,0.116544,628050,480231
1374.12,0.119093,625034,475128
1378.54,0.121776,620272,468604
1381.84,0.124609,616892,463020
1385.14,0.127985,613613,456993
1388.43,0.131375,611526,451898
1391.72,0.135369,610663,447129
1395.01,0.140134,610634,442229
1398.29,0.144361,611700,438710
1402.66,0.150548,614051,434167
1405.93,0.155364,616268,430929
1409.2,0.159948,617795,427461
1412.46,0.164833,618872,423417
1415.72,0.168472,619795,420510
1418.98,0.172158,620495,417427
1422.23,0.175529,621087,414594
1426.56,0.178901,621375,411579
1429.8,0.181742,621616,409054
1433.04,0.184202,622129,407079
1436.27,0.186660,621526,404389
1439.5,0.188353,621113,402548
1442.72,0.190846,620921,400120
1445.94,0.193479,620270,397285
1450.23,0.196696,618860,393456
1453.44,0.199510,617697,390180
1456.64,0.201532,616264,387467
1459.85,0.205242,614413,383017
1463.04,0.207992,612307,379295
1466.24,0.211515,610032,374833
1469.43,0.214855,607345,370323
1473.67,0.221536,603789,362534
1476.85,0.226375,601175,356965
1480.02,0.232807,597737,349706
1483.19,0.239596,594479,342405
1486.36,0.244524,591232,336693
1489.52,0.249634,587853,330853
1492.68,0.253178,583875,325943
1496.89,0.255172,578062,321220
1500.03,0.255995,574159,318447
1503.18,0.255405,570285,316728
1506.32,0.255250,565444,314152
1509.45,0.253853,560571,312448
1512.58,0.252031,555821,311103
1515.71,0.250093,550344,309415
1519.87,0.247425,543983,307723
1522.99,0.244761,538764,306646
1526.1,0.241491,533692,306055
1529.21,0.239166,527902,304360
1532.32,0.235848,521886,303199
1535.42,0.233608,515888,301264
1538.51,0.230108,509987,300228
1541.6,0.226903,503936,298863
1545.72,0.223237,494694,295869
1548.8,0.220424,488378,293990
1551.88,0.218157,481832,291567
1554.95,0.216690,474989,288399
1558.02,0.214679,467818,285363
1561.08,0.213053,460730,282094
1564.15,0.213163,454170,278007
1568.22,0.212233,444181,272475
1571.27,0.211341,436947,268589
1574.32,0.211046,429598,264251
1577.36,0.209438,422039,260564
1580.4,0.208259,414375,256528
1583.43,0.207640,406354,251921
1586.46,0.205424,398475,248300
1590.49,0.202707,388982,243906
1593.51,0.201203,380708,239546
1596.53,0.198755,372727,235850
1599.54,0.196852,365060,232013
1602.55,0.195780,357543,227797
1605.55,0.193948,349495,223611
1608.55,0.191963,341154,219274
1612.54,0.190419,330877,213426
1615.53,0.188006,322904,209444
1618.51,0.187851,315116,204465
1621.49,0.185968,307217,200206
1624.47,0.184288,299481,195921
1627.44,0.183805,292112,191313
1630.41,0.182744,284245,186616
1634.36,0.181769,274079,180346
1637.32,0.182620,266916,175289
1640.27,0.181052,259612,171109
1643.22,0.179390,251804,166599
1646.16,0.178164,244348,162123
1649.1,0.178033,236703,157098
1652.04,0.175079,228171,152469
1655.95,0.172916,215408,144659
1658.88,0.168143,204937,139148
1661.8,0.163692,193395,132664
1664.72,0.155598,179728,125608
1667.63,0.145275,163642,117117
1670.54,0.130219,146312,108408
1673.44,0.113805,128451,98840
1677.31,0.092889,105080,84846
1680.21,0.080834,88906,73807
1683.1,0.078546,75033,62619
1685.99,0.079373,63520,52910
1688.87,0.076595,53714,45029
1691.75,0.082921,45653,37718
1694.62,0.087926,39137,31964
1697.49,0.090430,33776,27427
1701.31,0.105963,28175,22075