File: samples/wool/wool-000811/Column 1_050610_20150331_122817.csv
Method:,Column 1,,
Host Date-Time:,31/3/15 @ 12:28:17,,
Header Version:,1,,
System Temp (C):,34.07,,
Detector Temp (C):,34.9,,
Humidity (%):,1.66,,
Lamp PD:,3818,,
Shift Vector Coefficients:,-10.5391,0.0761263,-0.000134223,,
Pixel to Wavelength Coefficients:,1775.68,-0.916766,-0.000235065,,
Serial Number:,5510004,,
Scan Config Name:,Column 1,,
Scan Config Type:,Slew,,
Section 1,,
Start wavelength (nm):,900,,
End wavelength (nm):,1700,,
Pattern Pixel Width (nm):,   7.03,,,,
Exposure (ms):,  0.635,,,,
Digital Resolution:,228,,
Num Repeats:,6,,
PGA Gain:,64,,
Total Measurement Time in sec:,  2.673,,
Wavelength (nm),Absorbance (AU),Reference Signal (unitless),Sample Signal (unitless)
901.51,0.069078,108485,92532
905.376,0.074096,121306,102279
909.237,0.077923,131909,110243
913.095,0.076772,143299,120080
916.948,0.076957,156982,131490
922.079,0.080471,179937,149503
925.923,0.080847,200504,166447
929.762,0.082600,222660,184095
933.597,0.081740,244426,202492
937.427,0.080517,263972,219301
941.254,0.080099,281845,234375
945.076,0.078937,297271,247865
950.165,0.077716,315605,263893
953.978,0.077367,328029,274502
957.786,0.077856,340470,284592
961.59,0.077834,352317,294510
965.389,0.077121,363056,303985
969.185,0.077920,373162,311873
972.976,0.077910,382632,319795
976.763,0.078884,391202,326225
981.806,0.078301,400190,334168
985.583,0.079720,406088,337987
989.355,0.079922,410162,341219
993.124,0.080079,412868,343346
996.888,0.080711,414263,344005
1000.65,0.081386,415476,344477
1004.4,0.082226,415479,343814
1009.41,0.083620,414358,341787
1013.15,0.084107,412923,340222
1016.89,0.084497,411526,338766
1020.63,0.084513,409066,336729
1024.36,0.084509,406777,334848
1028.09,0.084412,404427,332988
1031.82,0.084088,401911,331163
1036.78,0.083784,398410,328508
1040.49,0.083776,396204,326695
1044.2,0.083360,394236,325384
1047.91,0.083256,392042,323651
1051.61,0.083272,389823,321807
1055.31,0.082463,388234,321093
1059,0.082418,387599,320601
1063.92,0.081420,386688,320583
1067.61,0.080492,386598,321194
1071.29,0.080735,387377,321661
1074.96,0.079573,388536,323488
1078.63,0.079492,389855,324647
1082.3,0.078639,391215,326420
1085.96,0.077544,393215,328917
1090.84,0.076669,396270,332141
1094.49,0.076296,398760,334515
1098.14,0.075500,400987,337000
1101.79,0.075161,403477,339358
1105.43,0.075195,406116,341551
1109.06,0.074006,407701,343824
1112.7,0.073492,409859,346053
1117.53,0.073079,412494,348609
1121.15,0.074009,414909,349900
1124.77,0.073920,416559,351363
1128.38,0.074687,418532,352405
1131.99,0.076283,419956,352307
1135.6,0.077257,421946,353183
1139.2,0.078632,423881,353681
1143.99,0.081139,426786,354055
1147.58,0.081676,428617,355135
1151.17,0.082833,431169,356299
1154.75,0.083572,433579,357681
1158.33,0.084702,436264,358961
1161.91,0.085850,439132,360367
1165.48,0.088312,442389,360988
1169.04,0.090738,446101,361989
1173.79,0.094188,451929,363816
1177.34,0.095320,456026,366159
1180.9,0.098341,461306,367831
1184.44,0.099848,467657,371603
1187.99,0.100588,473969,375978
1191.52,0.100966,479856,380316
1195.06,0.100571,487372,386625
1199.76,0.100154,497347,394917
1203.29,0.099790,504311,400782
1206.81,0.098970,511507,407269
1210.33,0.098538,519078,413709
1213.84,0.097903,527163,420767
1217.35,0.097390,534208,426894
1220.85,0.096406,540472,432880
1225.51,0.095645,549929,441227
1229.01,0.095392,556888,447070
1232.5,0.094675,562180,452064
1235.98,0.094249,567975,457173
1239.46,0.093146,574815,463855
1242.94,0.092318,582782,471181
1246.41,0.091856,591476,478720
1251.03,0.091443,604016,489334
1254.5,0.091904,612289,495510
1257.96,0.092320,619125,500562
1261.41,0.092987,624551,504174
1264.86,0.093128,629900,508328
1268.31,0.093850,634345,511064
1271.75,0.094002,638574,514291
1276.33,0.094495,642499,516865
1279.76,0.094672,645905,519394
1283.19,0.093797,648307,522376
1286.61,0.093631,650446,524301
1290.03,0.093096,652132,526307
1293.44,0.092700,653907,528221
1296.85,0.092721,655963,529857
1301.39,0.092535,657349,531203
1304.8,0.091783,657558,532293
1308.19,0.092446,658515,532255
1311.58,0.092668,658804,532216
1314.97,0.092580,659011,532492
1318.36,0.093227,658272,531103
1321.73,0.093214,658022,530917
1326.23,0.094438,657870,529300
1329.6,0.095420,656482,526991
1332.97,0.096078,654926,524945
1336.33,0.096950,653727,522933
1339.69,0.098430,652497,520174
1343.04,0.099691,649913,516612
1346.39,0.101803,647671,512332
1349.73,0.103964,645338,507953
1354.18,0.106560,641175,501668
1357.52,0.108737,638376,496981
1360.85,0.110229,635805,493282
1364.17,0.112009,633413,489416
1367.49,0.114779,631026,484471
1370.81,0.117003,628050,479724
1374.12,0.118888,625034,475352
1378.54,0.121150,620272,469280
1381.84,0.124662,616892,462964
1385.14,0.127694,613613,457299
1388.43,0.131058,611526,452227
1391.72,0.135059,610663,447448
1395.01,0.139260,610634,443120
1398.29,0.144000,611700,439075
1402.66,0.149810,614051,434905
1405.93,0.154954,616268,431336
1409.2,0.159523,617795,427879
1412.46,0.163660,618872,424562
1415.72,0.168392,619795,420587
1418.98,0.171683,620495,417884
1422.23,0.174998,621087,415102
1426.56,0.178680,621375,411788
1429.8,0.180712,621616,410025
1433.04,0.183236,622129,407985
1436.27,0.185559,621526,405415
1439.5,0.187867,621113,402999
1442.72,0.189866,620921,401024
1445.94,0.192198,620270,398458
1450.23,0.195826,618860,394245
1453.44,0.198700,617697,390909
1456.64,0.201479,616264,387514
1459.85,0.204690,614413,383504
1463.04,0.207540,612307,379690
1466.24,0.210821,610032,375432
1469.43,0.214610,607345,370532
1473.67,0.220773,603789,363172
1476.85,0.226497,601175,356865
1480.02,0.232564,597737,349902
1483.19,0.239107,594479,342791
1486.36,0.244787,591232,336489
1489.52,0.249758,587853,330758
1492.68,0.253213,583875,325917
1496.89,0.255026,578062,321328
1500.03,0.255808,574159,318584
1503.18,0.255691,570285,316520
1506.32,0.254453,565444,314729
1509.45,0.253041,560571,313033
1512.58,0.251838,555821,311241
1515.71,0.249898,550344,309554
1519.87,0.246268,543983,308544
1522.99,0.243760,538764,307354
1526.1,0.241742,533692,305878
1529.21,0.238474,527902,304845
1532.32,0.235504,521886,303439
1535.42,0.233003,515888,301684
1538.51,0.230109,509987,300227
1541.6,0.226996,503936,298799
1545.72,0.222519,494694,296359
1548.8,0.219966,488378,294300
1551.88,0.217572,481832,291960
1554.95,0.216002,474989,288856
1558.02,0.213893,467818,285880
1561.08,0.213274,460730,281950
1564.15,0.212513,454170,278423
1568.22,0.211413,444181,272990
1571.27,0.210961,436947,268824
1574.32,0.209948,429598,264920
1577.36,0.209313,422039,260639
1580.4,0.207585,414375,256926
1583.43,0.206153,406354,252785
1586.46,0.204750,398475,248686
1590.49,0.202992,388982,243746
1593.51,0.201020,380708,239647
1596.53,0.198845,372727,235801
1599.54,0.197200,365060,231827
1602.55,0.195131,357543,228138
1605.55,0.193175,349495,224009
1608.55,0.191170,341154,219675
1612.54,0.189925,330877,213669
1615.53,0.188551,322904,209181
1618.51,0.187399,315116,204678
1621.49,0.185617,307217,200368
1624.47,0.184200,299481,195961
1627.44,0.184541,292112,190989
1630.41,0.183373,284245,186346
1634.36,0.181370,274079,180512
1637.32,0.180581,266916,176114
1640.27,0.180694,259612,171250
1643.22,0.180202,251804,166288
1646.16,0.178405,244348,162033
1649.1,0.177111,236703,157432
1652.04,0.175854,228171,152197
1655.95,0.172379,215408,144838
1658.88,0.169744,204937,138636
1661.8,0.163790,193395,132634
1664.72,0.157098,179728,125175
1667.63,0.143864,163642,117498
1670.54,0.127853,146312,109000
1673.44,0.113682,128451,98868
1677.31,0.092633,105080,84896
1680.21,0.082449,88906,73533
1683.1,0.076643,75033,62894
1685.99,0.073381,63520,53645
1688.87,0.080305,53714,44646
1691.75,0.078886,45653,38070
1694.62,0.085988,39137,32107
1697.49,0.093353,33776,27243
1701.31,0.099345,28175,22414