File: samples/wool/wool-000811/Column 1_050536_20150331_115310.csv
Method:,Column 1,,
Host Date-Time:,31/3/15 @ 11:53:10,,
Header Version:,1,,
System Temp (C):,31.49,,
Detector Temp (C):,30.16,,
Humidity (%):,3.71,,
Lamp PD:,3827,,
Shift Vector Coefficients:,-10.5391,0.0761263,-0.000134223,,
Pixel to Wavelength Coefficients:,1775.68,-0.916766,-0.000235065,,
Serial Number:,5510004,,
Scan Config Name:,Column 1,,
Scan Config Type:,Slew,,
Section 1,,
Start wavelength (nm):,900,,
End wavelength (nm):,1700,,
Pattern Pixel Width (nm):,   7.03,,,,
Exposure (ms):,  0.635,,,,
Digital Resolution:,228,,
Num Repeats:,6,,
PGA Gain:,64,,
Total Measurement Time in sec:,  2.678,,
Wavelength (nm),Absorbance (AU),Reference Signal (unitless),Sample Signal (unitless)
901.51,0.043466,108485,98153
905.376,0.049567,121306,108222
909.237,0.049332,131909,117745
913.095,0.049947,143299,127731
916.948,0.049750,156982,139991
922.079,0.048964,179937,160752
925.923,0.050456,200504,178512
929.762,0.050335,222660,198293
933.597,0.052489,244426,216600
937.427,0.050586,263972,234948
941.254,0.051286,281845,250452
945.076,0.052428,297271,263466
950.165,0.052129,315605,279908
953.978,0.051980,328029,291026
957.786,0.053016,340470,301344
961.59,0.053218,352317,311685
965.389,0.053853,363056,320716
969.185,0.054095,373162,329460
972.976,0.054228,382632,337717
976.763,0.055313,391202,344420
981.806,0.056149,400190,351655
985.583,0.056875,406088,356242
989.355,0.057391,410162,359389
993.124,0.057606,412868,361581
996.888,0.058673,414263,361912
1000.65,0.059089,415476,362624
1004.4,0.060847,415479,361162
1009.41,0.061933,414358,359288
1013.15,0.062361,412923,357691
1016.89,0.062527,411526,356345
1020.63,0.062506,409066,354232
1024.36,0.062583,406777,352187
1028.09,0.061861,404427,350735
1031.82,0.061971,401911,348465
1036.78,0.061491,398410,345811
1040.49,0.060837,396204,344415
1044.2,0.060329,394236,343105
1047.91,0.060064,392042,341404
1051.61,0.059092,389823,340232
1055.31,0.058088,388234,339630
1059,0.057503,387599,339531
1063.92,0.056424,386688,339576
1067.61,0.055496,386598,340223
1071.29,0.055172,387377,341163
1074.96,0.054634,388536,342608
1078.63,0.053405,389855,344745
1082.3,0.052483,391215,346683
1085.96,0.052309,393215,348595
1090.84,0.051265,396270,352149
1094.49,0.050559,398760,354938
1098.14,0.050291,400987,357141
1101.79,0.050000,403477,359599
1105.43,0.049826,406116,362096
1109.06,0.049835,407701,363502
1112.7,0.049840,409859,365422
1117.53,0.049552,412494,368015
1121.15,0.050510,414909,369354
1124.77,0.050792,416559,370582
1128.38,0.052453,418532,370916
1131.99,0.054132,419956,370742
1135.6,0.056292,421946,370651
1139.2,0.058175,423881,370740
1143.99,0.061402,426786,370517
1147.58,0.062584,428617,371095
1151.17,0.063626,431169,372410
1154.75,0.064878,433579,373414
1158.33,0.067277,436264,373656
1161.91,0.070289,439132,373513
1165.48,0.073106,442389,373851
1169.04,0.076354,446101,374179
1173.79,0.079748,451929,376116
1177.34,0.082699,456026,376956
1180.9,0.085098,461306,379220
1184.44,0.087189,467657,382594
1187.99,0.087916,473969,387110
1191.52,0.087593,479856,392209
1195.06,0.086669,487372,399201
1199.76,0.085817,497347,408171
1203.29,0.084165,504311,415464
1206.81,0.082798,511507,422721
1210.33,0.081953,519078,429813
1213.84,0.080624,527163,437846
1217.35,0.079348,534208,445002
1220.85,0.078043,540472,451575
1225.51,0.076792,549929,460802
1229.01,0.076149,556888,467325
1232.5,0.075345,562180,472640
1235.98,0.074904,567975,477997
1239.46,0.073294,574815,485550
1242.94,0.072347,582782,493355
1246.41,0.071413,591476,501792
1251.03,0.071083,604016,512820
1254.5,0.071359,612289,519514
1257.96,0.071549,619125,525085
1261.41,0.072162,624551,528939
1264.86,0.072793,629900,532695
1268.31,0.073547,634345,535523
1271.75,0.073986,638574,538549
1276.33,0.074266,642499,541510
1279.76,0.074450,645905,544150
1283.19,0.073851,648307,546927
1286.61,0.073477,650446,549205
1290.03,0.073026,652132,551200
1293.44,0.072632,653907,553202
1296.85,0.072413,655963,555222
1301.39,0.072149,657349,556733
1304.8,0.072132,657558,556932
1308.19,0.072420,658515,557373
1311.58,0.073117,658804,556723
1314.97,0.073280,659011,556689
1318.36,0.073913,658272,555255
1321.73,0.074315,658022,554531
1326.23,0.075559,657870,552817
1329.6,0.076570,656482,550368
1332.97,0.077751,654926,547572
1336.33,0.079190,653727,544761
1339.69,0.081070,652497,541388
1343.04,0.083249,649913,536545
1346.39,0.085824,647671,531533
1349.73,0.087926,645338,527062
1354.18,0.091757,641175,519062
1357.52,0.093891,638376,514263
1360.85,0.096855,635805,508708
1364.17,0.098477,633413,504905
1367.49,0.101414,631026,499612
1370.81,0.104419,628050,493828
1374.12,0.107471,625034,488014
1378.54,0.111099,620272,480268
1381.84,0.115477,616892,472860
1385.14,0.120115,613613,465350
1388.43,0.125257,611526,458308
1391.72,0.131160,610663,451483
1395.01,0.137303,610634,445121
1398.29,0.143901,611700,439175
1402.66,0.152302,614051,432417
1405.93,0.160136,616268,426220
1409.2,0.166881,617795,420691
1412.46,0.172740,618872,415777
1415.72,0.178219,619795,411177
1418.98,0.183197,620495,406950
1422.23,0.187482,621087,403339
1426.56,0.192309,621375,399066
1429.8,0.195694,621616,396121
1433.04,0.198652,622129,393757
1436.27,0.201023,621526,391234
1439.5,0.203667,621113,388601
1442.72,0.206342,620921,386095
1445.94,0.208942,620270,383388
1450.23,0.212466,618860,379425
1453.44,0.215643,617697,375952
1456.64,0.218898,616264,372279
1459.85,0.220773,614413,369562
1463.04,0.223566,612307,365934
1466.24,0.226730,610032,361928
1469.43,0.229369,607345,358151
1473.67,0.234468,603789,351898
1476.85,0.239053,601175,346695
1480.02,0.243635,597737,341095
1483.19,0.250260,594479,334100
1486.36,0.256195,591232,327765
1489.52,0.260946,587853,322346
1492.68,0.264755,583875,317369
1496.89,0.267551,578062,312193
1500.03,0.268447,574159,309446
1503.18,0.268548,570285,307287
1506.32,0.267279,565444,305570
1509.45,0.266947,560571,303168
1512.58,0.265829,555821,301374
1515.71,0.262942,550344,300395
1519.87,0.260104,543983,298869
1522.99,0.257200,538764,297988
1526.1,0.255408,533692,296403
1529.21,0.251924,527902,295549
1532.32,0.248364,521886,294586
1535.42,0.245260,515888,293289
1538.51,0.241439,509987,292496
1541.6,0.238762,503936,290813
1545.72,0.233770,494694,288780
1548.8,0.230301,488378,287379
1551.88,0.227885,481832,285109
1554.95,0.225564,474989,282566
1558.02,0.223245,467818,279790
1561.08,0.221960,460730,276367
1564.15,0.221013,454170,273027
1568.22,0.220218,444181,267511
1571.27,0.219747,436947,263440
1574.32,0.218079,429598,260006
1577.36,0.215920,422039,256704
1580.4,0.214821,414375,252681
1583.43,0.212724,406354,248989
1586.46,0.211063,398475,245097
1590.49,0.207637,388982,241153
1593.51,0.205759,380708,237046
1596.53,0.204423,372727,232792
1599.54,0.201733,365060,229420
1602.55,0.198502,357543,226374
1605.55,0.196679,349495,222209
1608.55,0.193970,341154,218263
1612.54,0.191895,330877,212702
1615.53,0.189305,322904,208818
1618.51,0.186924,315116,204902
1621.49,0.185775,307217,200295
1624.47,0.185745,299481,195265
1627.44,0.183696,292112,191361
1630.41,0.181814,284245,187016
1634.36,0.179955,274079,181101
1637.32,0.179254,266916,176653
1640.27,0.177936,259612,172341
1643.22,0.175756,251804,167999
1646.16,0.176101,244348,162895
1649.1,0.176430,236703,157679
1652.04,0.175048,228171,152480
1655.95,0.173821,215408,144358
1658.88,0.171738,204937,138001
1661.8,0.170831,193395,130501
1664.72,0.169172,179728,121743
1667.63,0.166394,163642,111558
1670.54,0.162604,146312,100618
1673.44,0.160413,128451,88782
1677.31,0.158275,105080,72987
1680.21,0.157605,88906,61848
1683.1,0.160763,75033,51819
1685.99,0.167256,63520,43217
1688.87,0.174534,53714,35938
1691.75,0.176996,45653,30372
1694.62,0.177481,39137,26008
1697.49,0.185870,33776,22016
1701.31,0.196817,28175,17908