File: samples/wool/wool-000811/Column 1_050584_20150331_121611.csv
Method:,Column 1,,
Host Date-Time:,31/3/15 @ 12:16:11,,
Header Version:,1,,
System Temp (C):,33.76,,
Detector Temp (C):,34.52,,
Humidity (%):,1.86,,
Lamp PD:,3819,,
Shift Vector Coefficients:,-10.5391,0.0761263,-0.000134223,,
Pixel to Wavelength Coefficients:,1775.68,-0.916766,-0.000235065,,
Serial Number:,5510004,,
Scan Config Name:,Column 1,,
Scan Config Type:,Slew,,
Section 1,,
Start wavelength (nm):,900,,
End wavelength (nm):,1700,,
Pattern Pixel Width (nm):,   7.03,,,,
Exposure (ms):,  0.635,,,,
Digital Resolution:,228,,
Num Repeats:,6,,
PGA Gain:,64,,
Total Measurement Time in sec:,  2.733,,
Wavelength (nm),Absorbance (AU),Reference Signal (unitless),Sample Signal (unitless)
901.51,0.069745,108485,92390
905.376,0.075670,121306,101909
909.237,0.078582,131909,110076
913.095,0.078476,143299,119610
916.948,0.080359,156982,130464
922.079,0.081585,179937,149120
925.923,0.083225,200504,165538
929.762,0.083590,222660,183676
933.597,0.082975,244426,201917
937.427,0.081985,263972,218561
941.254,0.081274,281845,233742
945.076,0.080985,297271,246699
950.165,0.080692,315605,262091
953.978,0.079603,328029,273092
957.786,0.078894,340470,283913
961.59,0.079536,352317,293358
965.389,0.079514,363056,302315
969.185,0.080536,373162,310000
972.976,0.080270,382632,318062
976.763,0.080828,391202,324768
981.806,0.081361,400190,331822
985.583,0.082010,406088,336210
989.355,0.082329,410162,339333
993.124,0.082886,412868,341134
996.888,0.083330,414263,341937
1000.65,0.083766,415476,342594
1004.4,0.084254,415479,342212
1009.41,0.086459,414358,339560
1013.15,0.086418,412923,338416
1016.89,0.087130,411526,336719
1020.63,0.086711,409066,335029
1024.36,0.086990,406777,332940
1028.09,0.086733,404427,331213
1031.82,0.086945,401911,328992
1036.78,0.085913,398410,326902
1040.49,0.086641,396204,324547
1044.2,0.086304,394236,323186
1047.91,0.085671,392042,321856
1051.61,0.085483,389823,320173
1055.31,0.085504,388234,318852
1059,0.085005,387599,318697
1063.92,0.084079,386688,318626
1067.61,0.082817,386598,319479
1071.29,0.082672,387377,320230
1074.96,0.082442,388536,321358
1078.63,0.081558,389855,323106
1082.3,0.080921,391215,324709
1085.96,0.080149,393215,326950
1090.84,0.079459,396270,330014
1094.49,0.078957,398760,332472
1098.14,0.078069,400987,335013
1101.79,0.077766,403477,337328
1105.43,0.077574,406116,339685
1109.06,0.076368,407701,341959
1112.7,0.076767,409859,343453
1117.53,0.076846,412494,345598
1121.15,0.075896,414909,348383
1124.77,0.077064,416559,348829
1128.38,0.077612,418532,350039
1131.99,0.078519,419956,350497
1135.6,0.080456,421946,350591
1139.2,0.081544,423881,351318
1143.99,0.083993,426786,351736
1147.58,0.084036,428617,353210
1151.17,0.085439,431169,354167
1154.75,0.086365,433579,355388
1158.33,0.088063,436264,356194
1161.91,0.089978,439132,356958
1165.48,0.091627,442389,358243
1169.04,0.094148,446101,359158
1173.79,0.097386,451929,361147
1177.34,0.099383,456026,362749
1180.9,0.101483,461306,365179
1184.44,0.103144,467657,368794
1187.99,0.104139,473969,372916
1191.52,0.104422,479856,377302
1195.06,0.104300,487372,383319
1199.76,0.103853,497347,391567
1203.29,0.102874,504311,397946
1206.81,0.102290,511507,404168
1210.33,0.101735,519078,410674
1213.84,0.101635,527163,417167
1217.35,0.100284,534208,424059
1220.85,0.099608,540472,429700
1225.51,0.099146,549929,437684
1229.01,0.098926,556888,443447
1232.5,0.098076,562180,448538
1235.98,0.097439,567975,453827
1239.46,0.096257,574815,460544
1242.94,0.095495,582782,467747
1246.41,0.095045,591476,475217
1251.03,0.094876,604016,485481
1254.5,0.095018,612289,491970
1257.96,0.095744,619125,496632
1261.41,0.095707,624551,501027
1264.86,0.096208,629900,504735
1268.31,0.096874,634345,507518
1271.75,0.097771,638574,509847
1276.33,0.097585,642499,513201
1279.76,0.097814,645905,515650
1283.19,0.097216,648307,518280
1286.61,0.097261,650446,519936
1290.03,0.096381,652132,522341
1293.44,0.096282,653907,523883
1296.85,0.096098,655963,525752
1301.39,0.095789,657349,527238
1304.8,0.095747,657558,527457
1308.19,0.095928,658515,528005
1311.58,0.096222,658804,527879
1314.97,0.096755,659011,527397
1318.36,0.097051,658272,526447
1321.73,0.097350,658022,525884
1326.23,0.098263,657870,524659
1329.6,0.099547,656482,522006
1332.97,0.100294,654926,519874
1336.33,0.101358,653727,517653
1339.69,0.103060,652497,514658
1343.04,0.104472,649913,510956
1346.39,0.106886,647671,506371
1349.73,0.109016,645338,502078
1354.18,0.111495,641175,496000
1357.52,0.113665,638376,491373
1360.85,0.115759,635805,487040
1364.17,0.117461,633413,483310
1367.49,0.120083,631026,478591
1370.81,0.122223,628050,473992
1374.12,0.124078,625034,469706
1378.54,0.127222,620272,462765
1381.84,0.130515,616892,456766
1385.14,0.134263,613613,450434
1388.43,0.138182,611526,444870
1391.72,0.142990,610663,439351
1395.01,0.147895,610634,434396
1398.29,0.152690,611700,430376
1402.66,0.159743,614051,425071
1405.93,0.165863,616268,420636
1409.2,0.171399,617795,416337
1412.46,0.176144,618872,412531
1415.72,0.180273,619795,409237
1418.98,0.184363,620495,405859
1422.23,0.188241,621087,402635
1426.56,0.192331,621375,399046
1429.8,0.194789,621616,396948
1433.04,0.197727,622129,394597
1436.27,0.199560,621526,392554
1439.5,0.201397,621113,390637
1442.72,0.204569,620921,387675
1445.94,0.206431,620270,385611
1450.23,0.209588,618860,381948
1453.44,0.212034,617697,379089
1456.64,0.214986,616264,375648
1459.85,0.217832,614413,372073
1463.04,0.220255,612307,368735
1466.24,0.223537,610032,364599
1469.43,0.226522,607345,360507
1473.67,0.231812,603789,354057
1476.85,0.236710,601175,348571
1480.02,0.242389,597737,342075
1483.19,0.247645,594479,336118
1486.36,0.252625,591232,330471
1489.52,0.257300,587853,325064
1492.68,0.260694,583875,320351
1496.89,0.262536,578062,315819
1500.03,0.262782,574159,313509
1503.18,0.263122,570285,311150
1506.32,0.261638,565444,309565
1509.45,0.260159,560571,307944
1512.58,0.258891,555821,306227
1515.71,0.256688,550344,304752
1519.87,0.253656,543983,303340
1522.99,0.251256,538764,302094
1526.1,0.248838,533692,300921
1529.21,0.246769,527902,299078
1532.32,0.243639,521886,297808
1535.42,0.240231,515888,296705
1538.51,0.237861,509987,294916
1541.6,0.234986,503936,293352
1545.72,0.230265,494694,291120
1548.8,0.227492,488378,289244
1551.88,0.225226,481832,286860
1554.95,0.223189,474989,284115
1558.02,0.221590,467818,280858
1561.08,0.220879,460730,277056
1564.15,0.219450,454170,274011
1568.22,0.219020,444181,268250
1571.27,0.218435,436947,264237
1574.32,0.217585,429598,260302
1577.36,0.215930,422039,256698
1580.4,0.214897,414375,252637
1583.43,0.213218,406354,248706
1586.46,0.211739,398475,244716
1590.49,0.209716,388982,240001
1593.51,0.207461,380708,236119
1596.53,0.205746,372727,232084
1599.54,0.202899,365060,228805
1602.55,0.201559,357543,224786
1605.55,0.200592,349495,220216
1608.55,0.198121,341154,216187
1612.54,0.195837,330877,210780
1615.53,0.193899,322904,206621
1618.51,0.193773,315116,201696
1621.49,0.191540,307217,197654
1624.47,0.190952,299481,192938
1627.44,0.188973,292112,189050
1630.41,0.188219,284245,184278
1634.36,0.186854,274079,178247
1637.32,0.186382,266916,173777
1640.27,0.186374,259612,169025
1643.22,0.185888,251804,164125
1646.16,0.183769,244348,160044
1649.1,0.183284,236703,155210
1652.04,0.183210,228171,149641
1655.95,0.178911,215408,142676
1658.88,0.174149,204937,137237
1661.8,0.170778,193395,130517
1664.72,0.162917,179728,123509
1667.63,0.149871,163642,115884
1670.54,0.135880,146312,107004
1673.44,0.120214,128451,97392
1677.31,0.102992,105080,82895
1680.21,0.089246,88906,72391
1683.1,0.086540,75033,61477
1685.99,0.088287,63520,51835
1688.87,0.086191,53714,44045
1691.75,0.095265,45653,36661
1694.62,0.096683,39137,31326
1697.49,0.100879,33776,26775
1701.31,0.109618,28175,21890