File: samples/wool/wool-000811/Column 1_050555_20150331_120202.csv
Method:,Column 1,,
Host Date-Time:,31/3/15 @ 12:2:2,,
Header Version:,1,,
System Temp (C):,33.49,,
Detector Temp (C):,32.52,,
Humidity (%):,2.44,,
Lamp PD:,3820,,
Shift Vector Coefficients:,-10.5391,0.0761263,-0.000134223,,
Pixel to Wavelength Coefficients:,1775.68,-0.916766,-0.000235065,,
Serial Number:,5510004,,
Scan Config Name:,Column 1,,
Scan Config Type:,Slew,,
Section 1,,
Start wavelength (nm):,900,,
End wavelength (nm):,1700,,
Pattern Pixel Width (nm):,   7.03,,,,
Exposure (ms):,  0.635,,,,
Digital Resolution:,228,,
Num Repeats:,6,,
PGA Gain:,64,,
Total Measurement Time in sec:,  2.670,,
Wavelength (nm),Absorbance (AU),Reference Signal (unitless),Sample Signal (unitless)
901.51,0.033567,108485,100416
905.376,0.040783,121306,110433
909.237,0.041499,131909,119888
913.095,0.043136,143299,129750
916.948,0.042303,156982,142412
922.079,0.044596,179937,162377
925.923,0.045631,200504,180506
929.762,0.046328,222660,200131
933.597,0.046406,244426,219655
937.427,0.047218,263972,236777
941.254,0.046754,281845,253079
945.076,0.046921,297271,266828
950.165,0.046240,315605,283729
953.978,0.044681,328029,295959
957.786,0.046812,340470,305680
961.59,0.046520,352317,316529
965.389,0.046895,363056,325896
969.185,0.046586,373162,335206
972.976,0.047487,382632,343000
976.763,0.047887,391202,350360
981.806,0.048417,400190,357972
985.583,0.048991,406088,362768
989.355,0.049629,410162,365870
993.124,0.050153,412868,367839
996.888,0.050845,414263,368495
1000.65,0.051610,415476,368923
1004.4,0.052837,415479,367885
1009.41,0.054239,414358,365710
1013.15,0.054663,412923,364088
1016.89,0.055040,411526,362541
1020.63,0.054877,409066,360509
1024.36,0.054710,406777,358630
1028.09,0.055099,404427,356239
1031.82,0.054505,401911,354507
1036.78,0.053931,398410,351884
1040.49,0.054326,396204,349617
1044.2,0.053698,394236,348384
1047.91,0.053120,392042,346907
1051.61,0.052662,389823,345307
1055.31,0.051960,388234,344456
1059,0.052002,387599,343859
1063.92,0.050982,386688,343858
1067.61,0.049947,386598,344598
1071.29,0.048950,387377,346086
1074.96,0.048842,388536,347208
1078.63,0.047891,389855,349150
1082.3,0.047314,391215,350834
1085.96,0.046184,393215,353546
1090.84,0.045817,396270,356594
1094.49,0.045568,398760,359041
1098.14,0.045582,400987,361034
1101.79,0.045209,403477,363588
1105.43,0.045415,406116,365793
1109.06,0.044496,407701,367998
1112.7,0.044955,409859,369555
1117.53,0.044317,412494,372478
1121.15,0.044755,414909,374281
1124.77,0.045467,416559,375154
1128.38,0.047341,418532,375308
1131.99,0.048444,419956,375630
1135.6,0.050615,421946,375528
1139.2,0.052407,423881,375696
1143.99,0.054839,426786,376159
1147.58,0.055279,428617,377390
1151.17,0.057158,431169,377998
1154.75,0.057994,433579,379380
1158.33,0.059981,436264,379987
1161.91,0.062189,439132,380545
1165.48,0.064585,442389,381258
1169.04,0.066726,446101,382567
1173.79,0.070975,451929,383791
1177.34,0.073188,456026,385302
1180.9,0.075500,461306,387694
1184.44,0.077119,467657,391569
1187.99,0.078197,473969,395870
1191.52,0.078024,479856,400947
1195.06,0.077594,487372,407630
1199.76,0.076702,497347,416829
1203.29,0.076030,504311,423320
1206.81,0.075028,511507,430352
1210.33,0.074290,519078,437464
1213.84,0.073783,527163,444797
1217.35,0.072775,534208,451789
1220.85,0.072109,540472,457788
1225.51,0.070860,549929,467140
1229.01,0.070141,556888,473835
1232.5,0.069761,562180,478756
1235.98,0.069344,567975,484156
1239.46,0.068102,574815,491390
1242.94,0.067067,582782,499389
1246.41,0.066505,591476,507496
1251.03,0.066173,604016,518651
1254.5,0.066370,612289,525517
1257.96,0.067130,619125,530455
1261.41,0.067794,624551,534286
1264.86,0.068072,629900,538517
1268.31,0.068455,634345,541839
1271.75,0.069339,638574,544342
1276.33,0.069541,642499,547433
1279.76,0.069534,645905,550345
1283.19,0.069435,648307,552517
1286.61,0.068820,650446,555125
1290.03,0.068714,652132,556701
1293.44,0.067898,653907,559265
1296.85,0.067929,655963,560984
1301.39,0.067867,657349,562250
1304.8,0.067307,657558,563154
1308.19,0.068033,658515,563031
1311.58,0.068235,658804,563017
1314.97,0.068555,659011,562779
1318.36,0.069525,658272,560894
1321.73,0.069869,658022,560237
1326.23,0.071070,657870,558560
1329.6,0.072056,656482,556118
1332.97,0.072755,654926,553907
1336.33,0.073833,653727,551523
1339.69,0.075857,652497,547926
1343.04,0.078031,649913,543031
1346.39,0.080085,647671,538604
1349.73,0.082292,645338,533944
1354.18,0.085443,641175,526664
1357.52,0.087642,638376,521716
1360.85,0.089796,635805,517045
1364.17,0.092569,633413,511821
1367.49,0.094576,631026,507541
1370.81,0.097034,628050,502297
1374.12,0.099647,625034,496886
1378.54,0.103267,620272,489007
1381.84,0.106825,616892,482374
1385.14,0.110801,613613,475438
1388.43,0.115686,611526,468521
1391.72,0.120600,610663,462596
1395.01,0.126080,610634,456774
1398.29,0.132112,611700,451260
1402.66,0.139837,614051,445008
1405.93,0.146299,616268,440018
1409.2,0.152134,617795,435222
1412.46,0.157749,618872,430380
1415.72,0.162466,619795,426366
1418.98,0.166867,620495,422543
1422.23,0.170668,621087,419261
1426.56,0.175217,621375,415085
1429.8,0.178449,621616,412167
1433.04,0.181465,622129,409652
1436.27,0.183797,621526,407064
1439.5,0.185763,621113,404956
1442.72,0.187717,620921,403013
1445.94,0.190551,620270,399972
1450.23,0.194719,618860,395251
1453.44,0.197201,617697,392260
1456.64,0.200493,616264,388395
1459.85,0.203308,614413,384727
1463.04,0.205157,612307,381779
1466.24,0.208308,610032,377611
1469.43,0.211899,607345,372852
1473.67,0.217223,603789,366153
1476.85,0.222706,601175,359994
1480.02,0.228515,597737,353179
1483.19,0.234527,594479,346425
1486.36,0.240067,591232,340166
1489.52,0.244939,587853,334449
1492.68,0.248952,583875,329130
1496.89,0.251301,578062,324096
1500.03,0.251936,574159,321437
1503.18,0.251133,570285,319859
1506.32,0.250553,565444,317568
1509.45,0.249253,560571,315775
1512.58,0.248113,555821,313922
1515.71,0.245549,550344,312669
1519.87,0.241904,543983,311660
1522.99,0.239796,538764,310172
1526.1,0.236507,533692,309588
1529.21,0.234358,527902,307748
1532.32,0.231192,521886,306467
1535.42,0.227999,515888,305180
1538.51,0.224990,509987,303787
1541.6,0.222419,503936,301965
1545.72,0.217560,494694,299762
1548.8,0.214388,488378,298104
1551.88,0.211228,481832,296256
1554.95,0.209154,474989,293447
1558.02,0.207601,467818,290052
1561.08,0.206163,460730,286605
1564.15,0.205223,454170,283136
1568.22,0.204335,444181,277476
1571.27,0.203335,436947,273586
1574.32,0.201424,429598,270171
1577.36,0.201425,422039,265416
1580.4,0.199509,414375,261749
1583.43,0.198645,406354,257193
1586.46,0.195720,398475,253911
1590.49,0.194063,388982,248809
1593.51,0.191360,380708,245037
1596.53,0.189581,372727,240885
1599.54,0.187803,365060,236898
1602.55,0.185745,357543,233122
1605.55,0.182808,349495,229421
1608.55,0.179719,341154,225544
1612.54,0.177412,330877,219915
1615.53,0.176104,322904,215263
1618.51,0.175270,315116,210475
1621.49,0.173610,307217,205985
1624.47,0.173173,299481,201000
1627.44,0.172291,292112,196453
1630.41,0.170545,284245,191932
1634.36,0.168501,274079,185941
1637.32,0.167405,266916,181539
1640.27,0.167027,259612,176725
1643.22,0.166108,251804,171773
1646.16,0.165784,244348,166811
1649.1,0.164539,236703,162056
1652.04,0.163865,228171,156457
1655.95,0.160495,215408,148856
1658.88,0.158806,204937,142172
1661.8,0.154589,193395,135474
1664.72,0.148092,179728,127798
1667.63,0.140716,163642,118353
1670.54,0.132440,146312,107855
1673.44,0.120933,128451,97231
1677.31,0.107314,105080,82074
1680.21,0.104025,88906,69969
1683.1,0.105012,75033,58917
1685.99,0.108858,63520,49437
1688.87,0.113812,53714,41331
1691.75,0.117765,45653,34810
1694.62,0.124639,39137,29373
1697.49,0.132705,33776,24883
1701.31,0.133873,28175,20701