File: samples/wool/wool-000811/Column 1_050608_20150331_122732.csv
Method:,Column 1,,
Host Date-Time:,31/3/15 @ 12:27:32,,
Header Version:,1,,
System Temp (C):,34.06,,
Detector Temp (C):,34.85,,
Humidity (%):,1.66,,
Lamp PD:,3818,,
Shift Vector Coefficients:,-10.5391,0.0761263,-0.000134223,,
Pixel to Wavelength Coefficients:,1775.68,-0.916766,-0.000235065,,
Serial Number:,5510004,,
Scan Config Name:,Column 1,,
Scan Config Type:,Slew,,
Section 1,,
Start wavelength (nm):,900,,
End wavelength (nm):,1700,,
Pattern Pixel Width (nm):,   7.03,,,,
Exposure (ms):,  0.635,,,,
Digital Resolution:,228,,
Num Repeats:,6,,
PGA Gain:,64,,
Total Measurement Time in sec:,  2.673,,
Wavelength (nm),Absorbance (AU),Reference Signal (unitless),Sample Signal (unitless)
901.51,0.067967,108485,92769
905.376,0.073091,121306,102516
909.237,0.076033,131909,110724
913.095,0.076798,143299,120073
916.948,0.077109,156982,131444
922.079,0.079284,179937,149912
925.923,0.080771,200504,166476
929.762,0.080957,222660,184793
933.597,0.081870,244426,202431
937.427,0.079305,263972,219914
941.254,0.079799,281845,234537
945.076,0.079239,297271,247693
950.165,0.077732,315605,263883
953.978,0.076738,328029,274900
957.786,0.077152,340470,285054
961.59,0.077459,352317,294764
965.389,0.076706,363056,304276
969.185,0.077424,373162,312229
972.976,0.077338,382632,320216
976.763,0.078183,391202,326752
981.806,0.078236,400190,334218
985.583,0.078992,406088,338554
989.355,0.079286,410162,341719
993.124,0.080062,412868,343360
996.888,0.079948,414263,344610
1000.65,0.080923,415476,344844
1004.4,0.082167,415479,343860
1009.41,0.083271,414358,342062
1013.15,0.083231,412923,340909
1016.89,0.084192,411526,339004
1020.63,0.084543,409066,336706
1024.36,0.084332,406777,334984
1028.09,0.083898,404427,333382
1031.82,0.083666,401911,331485
1036.78,0.083589,398410,328656
1040.49,0.083706,396204,326748
1044.2,0.083547,394236,325244
1047.91,0.083258,392042,323649
1051.61,0.082720,389823,322216
1055.31,0.082046,388234,321401
1059,0.081573,387599,321225
1063.92,0.081109,386688,320813
1067.61,0.080445,386598,321229
1071.29,0.080476,387377,321853
1074.96,0.079232,388536,323742
1078.63,0.079125,389855,324921
1082.3,0.077631,391215,327178
1085.96,0.077366,393215,329052
1090.84,0.076467,396270,332295
1094.49,0.076321,398760,334496
1098.14,0.074831,400987,337520
1101.79,0.075130,403477,339382
1105.43,0.074840,406116,341830
1109.06,0.073246,407701,344426
1112.7,0.073274,409859,346227
1117.53,0.072978,412494,348690
1121.15,0.073243,414909,350518
1124.77,0.073567,416559,351649
1128.38,0.074943,418532,352197
1131.99,0.076096,419956,352458
1135.6,0.076781,421946,353570
1139.2,0.078357,423881,353905
1143.99,0.080203,426786,354819
1147.58,0.081270,428617,355467
1151.17,0.082117,431169,356887
1154.75,0.083149,433579,358030
1158.33,0.083986,436264,359553
1161.91,0.086369,439132,359937
1165.48,0.087903,442389,361328
1169.04,0.090401,446101,362270
1173.79,0.093802,451929,364140
1177.34,0.095929,456026,365646
1180.9,0.098035,461306,368090
1184.44,0.100069,467657,371414
1187.99,0.100539,473969,376020
1191.52,0.100897,479856,380377
1195.06,0.100832,487372,386392
1199.76,0.100305,497347,394779
1203.29,0.099391,504311,401151
1206.81,0.098890,511507,407344
1210.33,0.097936,519078,414283
1213.84,0.097809,527163,420858
1217.35,0.097169,534208,427112
1220.85,0.096719,540472,432568
1225.51,0.095567,549929,441306
1229.01,0.095299,556888,447166
1232.5,0.094810,562180,451924
1235.98,0.093892,567975,457549
1239.46,0.093165,574815,463835
1242.94,0.091787,582782,471758
1246.41,0.091257,591476,479380
1251.03,0.091236,604016,489567
1254.5,0.091387,612289,496100
1257.96,0.091879,619125,501071
1261.41,0.092375,624551,504885
1264.86,0.093185,629900,508261
1268.31,0.093442,634345,511545
1271.75,0.093968,638574,514332
1276.33,0.094418,642499,516957
1279.76,0.094087,645905,520094
1283.19,0.093506,648307,522727
1286.61,0.093533,650446,524419
1290.03,0.092995,652132,526430
1293.44,0.092787,653907,528116
1296.85,0.091881,655963,530883
1301.39,0.092177,657349,531642
1304.8,0.091805,657558,532267
1308.19,0.091882,658515,532946
1311.58,0.092089,658804,532926
1314.97,0.092877,659011,532128
1318.36,0.092851,658272,531563
1321.73,0.093229,658022,530899
1326.23,0.094257,657870,529521
1329.6,0.095013,656482,527485
1332.97,0.095477,654926,525672
1336.33,0.096962,653727,522919
1339.69,0.098370,652497,520246
1343.04,0.099718,649913,516580
1346.39,0.101389,647671,512820
1349.73,0.103509,645338,508485
1354.18,0.106237,641175,502041
1357.52,0.108289,638376,497494
1360.85,0.109941,635805,493609
1364.17,0.112423,633413,488949
1367.49,0.114871,631026,484369
1370.81,0.116996,628050,479731
1374.12,0.118703,625034,475555
1378.54,0.121468,620272,468937
1381.84,0.124472,616892,463167
1385.14,0.127685,613613,457309
1388.43,0.131212,611526,452067
1391.72,0.135136,610663,447369
1395.01,0.139463,610634,442913
1398.29,0.144022,611700,439053
1402.66,0.150187,614051,434528
1405.93,0.154963,616268,431327
1409.2,0.159957,617795,427452
1412.46,0.164109,618872,424123
1415.72,0.168682,619795,420306
1418.98,0.171593,620495,417970
1422.23,0.174769,621087,415321
1426.56,0.178088,621375,412350
1429.8,0.181054,621616,409702
1433.04,0.183930,622129,407334
1436.27,0.185495,621526,405475
1439.5,0.187415,621113,403418
1442.72,0.190360,620921,400568
1445.94,0.192959,620270,397761
1450.23,0.196320,618860,393797
1453.44,0.198719,617697,390892
1456.64,0.201864,616264,387171
1459.85,0.204226,614413,383914
1463.04,0.207541,612307,379689
1466.24,0.210373,610032,375820
1469.43,0.214455,607345,370664
1473.67,0.220597,603789,363319
1476.85,0.226396,601175,356948
1480.02,0.231873,597737,350459
1483.19,0.238588,594479,343201
1486.36,0.244871,591232,336424
1489.52,0.249121,587853,331244
1492.68,0.252624,583875,326359
1496.89,0.254487,578062,321727
1500.03,0.255483,574159,318823
1503.18,0.255299,570285,316806
1506.32,0.254830,565444,314456
1509.45,0.253333,560571,312822
1512.58,0.250650,555821,312094
1515.71,0.248829,550344,310317
1519.87,0.246315,543983,308511
1522.99,0.244013,538764,307175
1526.1,0.241301,533692,306189
1529.21,0.238541,527902,304798
1532.32,0.235175,521886,303669
1535.42,0.232534,515888,302010
1538.51,0.229790,509987,300448
1541.6,0.227206,503936,298655
1545.72,0.222425,494694,296423
1548.8,0.219746,488378,294449
1551.88,0.217681,481832,291887
1554.95,0.215846,474989,288960
1558.02,0.214037,467818,285785
1561.08,0.212756,460730,282287
1564.15,0.212534,454170,278410
1568.22,0.211669,444181,272829
1571.27,0.210880,436947,268874
1574.32,0.210116,429598,264817
1577.36,0.208057,422039,261394
1580.4,0.207952,414375,256709
1583.43,0.206585,406354,252534
1586.46,0.205106,398475,248482
1590.49,0.202223,388982,244178
1593.51,0.200996,380708,239660
1596.53,0.198619,372727,235924
1599.54,0.196837,365060,232021
1602.55,0.194904,357543,228257
1605.55,0.193212,349495,223990
1608.55,0.191459,341154,219529
1612.54,0.189592,330877,213833
1615.53,0.187104,322904,209879
1618.51,0.186723,315116,204997
1621.49,0.185177,307217,200571
1624.47,0.184324,299481,195905
1627.44,0.183347,292112,191515
1630.41,0.181422,284245,187185
1634.36,0.180639,274079,180816
1637.32,0.180408,266916,176184
1640.27,0.179911,259612,171559
1643.22,0.178393,251804,166982
1646.16,0.177843,244348,162243
1649.1,0.177425,236703,157318
1652.04,0.175549,228171,152304
1655.95,0.170954,215408,145314
1658.88,0.167891,204937,139229
1661.8,0.162218,193395,133115
1664.72,0.156748,179728,125276
1667.63,0.143325,163642,117644
1670.54,0.128707,146312,108786
1673.44,0.114596,128451,98660
1677.31,0.089722,105080,85467
1680.21,0.082242,88906,73568
1683.1,0.073636,75033,63331
1685.99,0.073973,63520,53572
1688.87,0.073070,53714,45396
1691.75,0.081874,45653,37809
1694.62,0.083318,39137,32305
1697.49,0.084845,33776,27782
1701.31,0.103981,28175,22176