File: samples/wool/wool-000811/Column 1_050554_20150331_120137.csv
Method:,Column 1,,
Host Date-Time:,31/3/15 @ 12:1:37,,
Header Version:,1,,
System Temp (C):,33.42,,
Detector Temp (C):,32.42,,
Humidity (%):,2.49,,
Lamp PD:,3820,,
Shift Vector Coefficients:,-10.5391,0.0761263,-0.000134223,,
Pixel to Wavelength Coefficients:,1775.68,-0.916766,-0.000235065,,
Serial Number:,5510004,,
Scan Config Name:,Column 1,,
Scan Config Type:,Slew,,
Section 1,,
Start wavelength (nm):,900,,
End wavelength (nm):,1700,,
Pattern Pixel Width (nm):,   7.03,,,,
Exposure (ms):,  0.635,,,,
Digital Resolution:,228,,
Num Repeats:,6,,
PGA Gain:,64,,
Total Measurement Time in sec:,  2.685,,
Wavelength (nm),Absorbance (AU),Reference Signal (unitless),Sample Signal (unitless)
901.51,0.032383,108485,100690
905.376,0.038176,121306,111098
909.237,0.041691,131909,119835
913.095,0.041959,143299,130102
916.948,0.043347,156982,142070
922.079,0.043413,179937,162820
925.923,0.044387,200504,181024
929.762,0.045450,222660,200536
933.597,0.046663,244426,219525
937.427,0.045947,263972,237471
941.254,0.044961,281845,254126
945.076,0.045332,297271,267806
950.165,0.045550,315605,284180
953.978,0.044845,328029,295847
957.786,0.045922,340470,306307
961.59,0.045984,352317,316920
965.389,0.046275,363056,326361
969.185,0.046806,373162,335036
972.976,0.046655,382632,343658
976.763,0.047396,391202,350756
981.806,0.047336,400190,358864
985.583,0.048887,406088,362855
989.355,0.049781,410162,365742
993.124,0.050078,412868,367903
996.888,0.049983,414263,369227
1000.65,0.051276,415476,369207
1004.4,0.051898,415479,368681
1009.41,0.053265,414358,366531
1013.15,0.053939,412923,364695
1016.89,0.054576,411526,362929
1020.63,0.054717,409066,360642
1024.36,0.054881,406777,358489
1028.09,0.054683,404427,356580
1031.82,0.054222,401911,354738
1036.78,0.054036,398410,351799
1040.49,0.053368,396204,350389
1044.2,0.053088,394236,348874
1047.91,0.052222,392042,347625
1051.61,0.052462,389823,345466
1055.31,0.051564,388234,344770
1059,0.050954,387599,344690
1063.92,0.050270,386688,344422
1067.61,0.048648,386598,345630
1071.29,0.049142,387377,345933
1074.96,0.048002,388536,347880
1078.63,0.047589,389855,349393
1082.3,0.046700,391215,351330
1085.96,0.046264,393215,353481
1090.84,0.045743,396270,356655
1094.49,0.045323,398760,359243
1098.14,0.044597,400987,361854
1101.79,0.044933,403477,363819
1105.43,0.045262,406116,365922
1109.06,0.044167,407701,368277
1112.7,0.044094,409859,370289
1117.53,0.044431,412494,372380
1121.15,0.045153,414909,373938
1124.77,0.045423,416559,375192
1128.38,0.046211,418532,376286
1131.99,0.048103,419956,375925
1135.6,0.050228,421946,375862
1139.2,0.051950,423881,376092
1143.99,0.054506,426786,376447
1147.58,0.055269,428617,377399
1151.17,0.056349,431169,378703
1154.75,0.058216,433579,379186
1158.33,0.060231,436264,379768
1161.91,0.062215,439132,380522
1165.48,0.064163,442389,381629
1169.04,0.067240,446101,382114
1173.79,0.070721,451929,384016
1177.34,0.073226,456026,385269
1180.9,0.075400,461306,387783
1184.44,0.077028,467657,391651
1187.99,0.078370,473969,395713
1191.52,0.077850,479856,401108
1195.06,0.077656,487372,407572
1199.76,0.076680,497347,416850
1203.29,0.075456,504311,423880
1206.81,0.074421,511507,430954
1210.33,0.073794,519078,437964
1213.84,0.073236,527163,445358
1217.35,0.072442,534208,452135
1220.85,0.071808,540472,458105
1225.51,0.070511,549929,467515
1229.01,0.070094,556888,473886
1232.5,0.069648,562180,478881
1235.98,0.068816,567975,484745
1239.46,0.067764,574815,491772
1242.94,0.066793,582782,499704
1246.41,0.066601,591476,507383
1251.03,0.066425,604016,518350
1254.5,0.066704,612289,525113
1257.96,0.066930,619125,530699
1261.41,0.067241,624551,534967
1264.86,0.067960,629900,538656
1268.31,0.068330,634345,541995
1271.75,0.068828,638574,544983
1276.33,0.069417,642499,547590
1279.76,0.069153,645905,550827
1283.19,0.069106,648307,552936
1286.61,0.068484,650446,555555
1290.03,0.068246,652132,557300
1293.44,0.068124,653907,558975
1296.85,0.068003,655963,560888
1301.39,0.067487,657349,562741
1304.8,0.067482,657558,562927
1308.19,0.067888,658515,563220
1311.58,0.067925,658804,563419
1314.97,0.068458,659011,562905
1318.36,0.069067,658272,561485
1321.73,0.069345,658022,560913
1326.23,0.070947,657870,558718
1329.6,0.071699,656482,556575
1332.97,0.072568,654926,554146
1336.33,0.073708,653727,551682
1339.69,0.075796,652497,548002
1343.04,0.077569,649913,543609
1346.39,0.080082,647671,538607
1349.73,0.082000,645338,534303
1354.18,0.085248,641175,526900
1357.52,0.087480,638376,521911
1360.85,0.090117,635805,516663
1364.17,0.092295,633413,512144
1367.49,0.094524,631026,507602
1370.81,0.096921,628050,502427
1374.12,0.099578,625034,496965
1378.54,0.103492,620272,488754
1381.84,0.106367,616892,482883
1385.14,0.110984,613613,475237
1388.43,0.115991,611526,468192
1391.72,0.120961,610663,462211
1395.01,0.125990,610634,456868
1398.29,0.132157,611700,451213
1402.66,0.139827,614051,445018
1405.93,0.146337,616268,439980
1409.2,0.152199,617795,435156
1412.46,0.157373,618872,430753
1415.72,0.162591,619795,426243
1418.98,0.166709,620495,422697
1422.23,0.170980,621087,418960
1426.56,0.175280,621375,415025
1429.8,0.178468,621616,412149
1433.04,0.181460,622129,409657
1436.27,0.184221,621526,406666
1439.5,0.186361,621113,404399
1442.72,0.188748,620921,402058
1445.94,0.191674,620270,398939
1450.23,0.194924,618860,395065
1453.44,0.197836,617697,391687
1456.64,0.200561,616264,388334
1459.85,0.203229,614413,384797
1463.04,0.205917,612307,381112
1466.24,0.209835,610032,376286
1469.43,0.212747,607345,372125
1473.67,0.218163,603789,365361
1476.85,0.223124,601175,359647
1480.02,0.228617,597737,353096
1483.19,0.235236,594479,345860
1486.36,0.240354,591232,339941
1489.52,0.245576,587853,333959
1492.68,0.248557,583875,329430
1496.89,0.250554,578062,324654
1500.03,0.251348,574159,321873
1503.18,0.250888,570285,320040
1506.32,0.250720,565444,317446
1509.45,0.249291,560571,315747
1512.58,0.247596,555821,314296
1515.71,0.245333,550344,312825
1519.87,0.241954,543983,311624
1522.99,0.239541,538764,310354
1526.1,0.236657,533692,309481
1529.21,0.233647,527902,308252
1532.32,0.231660,521886,306137
1535.42,0.228411,515888,304891
1538.51,0.224801,509987,303919
1541.6,0.221541,503936,302576
1545.72,0.217692,494694,299671
1548.8,0.213857,488378,298469
1551.88,0.211359,481832,296167
1554.95,0.209616,474989,293135
1558.02,0.207302,467818,290252
1561.08,0.206255,460730,286544
1564.15,0.205187,454170,283160
1568.22,0.204676,444181,277258
1571.27,0.202994,436947,273801
1574.32,0.201830,429598,269918
1577.36,0.200177,422039,266180
1580.4,0.199329,414375,261857
1583.43,0.197987,406354,257583
1586.46,0.196004,398475,253745
1590.49,0.193253,388982,249274
1593.51,0.191630,380708,244885
1596.53,0.189835,372727,240744
1599.54,0.186792,365060,237450
1602.55,0.184538,357543,233771
1605.55,0.182760,349495,229446
1608.55,0.180600,341154,225087
1612.54,0.177477,330877,219882
1615.53,0.175765,322904,215431
1618.51,0.174050,315116,211067
1621.49,0.173966,307217,205816
1624.47,0.171450,299481,201799
1627.44,0.170900,292112,197083
1630.41,0.169978,284245,192183
1634.36,0.169171,274079,185654
1637.32,0.167046,266916,181689
1640.27,0.166563,259612,176914
1643.22,0.165178,251804,172141
1646.16,0.165090,244348,167078
1649.1,0.164129,236703,162209
1652.04,0.161755,228171,157219
1655.95,0.159912,215408,149056
1658.88,0.157678,204937,142542
1661.8,0.153961,193395,135670
1664.72,0.148700,179728,127619
1667.63,0.140888,163642,118306
1670.54,0.132476,146312,107846
1673.44,0.122418,128451,96899
1677.31,0.109165,105080,81725
1680.21,0.104274,88906,69929
1683.1,0.102909,75033,59203
1685.99,0.106152,63520,49746
1688.87,0.114895,53714,41228
1691.75,0.116880,45653,34881
1694.62,0.115857,39137,29973
1697.49,0.120555,33776,25589
1701.31,0.127872,28175,20989