File: samples/wool/wool-000811/Column 1_050554_20150331_120139.csv
Method:,Column 1,,
Host Date-Time:,31/3/15 @ 12:1:39,,
Header Version:,1,,
System Temp (C):,33.43,,
Detector Temp (C):,32.43,,
Humidity (%):,2.44,,
Lamp PD:,3820,,
Shift Vector Coefficients:,-10.5391,0.0761263,-0.000134223,,
Pixel to Wavelength Coefficients:,1775.68,-0.916766,-0.000235065,,
Serial Number:,5510004,,
Scan Config Name:,Column 1,,
Scan Config Type:,Slew,,
Section 1,,
Start wavelength (nm):,900,,
End wavelength (nm):,1700,,
Pattern Pixel Width (nm):,   7.03,,,,
Exposure (ms):,  0.635,,,,
Digital Resolution:,228,,
Num Repeats:,6,,
PGA Gain:,64,,
Total Measurement Time in sec:,  2.720,,
Wavelength (nm),Absorbance (AU),Reference Signal (unitless),Sample Signal (unitless)
901.51,0.031384,108485,100922
905.376,0.037906,121306,111167
909.237,0.041166,131909,119980
913.095,0.040822,143299,130443
916.948,0.043039,156982,142171
922.079,0.043469,179937,162799
925.923,0.043850,200504,181248
929.762,0.045015,222660,200737
933.597,0.046325,244426,219696
937.427,0.046258,263972,237301
941.254,0.045293,281845,253932
945.076,0.045024,297271,267996
950.165,0.045508,315605,284208
953.978,0.044235,328029,296263
957.786,0.045691,340470,306470
961.59,0.045999,352317,316909
965.389,0.046512,363056,326183
969.185,0.046694,373162,335122
972.976,0.046582,382632,343716
976.763,0.047993,391202,350274
981.806,0.048374,400190,358008
985.583,0.049191,406088,362601
989.355,0.049133,410162,366288
993.124,0.049789,412868,368148
996.888,0.050169,414263,369069
1000.65,0.051240,415476,369238
1004.4,0.052497,415479,368173
1009.41,0.053270,414358,366527
1013.15,0.053998,412923,364646
1016.89,0.054895,411526,362662
1020.63,0.054279,409066,361006
1024.36,0.055104,406777,358305
1028.09,0.054212,404427,356967
1031.82,0.054167,401911,354783
1036.78,0.054362,398410,351535
1040.49,0.053205,396204,350521
1044.2,0.052982,394236,348959
1047.91,0.052327,392042,347541
1051.61,0.051922,389823,345896
1055.31,0.051632,388234,344716
1059,0.050856,387599,344768
1063.92,0.050049,386688,344597
1067.61,0.049735,386598,344766
1071.29,0.049058,387377,346000
1074.96,0.048835,388536,347213
1078.63,0.047453,389855,349502
1082.3,0.046619,391215,351396
1085.96,0.046334,393215,353424
1090.84,0.045999,396270,356445
1094.49,0.045129,398760,359404
1098.14,0.045485,400987,361115
1101.79,0.044208,403477,364427
1105.43,0.044196,406116,366821
1109.06,0.044133,407701,368306
1112.7,0.043953,409859,370409
1117.53,0.044262,412494,372525
1121.15,0.045005,414909,374066
1124.77,0.045269,416559,375325
1128.38,0.046913,418532,375678
1131.99,0.048002,419956,376012
1135.6,0.050567,421946,375569
1139.2,0.052083,423881,375977
1143.99,0.054516,426786,376439
1147.58,0.055661,428617,377058
1151.17,0.056778,431169,378329
1154.75,0.058027,433579,379351
1158.33,0.059666,436264,380262
1161.91,0.061826,439132,380863
1165.48,0.064498,442389,381335
1169.04,0.066750,446101,382546
1173.79,0.070981,451929,383786
1177.34,0.072839,456026,385612
1180.9,0.075485,461306,387707
1184.44,0.077168,467657,391525
1187.99,0.077413,473969,396586
1191.52,0.077382,479856,401540
1195.06,0.077581,487372,407643
1199.76,0.076468,497347,417053
1203.29,0.075157,504311,424171
1206.81,0.074837,511507,430541
1210.33,0.074354,519078,437400
1213.84,0.073388,527163,445202
1217.35,0.072171,534208,452418
1220.85,0.071633,540472,458290
1225.51,0.070771,549929,467235
1229.01,0.070235,556888,473732
1232.5,0.069625,562180,478906
1235.98,0.068802,567975,484761
1239.46,0.067748,574815,491791
1242.94,0.066670,582782,499846
1246.41,0.066039,591476,508040
1251.03,0.066430,604016,518344
1254.5,0.066065,612289,525886
1257.96,0.066878,619125,530763
1261.41,0.067229,624551,534982
1264.86,0.067615,629900,539084
1268.31,0.068446,634345,541850
1271.75,0.069210,638574,544504
1276.33,0.069752,642499,547168
1279.76,0.069567,645905,550303
1283.19,0.069067,648307,552985
1286.61,0.068762,650446,555200
1290.03,0.068006,652132,557609
1293.44,0.067799,653907,559393
1296.85,0.067524,655963,561507
1301.39,0.067837,657349,562288
1304.8,0.067805,657558,562508
1308.19,0.067796,658515,563339
1311.58,0.068093,658804,563201
1314.97,0.068888,659011,562348
1318.36,0.069254,658272,561244
1321.73,0.069218,658022,561077
1326.23,0.070678,657870,559065
1329.6,0.071561,656482,556752
1332.97,0.072419,654926,554336
1336.33,0.073845,653727,551508
1339.69,0.076046,652497,547687
1343.04,0.077501,649913,543694
1346.39,0.079811,647671,538944
1349.73,0.081845,645338,534493
1354.18,0.085450,641175,526655
1357.52,0.087592,638376,521777
1360.85,0.089636,635805,517235
1364.17,0.092066,633413,512414
1367.49,0.094473,631026,507662
1370.81,0.097056,628050,502271
1374.12,0.099549,625034,496998
1378.54,0.103240,620272,489038
1381.84,0.106790,616892,482413
1385.14,0.110657,613613,475595
1388.43,0.115904,611526,468286
1391.72,0.121176,610663,461983
1395.01,0.126237,610634,456608
1398.29,0.131862,611700,451519
1402.66,0.140029,614051,444811
1405.93,0.146558,616268,439756
1409.2,0.152157,617795,435199
1412.46,0.158147,618872,429986
1415.72,0.163164,619795,425681
1418.98,0.167213,620495,422207
1422.23,0.170747,621087,419185
1426.56,0.175750,621375,414576
1429.8,0.178607,621616,412017
1433.04,0.181423,622129,409692
1436.27,0.183844,621526,407020
1439.5,0.186425,621113,404339
1442.72,0.189026,620921,401800
1445.94,0.191453,620270,399142
1450.23,0.194428,618860,395516
1453.44,0.198029,617697,391513
1456.64,0.200776,616264,388142
1459.85,0.203611,614413,384458
1463.04,0.206154,612307,380904
1466.24,0.208915,610032,377084
1469.43,0.213022,607345,371889
1473.67,0.217495,603789,365923
1476.85,0.222832,601175,359889
1480.02,0.228400,597737,353273
1483.19,0.234695,594479,346291
1486.36,0.240499,591232,339828
1489.52,0.245568,587853,333965
1492.68,0.248408,583875,329543
1496.89,0.250218,578062,324905
1500.03,0.251163,574159,322010
1503.18,0.251117,570285,319871
1506.32,0.250744,565444,317428
1509.45,0.250145,560571,315127
1512.58,0.247446,555821,314405
1515.71,0.245766,550344,312513
1519.87,0.242765,543983,311043
1522.99,0.239765,538764,310194
1526.1,0.236732,533692,309427
1529.21,0.233984,527902,308013
1532.32,0.231188,521886,306470
1535.42,0.227639,515888,305433
1538.51,0.224697,509987,303992
1541.6,0.222377,503936,301994
1545.72,0.217144,494694,300049
1548.8,0.214852,488378,297786
1551.88,0.211355,481832,296170
1554.95,0.209038,474989,293525
1558.02,0.207701,467818,289985
1561.08,0.205745,460730,286881
1564.15,0.205249,454170,283119
1568.22,0.203790,444181,277824
1571.27,0.203508,436947,273477
1574.32,0.202354,429598,269593
1577.36,0.201406,422039,265428
1580.4,0.199031,414375,262037
1583.43,0.197785,406354,257703
1586.46,0.195408,398475,254093
1590.49,0.193725,388982,249003
1593.51,0.191486,380708,244966
1596.53,0.189268,372727,241059
1599.54,0.186986,365060,237344
1602.55,0.184560,357543,233759
1605.55,0.182660,349495,229499
1608.55,0.179708,341154,225550
1612.54,0.177574,330877,219833
1615.53,0.176197,322904,215217
1618.51,0.174363,315116,210915
1621.49,0.173416,307217,206077
1624.47,0.172530,299481,201298
1627.44,0.170850,292112,197106
1630.41,0.168753,284245,192726
1634.36,0.168734,274079,185841
1637.32,0.168288,266916,181170
1640.27,0.165369,259612,177401
1643.22,0.165373,251804,172064
1646.16,0.164658,244348,167244
1649.1,0.163727,236703,162359
1652.04,0.163214,228171,156692
1655.95,0.161012,215408,148679
1658.88,0.158501,204937,142272
1661.8,0.153466,193395,135825
1664.72,0.149358,179728,127426
1667.63,0.140363,163642,118449
1670.54,0.131382,146312,108118
1673.44,0.120299,128451,97373
1677.31,0.108194,105080,81908
1680.21,0.103982,88906,69976
1683.1,0.104091,75033,59042
1685.99,0.103940,63520,50000
1688.87,0.110358,53714,41661
1691.75,0.119215,45653,34694
1694.62,0.123989,39137,29417
1697.49,0.130113,33776,25032
1701.31,0.134208,28175,20685