File: samples/wool/wool-000811/Column 1_050581_20150331_121434.csv
Method:,Column 1,,
Host Date-Time:,31/3/15 @ 12:14:34,,
Header Version:,1,,
System Temp (C):,33.72,,
Detector Temp (C):,34.57,,
Humidity (%):,1.95,,
Lamp PD:,3818,,
Shift Vector Coefficients:,-10.5391,0.0761263,-0.000134223,,
Pixel to Wavelength Coefficients:,1775.68,-0.916766,-0.000235065,,
Serial Number:,5510004,,
Scan Config Name:,Column 1,,
Scan Config Type:,Slew,,
Section 1,,
Start wavelength (nm):,900,,
End wavelength (nm):,1700,,
Pattern Pixel Width (nm):,   7.03,,,,
Exposure (ms):,  0.635,,,,
Digital Resolution:,228,,
Num Repeats:,6,,
PGA Gain:,64,,
Total Measurement Time in sec:,  2.673,,
Wavelength (nm),Absorbance (AU),Reference Signal (unitless),Sample Signal (unitless)
901.51,0.071025,108485,92118
905.376,0.076993,121306,101599
909.237,0.079048,131909,109958
913.095,0.081760,143299,118709
916.948,0.081092,156982,130244
922.079,0.082742,179937,148723
925.923,0.082735,200504,165725
929.762,0.083862,222660,183561
933.597,0.084254,244426,201323
937.427,0.083418,263972,217841
941.254,0.082556,281845,233053
945.076,0.082078,297271,246079
950.165,0.080833,315605,262006
953.978,0.080378,328029,272605
957.786,0.080601,340470,282799
961.59,0.080601,352317,292639
965.389,0.080391,363056,301705
969.185,0.080579,373162,309969
972.976,0.081106,382632,317450
976.763,0.081985,391202,323904
981.806,0.082293,400190,331111
985.583,0.082974,406088,335464
989.355,0.083462,410162,338449
993.124,0.083674,412868,340516
996.888,0.084263,414263,341203
1000.65,0.085370,415476,341331
1004.4,0.085849,415479,340957
1009.41,0.086858,414358,339248
1013.15,0.087801,412923,337340
1016.89,0.088386,411526,335746
1020.63,0.088134,409066,333933
1024.36,0.087167,406777,332805
1028.09,0.087811,404427,330392
1031.82,0.088332,401911,327943
1036.78,0.087167,398410,325959
1040.49,0.087111,396204,324196
1044.2,0.087453,394236,322332
1047.91,0.086422,392042,321300
1051.61,0.086299,389823,319572
1055.31,0.085702,388234,318707
1059,0.085620,387599,318246
1063.92,0.084670,386688,318193
1067.61,0.084205,386598,318460
1071.29,0.084636,387377,318785
1074.96,0.083924,388536,320263
1078.63,0.082694,389855,322262
1082.3,0.082090,391215,323836
1085.96,0.081523,393215,325917
1090.84,0.080421,396270,329284
1094.49,0.079507,398760,332051
1098.14,0.079318,400987,334051
1101.79,0.079049,403477,336333
1105.43,0.078643,406116,338850
1109.06,0.078250,407701,340480
1112.7,0.077903,409859,342556
1117.53,0.077871,412494,344784
1121.15,0.078084,414909,346632
1124.77,0.078120,416559,347982
1128.38,0.078924,418532,348983
1131.99,0.080372,419956,349005
1135.6,0.081140,421946,350039
1139.2,0.083039,423881,350110
1143.99,0.084941,426786,350969
1147.58,0.085797,428617,351781
1151.17,0.086782,431169,353074
1154.75,0.087559,433579,354413
1158.33,0.089576,436264,354955
1161.91,0.090994,439132,356124
1165.48,0.093146,442389,356992
1169.04,0.095377,446101,358143
1173.79,0.098816,451929,359960
1177.34,0.100585,456026,361747
1180.9,0.102851,461306,364031
1184.44,0.104583,467657,367574
1187.99,0.104848,473969,372308
1191.52,0.105348,479856,376498
1195.06,0.105497,487372,382264
1199.76,0.104814,497347,390702
1203.29,0.104118,504311,396808
1206.81,0.103304,511507,403225
1210.33,0.102734,519078,409731
1213.84,0.102456,527163,416379
1217.35,0.101744,534208,422636
1220.85,0.100985,540472,428340
1225.51,0.100322,549929,436500
1229.01,0.099837,556888,442518
1232.5,0.099377,562180,447196
1235.98,0.098953,567975,452248
1239.46,0.097743,574815,458971
1242.94,0.096789,582782,466355
1246.41,0.096035,591476,474135
1251.03,0.096263,604016,483933
1254.5,0.095999,612289,490860
1257.96,0.096504,619125,495763
1261.41,0.097038,624551,499494
1264.86,0.097398,629900,503354
1268.31,0.097868,634345,506358
1271.75,0.098615,638574,508857
1276.33,0.098856,642499,511701
1279.76,0.098783,645905,514500
1283.19,0.098638,648307,516586
1286.61,0.098162,650446,518859
1290.03,0.097760,652132,520685
1293.44,0.097559,653907,522345
1296.85,0.097359,655963,524228
1301.39,0.097042,657349,525720
1304.8,0.096923,657558,526031
1308.19,0.096841,658515,526896
1311.58,0.097590,658804,526219
1314.97,0.098186,659011,525662
1318.36,0.098320,658272,524911
1321.73,0.098626,658022,524342
1326.23,0.099745,657870,522872
1329.6,0.100509,656482,520851
1332.97,0.101817,654926,518054
1336.33,0.102944,653727,515766
1339.69,0.104320,652497,513167
1343.04,0.106135,649913,509003
1346.39,0.108045,647671,505021
1349.73,0.109659,645338,501335
1354.18,0.113128,641175,494138
1357.52,0.115191,638376,489650
1360.85,0.116993,635805,485658
1364.17,0.118847,633413,481770
1367.49,0.121512,631026,477019
1370.81,0.124047,628050,472006
1374.12,0.125822,625034,467823
1378.54,0.129388,620272,460462
1381.84,0.132063,616892,455141
1385.14,0.136393,613613,448231
1388.43,0.140889,611526,442105
1391.72,0.145280,610663,437040
1395.01,0.150392,610634,431906
1398.29,0.155346,611700,427752
1402.66,0.162879,614051,422013
1405.93,0.168890,616268,417715
1409.2,0.174209,617795,413652
1412.46,0.179204,618872,409635
1415.72,0.184375,619795,405390
1418.98,0.187797,620495,402663
1422.23,0.191655,621087,399482
1426.56,0.196093,621375,395604
1429.8,0.198761,621616,393334
1433.04,0.201104,622129,391540
1436.27,0.203530,621526,388982
1439.5,0.205708,621113,386779
1442.72,0.208150,620921,384491
1445.94,0.210403,620270,382101
1450.23,0.213582,618860,378452
1453.44,0.215812,617697,375806
1456.64,0.218679,616264,372467
1459.85,0.221624,614413,368839
1463.04,0.223559,612307,365940
1466.24,0.226501,610032,362119
1469.43,0.229935,607345,357685
1473.67,0.235053,603789,351425
1476.85,0.239876,601175,346039
1480.02,0.245061,597737,339977
1483.19,0.250890,594479,333616
1486.36,0.255731,591232,328116
1489.52,0.259961,587853,323078
1492.68,0.262271,583875,319190
1496.89,0.264934,578062,314080
1500.03,0.265428,574159,311605
1503.18,0.265190,570285,309672
1506.32,0.264034,565444,307862
1509.45,0.263165,560571,305820
1512.58,0.261425,555821,304446
1515.71,0.258954,550344,303166
1519.87,0.256546,543983,301328
1522.99,0.253702,538764,300398
1526.1,0.251331,533692,299199
1529.21,0.248723,527902,297735
1532.32,0.245760,521886,296357
1535.42,0.242963,515888,294844
1538.51,0.240068,509987,293421
1541.6,0.237604,503936,291589
1545.72,0.233252,494694,289124
1548.8,0.230501,488378,287247
1551.88,0.228423,481832,284756
1554.95,0.225671,474989,282496
1558.02,0.224794,467818,278794
1561.08,0.223572,460730,275343
1564.15,0.222388,454170,272164
1568.22,0.221410,444181,266778
1571.27,0.220516,436947,262974
1574.32,0.219806,429598,258974
1577.36,0.218821,422039,254995
1580.4,0.216636,414375,251627
1583.43,0.215772,406354,247248
1586.46,0.214307,398475,243273
1590.49,0.211635,388982,238943
1593.51,0.209892,380708,234801
1596.53,0.207414,372727,231194
1599.54,0.206430,365060,226952
1602.55,0.203779,357543,223640
1605.55,0.202020,349495,219493
1608.55,0.199773,341154,215366
1612.54,0.198754,330877,209369
1615.53,0.196188,322904,205535
1618.51,0.195735,315116,200787
1621.49,0.195098,307217,196041
1624.47,0.193274,299481,191909
1627.44,0.191854,292112,187800
1630.41,0.191415,284245,182927
1634.36,0.189209,274079,177283
1637.32,0.189351,266916,172593
1640.27,0.189119,259612,167960
1643.22,0.187747,251804,163424
1646.16,0.186502,244348,159040
1649.1,0.184781,236703,154676
1652.04,0.183942,228171,149389
1655.95,0.181445,215408,141846
1658.88,0.176345,204937,136545
1661.8,0.173612,193395,129668
1664.72,0.164206,179728,123143
1667.63,0.152258,163642,115249
1670.54,0.138976,146312,106244
1673.44,0.121621,128451,97077
1677.31,0.104903,105080,82531
1680.21,0.092788,88906,71803
1683.1,0.086222,75033,61522
1685.99,0.092142,63520,51377
1688.87,0.093519,53714,43308
1691.75,0.098308,45653,36405
1694.62,0.103656,39137,30827
1697.49,0.106873,33776,26408
1701.31,0.117486,28175,21497