File: samples/wool/wool-000811/Column 1_050558_20150331_120348.csv
Method:,Column 1,,
Host Date-Time:,31/3/15 @ 12:3:48,,
Header Version:,1,,
System Temp (C):,33.61,,
Detector Temp (C):,32.99,,
Humidity (%):,2.25,,
Lamp PD:,3819,,
Shift Vector Coefficients:,-10.5391,0.0761263,-0.000134223,,
Pixel to Wavelength Coefficients:,1775.68,-0.916766,-0.000235065,,
Serial Number:,5510004,,
Scan Config Name:,Column 1,,
Scan Config Type:,Slew,,
Section 1,,
Start wavelength (nm):,900,,
End wavelength (nm):,1700,,
Pattern Pixel Width (nm):,   7.03,,,,
Exposure (ms):,  0.635,,,,
Digital Resolution:,228,,
Num Repeats:,6,,
PGA Gain:,64,,
Total Measurement Time in sec:,  2.681,,
Wavelength (nm),Absorbance (AU),Reference Signal (unitless),Sample Signal (unitless)
901.51,0.033723,108485,100380
905.376,0.040131,121306,110599
909.237,0.042739,131909,119546
913.095,0.042387,143299,129974
916.948,0.041380,156982,142715
922.079,0.044783,179937,162307
925.923,0.046356,200504,180205
929.762,0.047084,222660,199783
933.597,0.047781,244426,218961
937.427,0.045454,263972,237741
941.254,0.046017,281845,253509
945.076,0.046048,297271,267365
950.165,0.045453,315605,284244
953.978,0.044788,328029,295886
957.786,0.045443,340470,306645
961.59,0.046530,352317,316522
965.389,0.046446,363056,326233
969.185,0.046368,373162,335374
972.976,0.046729,382632,343599
976.763,0.047857,391202,350384
981.806,0.048102,400190,358232
985.583,0.049164,406088,362624
989.355,0.049330,410162,366122
993.124,0.049733,412868,368195
996.888,0.050285,414263,368970
1000.65,0.051496,415476,369020
1004.4,0.052461,415479,368204
1009.41,0.053997,414358,365914
1013.15,0.053905,412923,364724
1016.89,0.054985,411526,362587
1020.63,0.054452,409066,360862
1024.36,0.054383,406777,358900
1028.09,0.054242,404427,356942
1031.82,0.054642,401911,354395
1036.78,0.053493,398410,352239
1040.49,0.053559,396204,350235
1044.2,0.053123,394236,348846
1047.91,0.052883,392042,347096
1051.61,0.052388,389823,345525
1055.31,0.051139,388234,345108
1059,0.051280,387599,344431
1063.92,0.050266,386688,344425
1067.61,0.049213,386598,345181
1071.29,0.048941,387377,346093
1074.96,0.048249,388536,347682
1078.63,0.047304,389855,349622
1082.3,0.047110,391215,350999
1085.96,0.046439,393215,353339
1090.84,0.045919,396270,356510
1094.49,0.044765,398760,359705
1098.14,0.044887,400987,361612
1101.79,0.044482,403477,364197
1105.43,0.044661,406116,366428
1109.06,0.044164,407701,368280
1112.7,0.043651,409859,370667
1117.53,0.044052,412494,372705
1121.15,0.044572,414909,374439
1124.77,0.046106,416559,374602
1128.38,0.046593,418532,375955
1131.99,0.048058,419956,375964
1135.6,0.050030,421946,376034
1139.2,0.051876,423881,376156
1143.99,0.053650,426786,377190
1147.58,0.055638,428617,377078
1151.17,0.056387,431169,378670
1154.75,0.057548,433579,379770
1158.33,0.059398,436264,380497
1161.91,0.061296,439132,381328
1165.48,0.064135,442389,381654
1169.04,0.066459,446101,382802
1173.79,0.070365,451929,384331
1177.34,0.072543,456026,385875
1180.9,0.075201,461306,387961
1184.44,0.076894,467657,391772
1187.99,0.077909,473969,396133
1191.52,0.077329,479856,401589
1195.06,0.077253,487372,407951
1199.76,0.076123,497347,417385
1203.29,0.074964,504311,424360
1206.81,0.074541,511507,430835
1210.33,0.073998,519078,437759
1213.84,0.073202,527163,445393
1217.35,0.072080,534208,452512
1220.85,0.071622,540472,458301
1225.51,0.070613,549929,467405
1229.01,0.069880,556888,474119
1232.5,0.069206,562180,479368
1235.98,0.068803,567975,484759
1239.46,0.068002,574815,491503
1242.94,0.066569,582782,499962
1246.41,0.065838,591476,508276
1251.03,0.066007,604016,518849
1254.5,0.066329,612289,525566
1257.96,0.066403,619125,531343
1261.41,0.067277,624551,534922
1264.86,0.067466,629900,539269
1268.31,0.068088,634345,542297
1271.75,0.069049,638574,544706
1276.33,0.069673,642499,547267
1279.76,0.069054,645905,550953
1283.19,0.068588,648307,553596
1286.61,0.068535,650446,555490
1290.03,0.068169,652132,557399
1293.44,0.067247,653907,560105
1296.85,0.067336,655963,561750
1301.39,0.066691,657349,563774
1304.8,0.067278,657558,563191
1308.19,0.067639,658515,563543
1311.58,0.067496,658804,563976
1314.97,0.068336,659011,563062
1318.36,0.068638,658272,562040
1321.73,0.069335,658022,560926
1326.23,0.069924,657870,560036
1329.6,0.070884,656482,557621
1332.97,0.071873,654926,555034
1336.33,0.073217,653727,552305
1339.69,0.075105,652497,548875
1343.04,0.076868,649913,544487
1346.39,0.079431,647671,539416
1349.73,0.081616,645338,534775
1354.18,0.084641,641175,527638
1357.52,0.087083,638376,522388
1360.85,0.089108,635805,517864
1364.17,0.091004,633413,513668
1367.49,0.094007,631026,508207
1370.81,0.096153,628050,503317
1374.12,0.098775,625034,497884
1378.54,0.102267,620272,490134
1381.84,0.105766,616892,483552
1385.14,0.109779,613613,476558
1388.43,0.114637,611526,469654
1391.72,0.119322,610663,463959
1395.01,0.124392,610634,458552
1398.29,0.130125,611700,453329
1402.66,0.137586,614051,447320
1405.93,0.143973,616268,442381
1409.2,0.149518,617795,437851
1412.46,0.154805,618872,433307
1415.72,0.159921,619795,428871
1418.98,0.164065,620495,425278
1422.23,0.167975,621087,421869
1426.56,0.171794,621375,418369
1429.8,0.174803,621616,415642
1433.04,0.178134,622129,412806
1436.27,0.179935,621526,410700
1439.5,0.182517,621113,407994
1442.72,0.185386,620921,405182
1445.94,0.187280,620270,402996
1450.23,0.191541,618860,398154
1453.44,0.194274,617697,394913
1456.64,0.196972,616264,391557
1459.85,0.199626,614413,388002
1463.04,0.202502,612307,384120
1466.24,0.205499,610032,380061
1469.43,0.209312,607345,375080
1473.67,0.215139,603789,367914
1476.85,0.220007,601175,362238
1480.02,0.225921,597737,355295
1483.19,0.232671,594479,347909
1486.36,0.238038,591232,341759
1489.52,0.243326,587853,335693
1492.68,0.246393,583875,331075
1496.89,0.249081,578062,325757
1500.03,0.249291,574159,323401
1503.18,0.250049,570285,320659
1506.32,0.249310,565444,318478
1509.45,0.248029,560571,316666
1512.58,0.246409,555821,315156
1515.71,0.243997,550344,313789
1519.87,0.240023,543983,313013
1522.99,0.237844,538764,311569
1526.1,0.235379,533692,310393
1529.21,0.232075,527902,309370
1532.32,0.228870,521886,308110
1535.42,0.226352,515888,306340
1538.51,0.222763,509987,305349
1541.6,0.219268,503936,304164
1545.72,0.215529,494694,301167
1548.8,0.211959,488378,299776
1551.88,0.209956,481832,297125
1554.95,0.207473,474989,294585
1558.02,0.205710,467818,291318
1561.08,0.204261,460730,287863
1564.15,0.203631,454170,284176
1568.22,0.202769,444181,278478
1571.27,0.201496,436947,274747
1574.32,0.200523,429598,270732
1577.36,0.199126,422039,266825
1580.4,0.197327,414375,263067
1583.43,0.195756,406354,258910
1586.46,0.193949,398475,254948
1590.49,0.191418,388982,250329
1593.51,0.189788,380708,245926
1596.53,0.187541,372727,242019
1599.54,0.185716,365060,238039
1602.55,0.183078,357543,234558
1605.55,0.180830,349495,230468
1608.55,0.178147,341154,226362
1612.54,0.176148,330877,220556
1615.53,0.173447,322904,216584
1618.51,0.172391,315116,211875
1621.49,0.172004,307217,206748
1624.47,0.171194,299481,201918
1627.44,0.169626,292112,197662
1630.41,0.168023,284245,193050
1634.36,0.166887,274079,186633
1637.32,0.165931,266916,182156
1640.27,0.165141,259612,177494
1643.22,0.163886,251804,172654
1646.16,0.164030,244348,167486
1649.1,0.163244,236703,162540
1652.04,0.162377,228171,156994
1655.95,0.160035,215408,149014
1658.88,0.155571,204937,143235
1661.8,0.152259,193395,136203
1664.72,0.147039,179728,128108
1667.63,0.137724,163642,119171
1670.54,0.125806,146312,109515
1673.44,0.115262,128451,98509
1677.31,0.102212,105080,83044
1680.21,0.096110,88906,71256
1683.1,0.092493,75033,60640
1685.99,0.099052,63520,50566
1688.87,0.102701,53714,42402
1691.75,0.106108,45653,35757
1694.62,0.109771,39137,30396
1697.49,0.116383,33776,25836
1701.31,0.118781,28175,21433