File: samples/wool/wool-000811/Column 1_050553_20150331_120131.csv
Method:,Column 1,,
Host Date-Time:,31/3/15 @ 12:1:31,,
Header Version:,1,,
System Temp (C):,33.41,,
Detector Temp (C):,32.4,,
Humidity (%):,2.54,,
Lamp PD:,3820,,
Shift Vector Coefficients:,-10.5391,0.0761263,-0.000134223,,
Pixel to Wavelength Coefficients:,1775.68,-0.916766,-0.000235065,,
Serial Number:,5510004,,
Scan Config Name:,Column 1,,
Scan Config Type:,Slew,,
Section 1,,
Start wavelength (nm):,900,,
End wavelength (nm):,1700,,
Pattern Pixel Width (nm):,   7.03,,,,
Exposure (ms):,  0.635,,,,
Digital Resolution:,228,,
Num Repeats:,6,,
PGA Gain:,64,,
Total Measurement Time in sec:,  2.729,,
Wavelength (nm),Absorbance (AU),Reference Signal (unitless),Sample Signal (unitless)
901.51,0.034038,108485,100307
905.376,0.039002,121306,110887
909.237,0.041705,131909,119831
913.095,0.040799,143299,130450
916.948,0.043555,156982,142002
922.079,0.043501,179937,162787
925.923,0.044476,200504,180987
929.762,0.045151,222660,200674
933.597,0.045932,244426,219895
937.427,0.045454,263972,237741
941.254,0.046123,281845,253447
945.076,0.045477,297271,267717
950.165,0.045353,315605,284309
953.978,0.045612,328029,295325
957.786,0.045617,340470,306522
961.59,0.045939,352317,316953
965.389,0.046544,363056,326159
969.185,0.046376,373162,335368
972.976,0.046929,382632,343441
976.763,0.047079,391202,351012
981.806,0.048103,400190,358231
985.583,0.048221,406088,363412
989.355,0.049025,410162,366379
993.124,0.049755,412868,368177
996.888,0.050461,414263,368821
1000.65,0.051055,415476,369395
1004.4,0.052601,415479,368085
1009.41,0.053387,414358,366428
1013.15,0.054372,412923,364332
1016.89,0.054494,411526,362997
1020.63,0.054443,409066,360870
1024.36,0.054615,406777,358708
1028.09,0.054066,404427,357087
1031.82,0.054285,401911,354687
1036.78,0.053203,398410,352474
1040.49,0.053735,396204,350093
1044.2,0.053658,394236,348416
1047.91,0.052305,392042,347558
1051.61,0.052089,389823,345763
1055.31,0.051771,388234,344606
1059,0.050837,387599,344783
1063.92,0.050585,386688,344172
1067.61,0.049405,386598,345028
1071.29,0.048868,387377,346151
1074.96,0.048373,388536,347583
1078.63,0.047973,389855,349084
1082.3,0.046632,391215,351385
1085.96,0.046435,393215,353342
1090.84,0.045488,396270,356864
1094.49,0.045309,398760,359255
1098.14,0.044793,400987,361691
1101.79,0.044797,403477,363933
1105.43,0.044055,406116,366940
1109.06,0.044113,407701,368323
1112.7,0.043955,409859,370407
1117.53,0.043736,412494,372977
1121.15,0.045347,414909,373771
1124.77,0.045332,416559,375271
1128.38,0.046946,418532,375649
1131.99,0.047666,419956,376303
1135.6,0.050024,421946,376039
1139.2,0.051832,423881,376194
1143.99,0.054711,426786,376270
1147.58,0.055424,428617,377264
1151.17,0.056224,431169,378812
1154.75,0.057973,433579,379398
1158.33,0.059959,436264,380006
1161.91,0.061500,439132,381149
1165.48,0.064125,442389,381662
1169.04,0.067734,446101,381680
1173.79,0.071110,451929,383672
1177.34,0.073153,456026,385333
1180.9,0.075156,461306,388001
1184.44,0.077039,467657,391641
1187.99,0.077888,473969,396152
1191.52,0.077703,479856,401243
1195.06,0.077523,487372,407697
1199.76,0.076485,497347,417037
1203.29,0.076068,504311,423283
1206.81,0.075145,511507,430236
1210.33,0.073895,519078,437862
1213.84,0.073469,527163,445119
1217.35,0.072385,534208,452195
1220.85,0.072044,540472,457856
1225.51,0.070804,549929,467200
1229.01,0.069933,556888,474062
1232.5,0.069552,562180,478987
1235.98,0.068941,567975,484605
1239.46,0.068266,574815,491204
1242.94,0.066895,582782,499587
1246.41,0.066365,591476,507659
1251.03,0.066183,604016,518639
1254.5,0.066171,612289,525757
1257.96,0.066872,619125,530770
1261.41,0.067286,624551,534912
1264.86,0.067751,629900,538916
1268.31,0.068483,634345,541804
1271.75,0.069459,638574,544192
1276.33,0.069855,642499,547038
1279.76,0.069624,645905,550230
1283.19,0.068769,648307,553365
1286.61,0.068454,650446,555593
1290.03,0.068497,652132,556979
1293.44,0.068054,653907,559064
1296.85,0.067613,655963,561392
1301.39,0.067332,657349,562942
1304.8,0.067572,657558,562810
1308.19,0.067718,658515,563440
1311.58,0.067691,658804,563722
1314.97,0.068612,659011,562705
1318.36,0.069152,658272,561375
1321.73,0.069444,658022,560785
1326.23,0.070733,657870,558994
1329.6,0.071866,656482,556361
1332.97,0.072816,654926,553830
1336.33,0.073605,653727,551812
1339.69,0.076148,652497,547559
1343.04,0.077598,649913,543572
1346.39,0.080112,647671,538570
1349.73,0.082244,645338,534002
1354.18,0.085447,641175,526659
1357.52,0.087586,638376,521784
1360.85,0.089932,635805,516883
1364.17,0.092199,633413,512257
1367.49,0.094494,631026,507637
1370.81,0.097182,628050,502125
1374.12,0.099823,625034,496685
1378.54,0.102950,620272,489364
1381.84,0.106751,616892,482457
1385.14,0.111090,613613,475121
1388.43,0.116051,611526,468127
1391.72,0.120934,610663,462240
1395.01,0.126197,610634,456651
1398.29,0.131914,611700,451465
1402.66,0.139943,614051,444899
1405.93,0.146426,616268,439890
1409.2,0.152296,617795,435059
1412.46,0.157726,618872,430403
1415.72,0.163060,619795,425783
1418.98,0.167638,620495,421794
1422.23,0.170784,621087,419149
1426.56,0.176160,621375,414184
1429.8,0.178442,621616,412174
1433.04,0.181237,622129,409867
1436.27,0.184331,621526,406563
1439.5,0.186621,621113,404157
1442.72,0.188670,620921,402130
1445.94,0.191306,620270,399277
1450.23,0.195230,618860,394787
1453.44,0.197517,617697,391975
1456.64,0.201058,616264,387890
1459.85,0.203492,614413,384564
1463.04,0.206954,612307,380203
1466.24,0.209771,610032,376341
1469.43,0.212852,607345,372035
1473.67,0.218358,603789,365197
1476.85,0.223389,601175,359428
1480.02,0.228701,597737,353028
1483.19,0.234661,594479,346318
1486.36,0.240297,591232,339986
1489.52,0.244978,587853,334419
1492.68,0.248214,583875,329690
1496.89,0.250811,578062,324462
1500.03,0.251686,574159,321622
1503.18,0.251432,570285,319639
1506.32,0.251182,565444,317108
1509.45,0.249579,560571,315538
1512.58,0.247602,555821,314292
1515.71,0.245947,550344,312383
1519.87,0.242083,543983,311532
1522.99,0.240229,538764,309863
1526.1,0.237203,533692,309092
1529.21,0.234415,527902,307708
1532.32,0.231012,521886,306594
1535.42,0.228304,515888,304966
1538.51,0.225329,509987,303550
1541.6,0.222108,503936,302181
1545.72,0.217263,494694,299967
1548.8,0.216516,488378,296647
1551.88,0.211974,481832,295748
1554.95,0.209173,474989,293434
1558.02,0.208259,467818,289613
1561.08,0.205787,460730,286853
1564.15,0.205420,454170,283008
1568.22,0.204072,444181,277644
1571.27,0.203305,436947,273605
1574.32,0.202040,429598,269788
1577.36,0.200613,422039,265913
1580.4,0.200060,414375,261417
1583.43,0.198208,406354,257452
1586.46,0.195622,398475,253968
1590.49,0.193767,388982,248979
1593.51,0.190850,380708,245325
1596.53,0.188549,372727,241458
1599.54,0.186785,365060,237454
1602.55,0.184500,357543,233791
1605.55,0.181488,349495,230119
1608.55,0.180828,341154,224969
1612.54,0.178448,330877,219391
1615.53,0.176379,322904,215127
1618.51,0.175270,315116,210475
1621.49,0.173576,307217,206001
1624.47,0.172025,299481,201532
1627.44,0.171350,292112,196879
1630.41,0.169339,284245,192466
1634.36,0.168508,274079,185938
1637.32,0.166805,266916,181790
1640.27,0.166725,259612,176848
1643.22,0.165310,251804,172089
1646.16,0.163320,244348,167760
1649.1,0.163666,236703,162382
1652.04,0.163117,228171,156727
1655.95,0.159749,215408,149112
1658.88,0.157263,204937,142678
1661.8,0.154429,193395,135524
1664.72,0.148803,179728,127589
1667.63,0.139971,163642,118556
1670.54,0.131724,146312,108033
1673.44,0.120058,128451,97427
1677.31,0.110059,105080,81557
1680.21,0.102118,88906,70277
1683.1,0.101298,75033,59423
1685.99,0.109342,63520,49382
1688.87,0.109244,53714,41768
1691.75,0.115451,45653,34996
1694.62,0.121472,39137,29588
1697.49,0.125934,33776,25274
1701.31,0.130508,28175,20862