File: samples/wool/wool-000811/Column 1_050580_20150331_121405.csv
Method:,Column 1,,
Host Date-Time:,31/3/15 @ 12:14:5,,
Header Version:,1,,
System Temp (C):,33.79,,
Detector Temp (C):,34.6,,
Humidity (%):,1.95,,
Lamp PD:,3819,,
Shift Vector Coefficients:,-10.5391,0.0761263,-0.000134223,,
Pixel to Wavelength Coefficients:,1775.68,-0.916766,-0.000235065,,
Serial Number:,5510004,,
Scan Config Name:,Column 1,,
Scan Config Type:,Slew,,
Section 1,,
Start wavelength (nm):,900,,
End wavelength (nm):,1700,,
Pattern Pixel Width (nm):,   7.03,,,,
Exposure (ms):,  0.635,,,,
Digital Resolution:,228,,
Num Repeats:,6,,
PGA Gain:,64,,
Total Measurement Time in sec:,  2.682,,
Wavelength (nm),Absorbance (AU),Reference Signal (unitless),Sample Signal (unitless)
901.51,0.071605,108485,91995
905.376,0.076549,121306,101703
909.237,0.080484,131909,109595
913.095,0.080751,143299,118985
916.948,0.080369,156982,130461
922.079,0.083102,179937,148600
925.923,0.083427,200504,165461
929.762,0.085607,222660,182825
933.597,0.084241,244426,201329
937.427,0.083434,263972,217833
941.254,0.082412,281845,233130
945.076,0.080922,297271,246735
950.165,0.080518,315605,262196
953.978,0.080248,328029,272687
957.786,0.080627,340470,282782
961.59,0.080693,352317,292577
965.389,0.080797,363056,301423
969.185,0.080847,373162,309778
972.976,0.081656,382632,317048
976.763,0.081719,391202,324102
981.806,0.082202,400190,331180
985.583,0.083216,406088,335277
989.355,0.083253,410162,338612
993.124,0.083521,412868,340636
996.888,0.084414,414263,341085
1000.65,0.084610,415476,341929
1004.4,0.085566,415479,341180
1009.41,0.086788,414358,339303
1013.15,0.087871,412923,337286
1016.89,0.088187,411526,335900
1020.63,0.088561,409066,333605
1024.36,0.087803,406777,332318
1028.09,0.087953,404427,330284
1031.82,0.088063,401911,328146
1036.78,0.087215,398410,325923
1040.49,0.086976,396204,324297
1044.2,0.087190,394236,322527
1047.91,0.086635,392042,321142
1051.61,0.086952,389823,319092
1055.31,0.086196,388234,318345
1059,0.086307,387599,317743
1063.92,0.084983,386688,317964
1067.61,0.084228,386598,318443
1071.29,0.083863,387377,319353
1074.96,0.083651,388536,320465
1078.63,0.082317,389855,322542
1082.3,0.082127,391215,323809
1085.96,0.081666,393215,325810
1090.84,0.080625,396270,329129
1094.49,0.080093,398760,331603
1098.14,0.079602,400987,333832
1101.79,0.079534,403477,335958
1105.43,0.078636,406116,338855
1109.06,0.077882,407701,340769
1112.7,0.077486,409859,342885
1117.53,0.077030,412494,345452
1121.15,0.077393,414909,347184
1124.77,0.077929,416559,348135
1128.38,0.079353,418532,348639
1131.99,0.079911,419956,349376
1135.6,0.081909,421946,349420
1139.2,0.082225,423881,350767
1143.99,0.084769,426786,351108
1147.58,0.085937,428617,351668
1151.17,0.086937,431169,352948
1154.75,0.088716,433579,353470
1158.33,0.089483,436264,355031
1161.91,0.090966,439132,356147
1165.48,0.093399,442389,356784
1169.04,0.095539,446101,358009
1173.79,0.098713,451929,360045
1177.34,0.100641,456026,361700
1180.9,0.103126,461306,363800
1184.44,0.105203,467657,367049
1187.99,0.105781,473969,371509
1191.52,0.105336,479856,376509
1195.06,0.105513,487372,382250
1199.76,0.104874,497347,390648
1203.29,0.104101,504311,396824
1206.81,0.103969,511507,402608
1210.33,0.102623,519078,409836
1213.84,0.102535,527163,416303
1217.35,0.102401,534208,421997
1220.85,0.101207,540472,428121
1225.51,0.100241,549929,436582
1229.01,0.099883,556888,442471
1232.5,0.099340,562180,447235
1235.98,0.098528,567975,452690
1239.46,0.098036,574815,458661
1242.94,0.097115,582782,466006
1246.41,0.096436,591476,473697
1251.03,0.096062,604016,484157
1254.5,0.096268,612289,490556
1257.96,0.096361,619125,495926
1261.41,0.097113,624551,499407
1264.86,0.097682,629900,503025
1268.31,0.098077,634345,506114
1271.75,0.098912,638574,508510
1276.33,0.099036,642499,511489
1279.76,0.099404,645905,513765
1283.19,0.098312,648307,516974
1286.61,0.098368,650446,518613
1290.03,0.098143,652132,520226
1293.44,0.097163,653907,522821
1296.85,0.097232,655963,524381
1301.39,0.096694,657349,526141
1304.8,0.096949,657558,525999
1308.19,0.097506,658515,526089
1311.58,0.097785,658804,525982
1314.97,0.098299,659011,525525
1318.36,0.098712,658272,524437
1321.73,0.099031,658022,523853
1326.23,0.100005,657870,522559
1329.6,0.100733,656482,520583
1332.97,0.101584,654926,518332
1336.33,0.102856,653727,515870
1339.69,0.104811,652497,512587
1343.04,0.106068,649913,509081
1346.39,0.108567,647671,504414
1349.73,0.110886,645338,499921
1354.18,0.113304,641175,493938
1357.52,0.115719,638376,489055
1360.85,0.117537,635805,485051
1364.17,0.119473,633413,481076
1367.49,0.121601,631026,476921
1370.81,0.124208,628050,471831
1374.12,0.126554,625034,467035
1378.54,0.129857,620272,459965
1381.84,0.132731,616892,454442
1385.14,0.136476,613613,448145
1388.43,0.140957,611526,442036
1391.72,0.145894,610663,436423
1395.01,0.150764,610634,431536
1398.29,0.155962,611700,427146
1402.66,0.163967,614051,420957
1405.93,0.169239,616268,417379
1409.2,0.174867,617795,413026
1412.46,0.180321,618872,408583
1415.72,0.184550,619795,405227
1418.98,0.189335,620495,401239
1422.23,0.192695,621087,398527
1426.56,0.197002,621375,394777
1429.8,0.200238,621616,391998
1433.04,0.202717,622129,390089
1436.27,0.204849,621526,387802
1439.5,0.206205,621113,386336
1442.72,0.209030,620921,383713
1445.94,0.211448,620270,381182
1450.23,0.214486,618860,377665
1453.44,0.216968,617697,374807
1456.64,0.220013,616264,371325
1459.85,0.222177,614413,368369
1463.04,0.224872,612307,364836
1466.24,0.228123,610032,360769
1469.43,0.230902,607345,356889
1473.67,0.235857,603789,350775
1476.85,0.241215,601175,344974
1480.02,0.245986,597737,339253
1483.19,0.251140,594479,333424
1486.36,0.256104,591232,327834
1489.52,0.260330,587853,322804
1492.68,0.263115,583875,318570
1496.89,0.264901,578062,314104
1500.03,0.265790,574159,311345
1503.18,0.264837,570285,309924
1506.32,0.264513,565444,307522
1509.45,0.263631,560571,305492
1512.58,0.261495,555821,304397
1515.71,0.259354,550344,302887
1519.87,0.256637,543983,301265
1522.99,0.254267,538764,300007
1526.1,0.251455,533692,299113
1529.21,0.248805,527902,297679
1532.32,0.246112,521886,296117
1535.42,0.243404,515888,294545
1538.51,0.240404,509987,293194
1541.6,0.237631,503936,291571
1545.72,0.234010,494694,288620
1548.8,0.231069,488378,286871
1551.88,0.228502,481832,284704
1554.95,0.226692,474989,281833
1558.02,0.224204,467818,279173
1561.08,0.223215,460730,275570
1564.15,0.222203,454170,272280
1568.22,0.221555,444181,266689
1571.27,0.221025,436947,262666
1574.32,0.220073,429598,258815
1577.36,0.219082,422039,254842
1580.4,0.217485,414375,251136
1583.43,0.216266,406354,246967
1586.46,0.214118,398475,243379
1590.49,0.212454,388982,238493
1593.51,0.210151,380708,234661
1596.53,0.208057,372727,230852
1599.54,0.206750,365060,226785
1602.55,0.204233,357543,223406
1605.55,0.202018,349495,219494
1608.55,0.200866,341154,214825
1612.54,0.198812,330877,209341
1615.53,0.197343,322904,204989
1618.51,0.195331,315116,200974
1621.49,0.195058,307217,196059
1624.47,0.192973,299481,192042
1627.44,0.192796,292112,187393
1630.41,0.191496,284245,182893
1634.36,0.190804,274079,176633
1637.32,0.190175,266916,172266
1640.27,0.188687,259612,168127
1643.22,0.187912,251804,163362
1646.16,0.187703,244348,158601
1649.1,0.185301,236703,154491
1652.04,0.184064,228171,149347
1655.95,0.181880,215408,141704
1658.88,0.177635,204937,136140
1661.8,0.172682,193395,129946
1664.72,0.164880,179728,122952
1667.63,0.152412,163642,115208
1670.54,0.140368,146312,105904
1673.44,0.123558,128451,96645
1677.31,0.103359,105080,82825
1680.21,0.093466,88906,71691
1683.1,0.087905,75033,61284
1685.99,0.089412,63520,51701
1688.87,0.095238,53714,43137
1691.75,0.094295,45653,36743
1694.62,0.105421,39137,30702
1697.49,0.103547,33776,26611
1701.31,0.119004,28175,21422