File: samples/wool/wool-000811/Column 1_050622_20150331_123405.csv
Method:,Column 1,,
Host Date-Time:,31/3/15 @ 12:34:5,,
Header Version:,1,,
System Temp (C):,34.12,,
Detector Temp (C):,35.06,,
Humidity (%):,1.56,,
Lamp PD:,3818,,
Shift Vector Coefficients:,-10.5391,0.0761263,-0.000134223,,
Pixel to Wavelength Coefficients:,1775.68,-0.916766,-0.000235065,,
Serial Number:,5510004,,
Scan Config Name:,Column 1,,
Scan Config Type:,Slew,,
Section 1,,
Start wavelength (nm):,900,,
End wavelength (nm):,1700,,
Pattern Pixel Width (nm):,   7.03,,,,
Exposure (ms):,  0.635,,,,
Digital Resolution:,228,,
Num Repeats:,6,,
PGA Gain:,64,,
Total Measurement Time in sec:,  2.669,,
Wavelength (nm),Absorbance (AU),Reference Signal (unitless),Sample Signal (unitless)
901.51,0.069566,108485,92428
905.376,0.074338,121306,102222
909.237,0.076154,131909,110693
913.095,0.077902,143299,119768
916.948,0.078042,156982,131162
922.079,0.079064,179937,149988
925.923,0.081338,200504,166259
929.762,0.082013,222660,184344
933.597,0.081960,244426,202389
937.427,0.081048,263972,219033
941.254,0.079890,281845,234488
945.076,0.078713,297271,247993
950.165,0.078128,315605,263643
953.978,0.077240,328029,274582
957.786,0.077559,340470,284787
961.59,0.077766,352317,294556
965.389,0.077742,363056,303551
969.185,0.077702,373162,312029
972.976,0.078445,382632,319401
976.763,0.078123,391202,326797
981.806,0.079137,400190,333526
985.583,0.078529,406088,338915
989.355,0.079566,410162,341499
993.124,0.080039,412868,343378
996.888,0.080409,414263,344245
1000.65,0.080278,415476,345357
1004.4,0.082788,415479,343369
1009.41,0.083502,414358,341880
1013.15,0.083860,412923,340415
1016.89,0.084846,411526,338494
1020.63,0.085286,409066,336130
1024.36,0.084619,406777,334763
1028.09,0.084181,404427,333165
1031.82,0.084058,401911,331186
1036.78,0.083677,398410,328589
1040.49,0.083260,396204,327084
1044.2,0.083750,394236,325092
1047.91,0.082751,392042,324027
1051.61,0.082843,389823,322125
1055.31,0.082195,388234,321291
1059,0.082728,387599,320372
1063.92,0.081237,386688,320718
1067.61,0.080859,386598,320923
1071.29,0.080204,387377,322055
1074.96,0.079769,388536,323342
1078.63,0.078940,389855,325060
1082.3,0.078010,391215,326893
1085.96,0.077926,393215,328628
1090.84,0.076107,396270,332571
1094.49,0.075970,398760,334766
1098.14,0.075115,400987,337299
1101.79,0.074808,403477,339634
1105.43,0.074637,406116,341990
1109.06,0.073622,407701,344128
1112.7,0.073307,409859,346200
1117.53,0.073139,412494,348561
1121.15,0.073309,414909,350464
1124.77,0.073696,416559,351545
1128.38,0.075119,418532,352054
1131.99,0.075045,419956,353312
1135.6,0.077421,421946,353050
1139.2,0.078097,423881,354117
1143.99,0.079427,426786,355454
1147.58,0.081084,428617,355619
1151.17,0.081613,431169,357301
1154.75,0.082739,433579,358368
1158.33,0.084139,436264,359427
1161.91,0.085785,439132,360421
1165.48,0.087859,442389,361364
1169.04,0.090265,446101,362383
1173.79,0.093111,451929,364720
1177.34,0.096050,456026,365544
1180.9,0.097596,461306,368462
1184.44,0.099487,467657,371912
1187.99,0.100723,473969,375861
1191.52,0.100415,479856,380799
1195.06,0.100736,487372,386478
1199.76,0.099628,497347,395395
1203.29,0.099222,504311,401307
1206.81,0.097910,511507,408264
1210.33,0.098129,519078,414098
1213.84,0.097947,527163,420725
1217.35,0.096904,534208,427372
1220.85,0.096300,540472,432985
1225.51,0.095463,549929,441411
1229.01,0.094806,556888,447674
1232.5,0.094239,562180,452519
1235.98,0.093793,567975,457653
1239.46,0.092535,574815,464508
1242.94,0.091808,582782,471735
1246.41,0.091390,591476,479234
1251.03,0.091247,604016,489555
1254.5,0.091385,612289,496102
1257.96,0.092030,619125,500897
1261.41,0.092193,624551,505097
1264.86,0.092818,629900,508690
1268.31,0.093098,634345,511950
1271.75,0.093741,638574,514601
1276.33,0.094347,642499,517041
1279.76,0.094470,645905,519635
1283.19,0.093225,648307,523065
1286.61,0.093183,650446,524841
1290.03,0.092909,652132,526534
1293.44,0.092165,653907,528873
1296.85,0.091941,655963,530809
1301.39,0.091609,657349,532337
1304.8,0.091692,657558,532405
1308.19,0.091476,658515,533445
1311.58,0.092163,658804,532835
1314.97,0.092130,659011,533043
1318.36,0.092717,658272,531726
1321.73,0.092983,658022,531199
1326.23,0.093887,657870,529972
1329.6,0.094540,656482,528060
1332.97,0.095348,654926,525829
1336.33,0.095756,653727,524373
1339.69,0.097816,652497,520910
1343.04,0.099119,649913,517293
1346.39,0.101066,647671,513202
1349.73,0.102756,645338,509367
1354.18,0.105819,641175,502525
1357.52,0.107571,638376,498317
1360.85,0.109615,635805,493979
1364.17,0.111423,633413,490077
1367.49,0.113596,631026,485793
1370.81,0.116111,628050,480710
1374.12,0.117838,625034,476503
1378.54,0.120772,620272,469689
1381.84,0.123486,616892,464219
1385.14,0.126705,613613,458342
1388.43,0.129728,611526,453615
1391.72,0.133677,610663,448874
1395.01,0.137769,610634,444644
1398.29,0.142053,611700,441048
1402.66,0.147635,614051,437089
1405.93,0.153192,616268,433089
1409.2,0.156927,617795,430445
1412.46,0.160884,618872,427284
1415.72,0.165044,619795,423842
1418.98,0.168491,620495,420966
1422.23,0.171684,621087,418281
1426.56,0.175387,621375,414922
1429.8,0.177819,621616,412765
1433.04,0.180382,622129,410675
1436.27,0.182544,621526,408240
1439.5,0.184225,621113,406392
1442.72,0.187131,620921,403557
1445.94,0.189209,620270,401210
1450.23,0.192947,618860,396867
1453.44,0.195699,617697,393619
1456.64,0.198642,616264,390054
1459.85,0.201192,614413,386606
1463.04,0.204544,612307,382318
1466.24,0.208237,610032,377673
1469.43,0.212305,607345,372504
1473.67,0.218876,603789,364762
1476.85,0.224317,601175,358661
1480.02,0.230566,597737,351515
1483.19,0.237418,594479,344127
1486.36,0.243838,591232,337225
1489.52,0.247966,587853,332126
1492.68,0.251530,583875,327182
1496.89,0.253346,578062,322573
1500.03,0.254674,574159,319417
1503.18,0.254451,570285,317425
1506.32,0.253398,565444,315494
1509.45,0.252275,560571,313585
1512.58,0.250268,555821,312368
1515.71,0.248176,550344,310784
1519.87,0.245014,543983,309436
1522.99,0.242466,538764,308271
1526.1,0.239758,533692,307279
1529.21,0.236945,527902,305920
1532.32,0.234405,521886,304208
1535.42,0.231722,515888,302575
1538.51,0.228473,509987,301360
1541.6,0.225282,503936,299981
1545.72,0.221843,494694,296820
1548.8,0.218494,488378,295299
1551.88,0.216012,481832,293011
1554.95,0.214211,474989,290050
1558.02,0.211862,467818,287220
1561.08,0.211986,460730,282788
1564.15,0.211278,454170,279216
1568.22,0.210087,444181,273825
1571.27,0.209145,436947,269950
1574.32,0.209156,429598,265403
1577.36,0.207197,422039,261912
1580.4,0.206532,414375,257550
1583.43,0.204555,406354,253717
1586.46,0.203038,398475,249668
1590.49,0.201336,388982,244677
1593.51,0.200482,380708,239944
1596.53,0.197661,372727,236445
1599.54,0.195503,365060,232735
1602.55,0.194056,357543,228703
1605.55,0.192679,349495,224265
1608.55,0.189997,341154,220269
1612.54,0.187837,330877,214699
1615.53,0.185974,322904,210426
1618.51,0.184941,315116,205840
1621.49,0.183699,307217,201255
1624.47,0.182686,299481,196645
1627.44,0.182262,292112,191994
1630.41,0.181053,284245,187344
1634.36,0.179253,274079,181394
1637.32,0.178499,266916,176960
1640.27,0.178882,259612,171966
1643.22,0.178461,251804,166956
1646.16,0.177784,244348,162265
1649.1,0.176201,236703,157762
1652.04,0.173907,228171,152881
1655.95,0.170730,215408,145389
1658.88,0.168196,204937,139131
1661.8,0.162950,193395,132891
1664.72,0.154614,179728,125893
1667.63,0.142775,163642,117793
1670.54,0.126703,146312,109289
1673.44,0.111037,128451,99472
1677.31,0.090205,105080,85372
1680.21,0.078755,88906,74161
1683.1,0.074480,75033,63208
1685.99,0.074338,63520,53527
1688.87,0.072668,53714,45438
1691.75,0.080326,45653,37944
1694.62,0.083412,39137,32298
1697.49,0.086599,33776,27670
1701.31,0.097932,28175,22487