File: samples/wool/wool-000811/Column 1_050598_20150331_122238.csv
Method:,Column 1,,
Host Date-Time:,31/3/15 @ 12:22:38,,
Header Version:,1,,
System Temp (C):,33.97,,
Detector Temp (C):,34.69,,
Humidity (%):,1.76,,
Lamp PD:,3818,,
Shift Vector Coefficients:,-10.5391,0.0761263,-0.000134223,,
Pixel to Wavelength Coefficients:,1775.68,-0.916766,-0.000235065,,
Serial Number:,5510004,,
Scan Config Name:,Column 1,,
Scan Config Type:,Slew,,
Section 1,,
Start wavelength (nm):,900,,
End wavelength (nm):,1700,,
Pattern Pixel Width (nm):,   7.03,,,,
Exposure (ms):,  0.635,,,,
Digital Resolution:,228,,
Num Repeats:,6,,
PGA Gain:,64,,
Total Measurement Time in sec:,  2.729,,
Wavelength (nm),Absorbance (AU),Reference Signal (unitless),Sample Signal (unitless)
901.51,0.069125,108485,92522
905.376,0.075482,121306,101953
909.237,0.077203,131909,110426
913.095,0.077004,143299,120016
916.948,0.077770,156982,131244
922.079,0.080930,179937,149345
925.923,0.081291,200504,166277
929.762,0.082756,222660,184029
933.597,0.082557,244426,202111
937.427,0.080466,263972,219327
941.254,0.080616,281845,234096
945.076,0.079576,297271,247501
950.165,0.078437,315605,263455
953.978,0.077591,328029,274360
957.786,0.077861,340470,284589
961.59,0.078382,352317,294138
965.389,0.078650,363056,302917
969.185,0.078403,373162,311526
972.976,0.078656,382632,319246
976.763,0.079438,391202,325809
981.806,0.079784,400190,333029
985.583,0.080376,406088,337477
989.355,0.080118,410162,341065
993.124,0.081569,412868,342170
996.888,0.081504,414263,343378
1000.65,0.082536,415476,343566
1004.4,0.083323,415479,342946
1009.41,0.084765,414358,340887
1013.15,0.085112,412923,339435
1016.89,0.085898,411526,337675
1020.63,0.085428,409066,336020
1024.36,0.085069,406777,334416
1028.09,0.085614,404427,332067
1031.82,0.085636,401911,329985
1036.78,0.085283,398410,327376
1040.49,0.084528,396204,326130
1044.2,0.084663,394236,324409
1047.91,0.084565,392042,322677
1051.61,0.084502,389823,320897
1055.31,0.083313,388234,320465
1059,0.082689,387599,320401
1063.92,0.082116,386688,320070
1067.61,0.081586,386598,320386
1071.29,0.081056,387377,321424
1074.96,0.080858,388536,322532
1078.63,0.080199,389855,324119
1082.3,0.078615,391215,326438
1085.96,0.077721,393215,328783
1090.84,0.077412,396270,331573
1094.49,0.077060,398760,333927
1098.14,0.076552,400987,336185
1101.79,0.076373,403477,338412
1105.43,0.075866,406116,341023
1109.06,0.075051,407701,342997
1112.7,0.075052,409859,344812
1117.53,0.074752,412494,347269
1121.15,0.074614,414909,349413
1124.77,0.075013,416559,350480
1128.38,0.075960,418532,351373
1131.99,0.076767,419956,351914
1135.6,0.078734,421946,351984
1139.2,0.079873,423881,352672
1143.99,0.081747,426786,353560
1147.58,0.082799,428617,354218
1151.17,0.083077,431169,356099
1154.75,0.084714,433579,356742
1158.33,0.085498,436264,358304
1161.91,0.087111,439132,359322
1165.48,0.089457,442389,360037
1169.04,0.091596,446101,361274
1173.79,0.095030,451929,363112
1177.34,0.096961,456026,364778
1180.9,0.099390,461306,366943
1184.44,0.101272,467657,370387
1187.99,0.102466,473969,374355
1191.52,0.101986,479856,379424
1195.06,0.101800,487372,385532
1199.76,0.101655,497347,393554
1203.29,0.100868,504311,399789
1206.81,0.100026,511507,406280
1210.33,0.099724,519078,412580
1213.84,0.099246,527163,419468
1217.35,0.098428,534208,425875
1220.85,0.097777,540472,431515
1225.51,0.097577,549929,439268
1229.01,0.096768,556888,445656
1232.5,0.096365,562180,450309
1235.98,0.095119,567975,456258
1239.46,0.094527,574815,462382
1242.94,0.093315,582782,470101
1246.41,0.093325,591476,477103
1251.03,0.092793,604016,487815
1254.5,0.092743,612289,494554
1257.96,0.093507,619125,499196
1261.41,0.093744,624551,503297
1264.86,0.094526,629900,506694
1268.31,0.095091,634345,509606
1271.75,0.095843,638574,512116
1276.33,0.095931,642499,515159
1279.76,0.095487,645905,518420
1283.19,0.094843,648307,521120
1286.61,0.094960,650446,522699
1290.03,0.094631,652132,524451
1293.44,0.093896,653907,526769
1296.85,0.093886,655963,528437
1301.39,0.093928,657349,529503
1304.8,0.093208,657558,530550
1308.19,0.093675,658515,530751
1311.58,0.093811,658804,530817
1314.97,0.094385,659011,530283
1318.36,0.094518,658272,529526
1321.73,0.095280,658022,528397
1326.23,0.096021,657870,527374
1329.6,0.096927,656482,525165
1332.97,0.097754,654926,522923
1336.33,0.098906,653727,520583
1339.69,0.100312,652497,517924
1343.04,0.101618,649913,514325
1346.39,0.103834,647671,509942
1349.73,0.105593,645338,506051
1354.18,0.108448,641175,499492
1357.52,0.110529,638376,494934
1360.85,0.112660,635805,490528
1364.17,0.114363,633413,486770
1367.49,0.117130,631026,481856
1370.81,0.118741,628050,477808
1374.12,0.120662,625034,473415
1378.54,0.124025,620272,466184
1381.84,0.126978,616892,460502
1385.14,0.129862,613613,455022
1388.43,0.133707,611526,449477
1391.72,0.138257,610663,444165
1395.01,0.142503,610634,439823
1398.29,0.146994,611700,436058
1402.66,0.153417,614051,431308
1405.93,0.159078,616268,427259
1409.2,0.163318,617795,424157
1412.46,0.168168,618872,420178
1415.72,0.172396,619795,416727
1418.98,0.175873,620495,413871
1422.23,0.179361,621087,410952
1426.56,0.183608,621375,407142
1429.8,0.185811,621616,405239
1433.04,0.188325,622129,403232
1436.27,0.190418,621526,400905
1439.5,0.192297,621113,398909
1442.72,0.195100,620921,396220
1445.94,0.197082,620270,394002
1450.23,0.200772,618860,389781
1453.44,0.203115,617697,386955
1456.64,0.206024,616264,383480
1459.85,0.208652,614413,380022
1463.04,0.211225,612307,376482
1466.24,0.214876,610032,371943
1469.43,0.218671,607345,367083
1473.67,0.224050,603789,360442
1476.85,0.229852,601175,354119
1480.02,0.235705,597737,347380
1483.19,0.241854,594479,340630
1486.36,0.247518,591232,334380
1489.52,0.252131,587853,328956
1492.68,0.255522,583875,324189
1496.89,0.257944,578062,319176
1500.03,0.258414,574159,316678
1503.18,0.258066,570285,314794
1506.32,0.257046,565444,312855
1509.45,0.255648,560571,311159
1512.58,0.254163,555821,309579
1515.71,0.251883,550344,308142
1519.87,0.249118,543983,306526
1522.99,0.246585,538764,305361
1526.1,0.243835,533692,304408
1529.21,0.241545,527902,302697
1532.32,0.238878,521886,301091
1535.42,0.235323,515888,300077
1538.51,0.232594,509987,298514
1541.6,0.229603,503936,297011
1545.72,0.225908,494694,294055
1548.8,0.223135,488378,292160
1551.88,0.220472,481832,290017
1554.95,0.218340,474989,287305
1558.02,0.216913,467818,283899
1561.08,0.215901,460730,280250
1564.15,0.215616,454170,276441
1568.22,0.213867,444181,271452
1571.27,0.213890,436947,267017
1574.32,0.212320,429598,263477
1577.36,0.211051,422039,259598
1580.4,0.210445,414375,255240
1583.43,0.208424,406354,251467
1586.46,0.206419,398475,247732
1590.49,0.205316,388982,242445
1593.51,0.203424,380708,238324
1596.53,0.201489,372727,234370
1599.54,0.199554,365060,230574
1602.55,0.197092,357543,227110
1605.55,0.195136,349495,223000
1608.55,0.193585,341154,218457
1612.54,0.191969,330877,212666
1615.53,0.190230,322904,208374
1618.51,0.188459,315116,204179
1621.49,0.187228,307217,199626
1624.47,0.186050,299481,195128
1627.44,0.186204,292112,190259
1630.41,0.184477,284245,185873
1634.36,0.183342,274079,179694
1637.32,0.182935,266916,175162
1640.27,0.182896,259612,170384
1643.22,0.179891,251804,166407
1646.16,0.181428,244348,160909
1649.1,0.180261,236703,156294
1652.04,0.179099,228171,151064
1655.95,0.173836,215408,144353
1658.88,0.170880,204937,138274
1661.8,0.165188,193395,132208
1664.72,0.157925,179728,124937
1667.63,0.146181,163642,116873
1670.54,0.131141,146312,108178
1673.44,0.114953,128451,98579
1677.31,0.094365,105080,84558
1680.21,0.082514,88906,73522
1683.1,0.078935,75033,62563
1685.99,0.079168,63520,52935
1688.87,0.084243,53714,44243
1691.75,0.088343,45653,37250
1694.62,0.088879,39137,31894
1697.49,0.099292,33776,26873
1701.31,0.104235,28175,22163