File: samples/wool/wool-000811/Column 1_050611_20150331_122846.csv
Method:,Column 1,,
Host Date-Time:,31/3/15 @ 12:28:46,,
Header Version:,1,,
System Temp (C):,34.07,,
Detector Temp (C):,34.9,,
Humidity (%):,1.66,,
Lamp PD:,3818,,
Shift Vector Coefficients:,-10.5391,0.0761263,-0.000134223,,
Pixel to Wavelength Coefficients:,1775.68,-0.916766,-0.000235065,,
Serial Number:,5510004,,
Scan Config Name:,Column 1,,
Scan Config Type:,Slew,,
Section 1,,
Start wavelength (nm):,900,,
End wavelength (nm):,1700,,
Pattern Pixel Width (nm):,   7.03,,,,
Exposure (ms):,  0.635,,,,
Digital Resolution:,228,,
Num Repeats:,6,,
PGA Gain:,64,,
Total Measurement Time in sec:,  2.669,,
Wavelength (nm),Absorbance (AU),Reference Signal (unitless),Sample Signal (unitless)
901.51,0.069312,108485,92482
905.376,0.072718,121306,102604
909.237,0.076209,131909,110679
913.095,0.076646,143299,120115
916.948,0.076746,156982,131554
922.079,0.078711,179937,150110
925.923,0.080498,200504,166581
929.762,0.081714,222660,184471
933.597,0.081386,244426,202657
937.427,0.080044,263972,219540
941.254,0.078869,281845,235040
945.076,0.078237,297271,248265
950.165,0.076897,315605,264391
953.978,0.077036,328029,274711
957.786,0.077612,340470,284752
961.59,0.077996,352317,294400
965.389,0.077139,363056,303973
969.185,0.076590,373162,312829
972.976,0.077592,382632,320029
976.763,0.077828,391202,327019
981.806,0.078121,400190,334307
985.583,0.078710,406088,338774
989.355,0.079258,410162,341741
993.124,0.079797,412868,343569
996.888,0.080401,414263,344251
1000.65,0.080869,415476,344887
1004.4,0.082332,415479,343730
1009.41,0.083287,414358,342049
1013.15,0.083743,412923,340507
1016.89,0.084171,411526,339021
1020.63,0.084116,409066,337037
1024.36,0.084509,406777,334848
1028.09,0.083509,404427,333681
1031.82,0.083708,401911,331453
1036.78,0.083556,398410,328681
1040.49,0.083411,396204,326970
1044.2,0.083384,394236,325366
1047.91,0.082755,392042,324024
1051.61,0.082914,389823,322072
1055.31,0.082622,388234,320975
1059,0.081776,387599,321075
1063.92,0.080528,386688,321242
1067.61,0.080081,386598,321498
1071.29,0.080015,387377,322195
1074.96,0.079334,388536,323666
1078.63,0.079246,389855,324831
1082.3,0.078330,391215,326652
1085.96,0.077094,393215,329258
1090.84,0.076326,396270,332403
1094.49,0.076147,398760,334630
1098.14,0.075602,400987,336921
1101.79,0.074574,403477,339817
1105.43,0.074830,406116,341838
1109.06,0.073873,407701,343929
1112.7,0.073845,409859,345772
1117.53,0.072882,412494,348767
1121.15,0.073752,414909,350107
1124.77,0.073686,416559,351553
1128.38,0.074636,418532,352446
1131.99,0.075372,419956,353046
1135.6,0.077187,421946,353240
1139.2,0.078670,423881,353650
1143.99,0.080440,426786,354626
1147.58,0.081556,428617,355233
1151.17,0.081991,431169,356990
1154.75,0.083250,433579,357947
1158.33,0.083991,436264,359549
1161.91,0.086203,439132,360074
1165.48,0.088313,442389,360987
1169.04,0.090481,446101,362203
1173.79,0.093537,451929,364362
1177.34,0.095672,456026,365862
1180.9,0.097706,461306,368369
1184.44,0.100412,467657,371121
1187.99,0.100769,473969,375821
1191.52,0.100521,479856,380706
1195.06,0.100302,487372,386864
1199.76,0.099821,497347,395220
1203.29,0.099096,504311,401423
1206.81,0.099233,511507,407023
1210.33,0.098395,519078,413845
1213.84,0.097366,527163,421288
1217.35,0.097089,534208,427190
1220.85,0.096140,540472,433145
1225.51,0.095495,549929,441379
1229.01,0.095058,556888,447414
1232.5,0.094647,562180,452094
1235.98,0.093987,567975,457449
1239.46,0.092580,574815,464460
1242.94,0.091441,582782,472134
1246.41,0.091326,591476,479304
1251.03,0.091101,604016,489720
1254.5,0.091756,612289,495679
1257.96,0.091913,619125,501032
1261.41,0.092198,624551,505091
1264.86,0.092905,629900,508589
1268.31,0.093347,634345,511656
1271.75,0.093882,638574,514434
1276.33,0.094377,642499,517006
1279.76,0.094108,645905,520069
1283.19,0.093827,648307,522340
1286.61,0.093077,650446,524970
1290.03,0.093131,652132,526265
1293.44,0.092418,653907,528565
1296.85,0.091940,655963,530810
1301.39,0.091722,657349,532199
1304.8,0.091726,657558,532363
1308.19,0.092244,658515,532502
1311.58,0.091994,658804,533043
1314.97,0.092432,659011,532673
1318.36,0.092975,658272,531411
1321.73,0.093456,658022,530621
1326.23,0.094168,657870,529630
1329.6,0.094748,656482,527807
1332.97,0.095539,654926,525597
1336.33,0.096620,653727,523331
1339.69,0.097752,652497,520986
1343.04,0.099544,649913,516787
1346.39,0.101881,647671,512240
1349.73,0.103425,645338,508583
1354.18,0.106070,641175,502234
1357.52,0.108408,638376,497357
1360.85,0.110254,635805,493253
1364.17,0.112304,633413,489084
1367.49,0.114599,631026,484672
1370.81,0.116596,628050,480174
1374.12,0.118413,625034,475873
1378.54,0.121436,620272,468971
1381.84,0.124075,616892,463590
1385.14,0.127422,613613,457586
1388.43,0.131045,611526,452241
1391.72,0.135160,610663,447344
1395.01,0.139029,610634,443355
1398.29,0.143766,611700,439311
1402.66,0.149364,614051,435352
1405.93,0.154703,616268,431585
1409.2,0.159079,617795,428317
1412.46,0.163760,618872,424464
1415.72,0.167296,619795,421650
1418.98,0.171103,620495,418442
1422.23,0.174521,621087,415558
1426.56,0.177632,621375,412783
1429.8,0.180297,621616,410417
1433.04,0.182969,622129,408236
1436.27,0.185134,621526,405812
1439.5,0.186803,621113,403987
1442.72,0.189314,620921,401534
1445.94,0.191999,620270,398641
1450.23,0.195569,618860,394479
1453.44,0.198408,617697,391172
1456.64,0.201093,616264,387859
1459.85,0.203501,614413,384556
1463.04,0.206410,612307,380679
1466.24,0.210343,610032,375846
1469.43,0.214307,607345,370790
1473.67,0.220118,603789,363720
1476.85,0.225044,601175,358061
1480.02,0.231541,597737,350727
1483.19,0.238142,594479,343554
1486.36,0.243932,591232,337152
1489.52,0.248958,587853,331368
1492.68,0.252567,583875,326402
1496.89,0.254881,578062,321435
1500.03,0.255308,574159,318951
1503.18,0.254449,570285,317426
1506.32,0.254784,565444,314489
1509.45,0.252977,560571,313079
1512.58,0.251523,555821,311467
1515.71,0.248997,550344,310197
1519.87,0.245769,543983,308899
1522.99,0.243162,538764,307777
1526.1,0.240602,533692,306682
1529.21,0.238140,527902,305080
1532.32,0.235117,521886,303710
1535.42,0.232183,515888,302254
1538.51,0.229036,509987,300970
1541.6,0.226122,503936,299401
1545.72,0.222488,494694,296380
1548.8,0.219658,488378,294509
1551.88,0.217727,481832,291856
1554.95,0.215684,474989,289068
1558.02,0.214083,467818,285755
1561.08,0.212689,460730,282330
1564.15,0.211960,454170,278778
1568.22,0.210966,444181,273271
1571.27,0.210155,436947,269323
1574.32,0.208906,429598,265556
1577.36,0.207884,422039,261498
1580.4,0.206868,414375,257351
1583.43,0.205865,406354,252953
1586.46,0.204205,398475,248998
1590.49,0.202659,388982,243933
1593.51,0.200524,380708,239921
1596.53,0.198223,372727,236139
1599.54,0.196631,365060,232131
1602.55,0.195683,357543,227848
1605.55,0.193340,349495,223924
1608.55,0.190812,341154,219856
1612.54,0.188179,330877,214530
1615.53,0.187622,322904,209629
1618.51,0.185794,315116,205436
1621.49,0.186465,307217,199977
1624.47,0.184253,299481,195937
1627.44,0.182751,292112,191778
1630.41,0.182351,284245,186785
1634.36,0.181057,274079,180642
1637.32,0.179844,266916,176413
1640.27,0.179537,259612,171707
1643.22,0.178638,251804,166888
1646.16,0.177222,244348,162475
1649.1,0.176289,236703,157730
1652.04,0.175427,228171,152347
1655.95,0.172859,215408,144678
1658.88,0.168209,204937,139127
1661.8,0.163466,193395,132733
1664.72,0.156076,179728,125470
1667.63,0.143329,163642,117643
1670.54,0.129002,146312,108712
1673.44,0.112217,128451,99202
1677.31,0.091800,105080,85059
1680.21,0.079066,88906,74108
1683.1,0.071863,75033,63590
1685.99,0.072411,63520,53765
1688.87,0.075747,53714,45117
1691.75,0.081082,45653,37878
1694.62,0.081976,39137,32405
1697.49,0.083253,33776,27884
1701.31,0.093570,28175,22714