File: samples/wool/wool-000811/Column 1_050564_20150331_120621.csv
Method:,Column 1,,
Host Date-Time:,31/3/15 @ 12:6:21,,
Header Version:,1,,
System Temp (C):,33.85,,
Detector Temp (C):,33.55,,
Humidity (%):,1.95,,
Lamp PD:,3819,,
Shift Vector Coefficients:,-10.5391,0.0761263,-0.000134223,,
Pixel to Wavelength Coefficients:,1775.68,-0.916766,-0.000235065,,
Serial Number:,5510004,,
Scan Config Name:,Column 1,,
Scan Config Type:,Slew,,
Section 1,,
Start wavelength (nm):,900,,
End wavelength (nm):,1700,,
Pattern Pixel Width (nm):,   7.03,,,,
Exposure (ms):,  0.635,,,,
Digital Resolution:,228,,
Num Repeats:,6,,
PGA Gain:,64,,
Total Measurement Time in sec:,  2.688,,
Wavelength (nm),Absorbance (AU),Reference Signal (unitless),Sample Signal (unitless)
901.51,0.033675,108485,100391
905.376,0.037785,121306,111198
909.237,0.042068,131909,119731
913.095,0.042928,143299,129812
916.948,0.043763,156982,141934
922.079,0.046013,179937,161848
925.923,0.046532,200504,180132
929.762,0.047530,222660,199578
933.597,0.047628,244426,219038
937.427,0.047141,263972,236819
941.254,0.046761,281845,253075
945.076,0.045366,297271,267785
950.165,0.045544,315605,284184
953.978,0.045696,328029,295268
957.786,0.046098,340470,306183
961.59,0.045332,352317,317396
965.389,0.045735,363056,326767
969.185,0.046030,373162,335635
972.976,0.046752,382632,343581
976.763,0.047366,391202,350780
981.806,0.047733,400190,358536
985.583,0.048498,406088,363180
989.355,0.049307,410162,366141
993.124,0.049584,412868,368322
996.888,0.050377,414263,368892
1000.65,0.051037,415476,369410
1004.4,0.052312,415479,368330
1009.41,0.053175,414358,366607
1013.15,0.053556,412923,365017
1016.89,0.054424,411526,363056
1020.63,0.054250,409066,361030
1024.36,0.054153,406777,359090
1028.09,0.054028,404427,357118
1031.82,0.053648,401911,355207
1036.78,0.053289,398410,352404
1040.49,0.053221,396204,350508
1044.2,0.052580,394236,349282
1047.91,0.052222,392042,347625
1051.61,0.052475,389823,345456
1055.31,0.051419,388234,344885
1059,0.050210,387599,345281
1063.92,0.049537,386688,345004
1067.61,0.048731,386598,345564
1071.29,0.047901,387377,346923
1074.96,0.047835,388536,348014
1078.63,0.047662,389855,349334
1082.3,0.046438,391215,351542
1085.96,0.045496,393215,354107
1090.84,0.045541,396270,356821
1094.49,0.044693,398760,359765
1098.14,0.044651,400987,361809
1101.79,0.043902,403477,364684
1105.43,0.044202,406116,366816
1109.06,0.043397,407701,368931
1112.7,0.044268,409859,370140
1117.53,0.043615,412494,373081
1121.15,0.044619,414909,374398
1124.77,0.045116,416559,375457
1128.38,0.046527,418532,376012
1131.99,0.047259,419956,376656
1135.6,0.049840,421946,376198
1139.2,0.051211,423881,376732
1143.99,0.053822,426786,377041
1147.58,0.054699,428617,377894
1151.17,0.055539,431169,379410
1154.75,0.057020,433579,380232
1158.33,0.058954,436264,380886
1161.91,0.061203,439132,381410
1165.48,0.063388,442389,382311
1169.04,0.066341,446101,382906
1173.79,0.069266,451929,385305
1177.34,0.072223,456026,386159
1180.9,0.074220,461306,388838
1184.44,0.075590,467657,392950
1187.99,0.076696,473969,397241
1191.52,0.076693,479856,402178
1195.06,0.076457,487372,408699
1199.76,0.075788,497347,417707
1203.29,0.074625,504311,424691
1206.81,0.074073,511507,431299
1210.33,0.073603,519078,438157
1213.84,0.072419,527163,446196
1217.35,0.071769,534208,452836
1220.85,0.070654,540472,459324
1225.51,0.070088,549929,467971
1229.01,0.069460,556888,474578
1232.5,0.068655,562180,479977
1235.98,0.068051,567975,485600
1239.46,0.067304,574815,492294
1242.94,0.065745,582782,500912
1246.41,0.065347,591476,508850
1251.03,0.065261,604016,519742
1254.5,0.065162,612289,526980
1257.96,0.065913,619125,531943
1261.41,0.066541,624551,535830
1264.86,0.067436,629900,539307
1268.31,0.067697,634345,542786
1271.75,0.068463,638574,545441
1276.33,0.068485,642499,548766
1279.76,0.068737,645905,551355
1283.19,0.068022,648307,554318
1286.61,0.067960,650446,556226
1290.03,0.067545,652132,558201
1293.44,0.067042,653907,560369
1296.85,0.066893,655963,562324
1301.39,0.066479,657349,564049
1304.8,0.066447,657558,564270
1308.19,0.066472,658515,565059
1311.58,0.067042,658804,564565
1314.97,0.067866,659011,563672
1318.36,0.068168,658272,562649
1321.73,0.068188,658022,562409
1326.23,0.069698,657870,560328
1329.6,0.070340,656482,558320
1332.97,0.071146,654926,555964
1336.33,0.072496,653727,553223
1339.69,0.074217,652497,549998
1343.04,0.075775,649913,545859
1346.39,0.078025,647671,541165
1349.73,0.080353,645338,536333
1354.18,0.083533,641175,528985
1357.52,0.085943,638376,523761
1360.85,0.088178,635805,518974
1364.17,0.090286,633413,514519
1367.49,0.092584,631026,509874
1370.81,0.095453,628050,504129
1374.12,0.097725,625034,499090
1378.54,0.100853,620272,491733
1381.84,0.104573,616892,484882
1385.14,0.108582,613613,477873
1388.43,0.112821,611526,471622
1391.72,0.117753,610663,465638
1395.01,0.122616,610634,460431
1398.29,0.127940,611700,455615
1402.66,0.135346,614051,449633
1405.93,0.140931,616268,445491
1409.2,0.146697,617795,440704
1412.46,0.151643,618872,436473
1415.72,0.156177,619795,432585
1418.98,0.160964,620495,428326
1422.23,0.164277,621087,425476
1426.56,0.168764,621375,421298
1429.8,0.170894,621616,419400
1433.04,0.174257,622129,416508
1436.27,0.176659,621526,413809
1439.5,0.178530,621113,411757
1442.72,0.181198,620921,409108
1445.94,0.184168,620270,405894
1450.23,0.187448,618860,401924
1453.44,0.190143,617697,398687
1456.64,0.193018,616264,395138
1459.85,0.196227,614413,391051
1463.04,0.198737,612307,387465
1466.24,0.202270,610032,382898
1469.43,0.205895,607345,378042
1473.67,0.211742,603789,370803
1476.85,0.217567,601175,364279
1480.02,0.223537,597737,357251
1483.19,0.230351,594479,349772
1486.36,0.236246,591232,343172
1489.52,0.241617,587853,337017
1492.68,0.245044,583875,332105
1496.89,0.247848,578062,326683
1500.03,0.247682,574159,324601
1503.18,0.248134,570285,322076
1506.32,0.246652,565444,320433
1509.45,0.245989,560571,318157
1512.58,0.244893,555821,316258
1515.71,0.242229,550344,315069
1519.87,0.238513,543983,314103
1522.99,0.235807,538764,313034
1526.1,0.233071,533692,312047
1529.21,0.230081,527902,310794
1532.32,0.227262,521886,309253
1535.42,0.224398,515888,307721
1538.51,0.221042,509987,306561
1541.6,0.218182,503936,304925
1545.72,0.213374,494694,302665
1548.8,0.210345,488378,300892
1551.88,0.207197,481832,299019
1554.95,0.205055,474989,296230
1558.02,0.203823,467818,292586
1561.08,0.202008,460730,289360
1564.15,0.202038,454170,285220
1568.22,0.200444,444181,279973
1571.27,0.199663,436947,275909
1574.32,0.198380,429598,272071
1577.36,0.197539,422039,267802
1580.4,0.195969,414375,263891
1583.43,0.194729,406354,259523
1586.46,0.192166,398475,255997
1590.49,0.189516,388982,251428
1593.51,0.187795,380708,247057
1596.53,0.185745,372727,243022
1599.54,0.183549,365060,239230
1602.55,0.180917,357543,235728
1605.55,0.179673,349495,231083
1608.55,0.177135,341154,226890
1612.54,0.174501,330877,221394
1615.53,0.172618,322904,216998
1618.51,0.171875,315116,212127
1621.49,0.169528,307217,207930
1624.47,0.169325,299481,202789
1627.44,0.168413,292112,198215
1630.41,0.166980,284245,193514
1634.36,0.165549,274079,187209
1637.32,0.164049,266916,182947
1640.27,0.163932,259612,177989
1643.22,0.161573,251804,173576
1646.16,0.162728,244348,167989
1649.1,0.161191,236703,163310
1652.04,0.159384,228171,158080
1655.95,0.157240,215408,149976
1658.88,0.152968,204937,144096
1661.8,0.149617,193395,137034
1664.72,0.142836,179728,129354
1667.63,0.133979,163642,120203
1670.54,0.120728,146312,110803
1673.44,0.107636,128451,100254
1677.31,0.092531,105080,84916
1680.21,0.086555,88906,72841
1683.1,0.083723,75033,61877
1685.99,0.085531,63520,52165
1688.87,0.091828,53714,43477
1691.75,0.096855,45653,36527
1694.62,0.099074,39137,31154
1697.49,0.101674,33776,26726
1701.31,0.109043,28175,21919