File: samples/wool/wool-000811/Column 1_050608_20150331_122729.csv
Method:,Column 1,,
Host Date-Time:,31/3/15 @ 12:27:29,,
Header Version:,1,,
System Temp (C):,34.03,,
Detector Temp (C):,34.9,,
Humidity (%):,1.66,,
Lamp PD:,3818,,
Shift Vector Coefficients:,-10.5391,0.0761263,-0.000134223,,
Pixel to Wavelength Coefficients:,1775.68,-0.916766,-0.000235065,,
Serial Number:,5510004,,
Scan Config Name:,Column 1,,
Scan Config Type:,Slew,,
Section 1,,
Start wavelength (nm):,900,,
End wavelength (nm):,1700,,
Pattern Pixel Width (nm):,   7.03,,,,
Exposure (ms):,  0.635,,,,
Digital Resolution:,228,,
Num Repeats:,6,,
PGA Gain:,64,,
Total Measurement Time in sec:,  2.681,,
Wavelength (nm),Absorbance (AU),Reference Signal (unitless),Sample Signal (unitless)
901.51,0.068895,108485,92571
905.376,0.075171,121306,102026
909.237,0.076311,131909,110653
913.095,0.078352,143299,119644
916.948,0.079003,156982,130872
922.079,0.079380,179937,149879
925.923,0.081267,200504,166286
929.762,0.083420,222660,183748
933.597,0.082100,244426,202324
937.427,0.080777,263972,219170
941.254,0.079882,281845,234492
945.076,0.079200,297271,247715
950.165,0.078050,315605,263690
953.978,0.077046,328029,274705
957.786,0.077280,340470,284970
961.59,0.078098,352317,294331
965.389,0.077502,363056,303719
969.185,0.077567,373162,312126
972.976,0.078188,382632,319590
976.763,0.077820,391202,327025
981.806,0.078681,400190,333876
985.583,0.079266,406088,338341
989.355,0.080018,410162,341144
993.124,0.080637,412868,342905
996.888,0.080993,414263,343782
1000.65,0.080804,415476,344939
1004.4,0.082250,415479,343795
1009.41,0.083770,414358,341669
1013.15,0.083962,412923,340335
1016.89,0.084603,411526,338684
1020.63,0.084635,409066,336634
1024.36,0.084976,406777,334488
1028.09,0.084618,404427,332830
1031.82,0.084308,401911,330995
1036.78,0.083995,398410,328349
1040.49,0.083832,396204,326653
1044.2,0.083988,394236,324914
1047.91,0.083481,392042,323483
1051.61,0.083338,389823,321758
1055.31,0.082437,388234,321112
1059,0.082309,387599,320681
1063.92,0.081461,386688,320553
1067.61,0.081251,386598,320633
1071.29,0.079977,387377,322223
1074.96,0.080145,388536,323062
1078.63,0.079189,389855,324873
1082.3,0.077896,391215,326979
1085.96,0.077877,393215,328665
1090.84,0.076418,396270,332333
1094.49,0.076199,398760,334590
1098.14,0.075347,400987,337119
1101.79,0.075354,403477,339207
1105.43,0.074868,406116,341808
1109.06,0.074198,407701,343672
1112.7,0.073423,409859,346108
1117.53,0.073609,412494,348184
1121.15,0.074101,414909,349826
1124.77,0.074457,416559,350929
1128.38,0.075181,418532,352004
1131.99,0.076136,419956,352426
1135.6,0.077545,421946,352949
1139.2,0.079013,423881,353371
1143.99,0.080666,426786,354441
1147.58,0.082034,428617,354842
1151.17,0.082894,431169,356249
1154.75,0.083855,433579,357448
1158.33,0.084330,436264,359269
1161.91,0.086133,439132,360132
1165.48,0.088691,442389,360673
1169.04,0.090956,446101,361807
1173.79,0.094142,451929,363855
1177.34,0.096209,456026,365410
1180.9,0.098565,461306,367641
1184.44,0.100194,467657,371307
1187.99,0.101489,473969,375198
1191.52,0.100905,479856,380370
1195.06,0.101427,487372,385863
1199.76,0.100764,497347,394362
1203.29,0.099387,504311,401154
1206.81,0.099122,511507,407127
1210.33,0.098551,519078,413696
1213.84,0.098212,527163,420468
1217.35,0.097782,534208,426509
1220.85,0.096782,540472,432505
1225.51,0.096411,549929,440449
1229.01,0.095627,556888,446828
1232.5,0.094876,562180,451855
1235.98,0.094774,567975,456620
1239.46,0.093438,574815,463543
1242.94,0.092768,582782,470693
1246.41,0.091983,591476,478579
1251.03,0.091511,604016,489258
1254.5,0.091848,612289,495574
1257.96,0.092158,619125,500749
1261.41,0.092600,624551,504624
1264.86,0.093577,629900,507802
1268.31,0.093613,634345,511343
1271.75,0.094271,638574,513973
1276.33,0.094076,642499,517364
1279.76,0.094366,645905,519760
1283.19,0.093815,648307,522355
1286.61,0.093973,650446,523888
1290.03,0.093137,652132,526258
1293.44,0.092587,653907,528359
1296.85,0.092542,655963,530075
1301.39,0.092470,657349,531283
1304.8,0.092345,657558,531605
1308.19,0.092540,658515,532140
1311.58,0.092567,658804,532340
1314.97,0.093079,659011,531880
1318.36,0.093120,658272,531233
1321.73,0.093761,658022,530248
1326.23,0.094661,657870,529029
1329.6,0.095108,656482,527369
1332.97,0.096397,654926,524560
1336.33,0.097018,653727,522851
1339.69,0.098589,652497,519984
1343.04,0.100139,649913,516079
1346.39,0.102255,647671,511799
1349.73,0.103922,645338,508002
1354.18,0.106827,641175,501360
1357.52,0.108754,638376,496961
1360.85,0.111038,635805,492364
1364.17,0.112556,633413,488800
1367.49,0.114968,631026,484261
1370.81,0.117051,628050,479671
1374.12,0.119223,625034,474986
1378.54,0.121899,620272,468472
1381.84,0.125216,616892,462374
1385.14,0.128018,613613,456958
1388.43,0.131795,611526,451461
1391.72,0.135578,610663,446914
1395.01,0.139636,610634,442736
1398.29,0.143787,611700,439290
1402.66,0.150467,614051,434248
1405.93,0.154872,616268,431417
1409.2,0.160025,617795,427385
1412.46,0.164613,618872,423631
1415.72,0.168784,619795,420208
1418.98,0.172049,620495,417532
1422.23,0.175210,621087,414899
1426.56,0.179007,621375,411478
1429.8,0.181680,621616,409112
1433.04,0.183588,622129,407655
1436.27,0.185911,621526,405087
1439.5,0.187800,621113,403061
1442.72,0.190805,620921,400158
1445.94,0.193425,620270,397334
1450.23,0.196489,618860,393644
1453.44,0.199156,617697,390499
1456.64,0.201991,616264,387058
1459.85,0.205271,614413,382992
1463.04,0.207975,612307,379310
1466.24,0.211423,610032,374912
1469.43,0.214804,607345,370366
1473.67,0.221096,603789,362902
1476.85,0.226342,601175,356992
1480.02,0.232782,597737,349726
1483.19,0.239459,594479,342513
1486.36,0.245279,591232,336108
1489.52,0.249899,587853,330651
1492.68,0.253410,583875,325769
1496.89,0.255153,578062,321234
1500.03,0.256052,574159,318405
1503.18,0.256502,570285,315929
1506.32,0.254949,565444,314370
1509.45,0.253760,560571,312515
1512.58,0.251754,555821,311301
1515.71,0.249613,550344,309757
1519.87,0.247056,543983,307985
1522.99,0.244308,538764,306966
1526.1,0.241677,533692,305924
1529.21,0.238986,527902,304486
1532.32,0.236202,521886,302952
1535.42,0.233383,515888,301420
1538.51,0.229830,509987,300420
1541.6,0.228158,503936,298001
1545.72,0.223975,494694,295367
1548.8,0.220406,488378,294002
1551.88,0.217990,481832,291679
1554.95,0.216693,474989,288397
1558.02,0.214282,467818,285624
1561.08,0.213823,460730,281594
1564.15,0.213144,454170,278019
1568.22,0.211988,444181,272629
1571.27,0.211101,436947,268737
1574.32,0.210169,429598,264785
1577.36,0.209445,422039,260560
1580.4,0.208213,414375,256555
1583.43,0.207156,406354,252202
1586.46,0.205654,398475,248169
1590.49,0.203416,388982,243508
1593.51,0.202160,380708,239019
1596.53,0.199059,372727,235685
1599.54,0.197479,365060,231678
1602.55,0.195763,357543,227806
1605.55,0.193713,349495,223732
1608.55,0.191087,341154,219717
1612.54,0.190507,330877,213383
1615.53,0.189422,322904,208762
1618.51,0.187242,315116,204752
1621.49,0.185604,307217,200374
1624.47,0.185431,299481,195406
1627.44,0.184314,292112,191089
1630.41,0.182611,284245,186673
1634.36,0.181678,274079,180384
1637.32,0.181665,266916,175675
1640.27,0.181204,259612,171049
1643.22,0.179080,251804,166718
1646.16,0.177977,244348,162193
1649.1,0.178589,236703,156897
1652.04,0.176877,228171,151839
1655.95,0.174342,215408,144185
1658.88,0.167373,204937,139395
1661.8,0.164420,193395,132442
1664.72,0.156769,179728,125270
1667.63,0.143946,163642,117476
1670.54,0.129822,146312,108507
1673.44,0.114425,128451,98699
1677.31,0.091407,105080,85136
1680.21,0.082502,88906,73524
1683.1,0.077632,75033,62751
1685.99,0.078635,63520,53000
1688.87,0.084528,53714,44214
1691.75,0.085033,45653,37535
1694.62,0.094277,39137,31500
1697.49,0.088613,33776,27542
1701.31,0.102280,28175,22263