File: samples/wool/wool-000811/Column 1_050591_20150331_121924.csv
Method:,Column 1,,
Host Date-Time:,31/3/15 @ 12:19:24,,
Header Version:,1,,
System Temp (C):,33.89,,
Detector Temp (C):,34.56,,
Humidity (%):,1.81,,
Lamp PD:,3818,,
Shift Vector Coefficients:,-10.5391,0.0761263,-0.000134223,,
Pixel to Wavelength Coefficients:,1775.68,-0.916766,-0.000235065,,
Serial Number:,5510004,,
Scan Config Name:,Column 1,,
Scan Config Type:,Slew,,
Section 1,,
Start wavelength (nm):,900,,
End wavelength (nm):,1700,,
Pattern Pixel Width (nm):,   7.03,,,,
Exposure (ms):,  0.635,,,,
Digital Resolution:,228,,
Num Repeats:,6,,
PGA Gain:,64,,
Total Measurement Time in sec:,  2.727,,
Wavelength (nm),Absorbance (AU),Reference Signal (unitless),Sample Signal (unitless)
901.51,0.069186,108485,92509
905.376,0.075078,121306,102048
909.237,0.077046,131909,110466
913.095,0.078047,143299,119728
916.948,0.080362,156982,130463
922.079,0.080790,179937,149393
925.923,0.082012,200504,166001
929.762,0.083706,222660,183627
933.597,0.082579,244426,202101
937.427,0.082204,263972,218451
941.254,0.080809,281845,233992
945.076,0.080217,297271,247136
950.165,0.079753,315605,262658
953.978,0.077870,328029,274184
957.786,0.079483,340470,283528
961.59,0.079595,352317,293318
965.389,0.078877,363056,302759
969.185,0.078957,373162,311129
972.976,0.079026,382632,318974
976.763,0.080113,391202,325303
981.806,0.079702,400190,333092
985.583,0.080612,406088,337294
989.355,0.081475,410162,340001
993.124,0.081605,412868,342142
996.888,0.081964,414263,343014
1000.65,0.083113,415476,343110
1004.4,0.084302,415479,342174
1009.41,0.085379,414358,340406
1013.15,0.086513,412923,338342
1016.89,0.086757,411526,337008
1020.63,0.085532,409066,335940
1024.36,0.085949,406777,333739
1028.09,0.085622,404427,332061
1031.82,0.085575,401911,330031
1036.78,0.085400,398410,327288
1040.49,0.084989,396204,325784
1044.2,0.085176,394236,324026
1047.91,0.084894,392042,322432
1051.61,0.084047,389823,321233
1055.31,0.084020,388234,319944
1059,0.084700,387599,318921
1063.92,0.082829,386688,319545
1067.61,0.082473,386598,319732
1071.29,0.082516,387377,320345
1074.96,0.081261,388536,322233
1078.63,0.081099,389855,323448
1082.3,0.080034,391215,325373
1085.96,0.079834,393215,327187
1090.84,0.078745,396270,330557
1094.49,0.078082,398760,333142
1098.14,0.077549,400987,335414
1101.79,0.076399,403477,338392
1105.43,0.076811,406116,340282
1109.06,0.076111,407701,342161
1112.7,0.075527,409859,344435
1117.53,0.074552,412494,347429
1121.15,0.075574,414909,348641
1124.77,0.076034,416559,349657
1128.38,0.076866,418532,350641
1131.99,0.077312,419956,351473
1135.6,0.079250,421946,351566
1139.2,0.080170,423881,352431
1143.99,0.082266,426786,353138
1147.58,0.083287,428617,353820
1151.17,0.084522,431169,354916
1154.75,0.085557,433579,356050
1158.33,0.087034,436264,357039
1161.91,0.087947,439132,358631
1165.48,0.090437,442389,359226
1169.04,0.093169,446101,359968
1173.79,0.095911,451929,362376
1177.34,0.097940,456026,363957
1180.9,0.100064,461306,366374
1184.44,0.101818,467657,369921
1187.99,0.102775,473969,374089
1191.52,0.103538,479856,378071
1195.06,0.103075,487372,384402
1199.76,0.102683,497347,392624
1203.29,0.101480,504311,399226
1206.81,0.101479,511507,404923
1210.33,0.100093,519078,412230
1213.84,0.099985,527163,418755
1217.35,0.099184,534208,425135
1220.85,0.098561,540472,430737
1225.51,0.098245,549929,438593
1229.01,0.097821,556888,444577
1232.5,0.096624,562180,450040
1235.98,0.096300,567975,455019
1239.46,0.095115,574815,461757
1242.94,0.094615,582782,468696
1246.41,0.093733,591476,476655
1251.03,0.093772,604016,486717
1254.5,0.093604,612289,493574
1257.96,0.094274,619125,498316
1261.41,0.094722,624551,502164
1264.86,0.095559,629900,505490
1268.31,0.095638,634345,508965
1271.75,0.096839,638574,510943
1276.33,0.096929,642499,513977
1279.76,0.096417,645905,517311
1283.19,0.096050,648307,519674
1286.61,0.095845,650446,521635
1290.03,0.095268,652132,523682
1293.44,0.094673,653907,525827
1296.85,0.095149,655963,526902
1301.39,0.094607,657349,528675
1304.8,0.094512,657558,528959
1308.19,0.094486,658515,529761
1311.58,0.095174,658804,529154
1314.97,0.095246,659011,529233
1318.36,0.095764,658272,528009
1321.73,0.095910,658022,527631
1326.23,0.096757,657870,526481
1329.6,0.098141,656482,523699
1332.97,0.098575,654926,521936
1336.33,0.100135,653727,519113
1339.69,0.101253,652497,516803
1343.04,0.103060,649913,512620
1346.39,0.105008,647671,508565
1349.73,0.106645,645338,504827
1354.18,0.110033,641175,497673
1357.52,0.111638,638376,493672
1360.85,0.114042,635805,488970
1364.17,0.115833,633413,485125
1367.49,0.118255,631026,480609
1370.81,0.120729,628050,475626
1374.12,0.122835,625034,471052
1378.54,0.125355,620272,464758
1381.84,0.128134,616892,459277
1385.14,0.132220,613613,452558
1388.43,0.135445,611526,447682
1391.72,0.140413,610663,441966
1395.01,0.145000,610634,437302
1398.29,0.149933,611700,433117
1402.66,0.156714,614051,428046
1405.93,0.161894,616268,424498
1409.2,0.166481,617795,421079
1412.46,0.171440,618872,417024
1415.72,0.175919,619795,413361
1418.98,0.179180,620495,410732
1422.23,0.182817,621087,407695
1426.56,0.187061,621375,403918
1429.8,0.189191,621616,402097
1433.04,0.192631,622129,399254
1436.27,0.194526,621526,397131
1439.5,0.196426,621113,395134
1442.72,0.198649,620921,392995
1445.94,0.200780,620270,390662
1450.23,0.204779,618860,386201
1453.44,0.206959,617697,383545
1456.64,0.209907,616264,380067
1459.85,0.211900,614413,377190
1463.04,0.215196,612307,373055
1466.24,0.218476,610032,368873
1469.43,0.222122,607345,364178
1473.67,0.227592,603789,357514
1476.85,0.232671,601175,351828
1480.02,0.238457,597737,345186
1483.19,0.244059,594479,338905
1486.36,0.249769,591232,332651
1489.52,0.254442,587853,327210
1492.68,0.257711,583875,322559
1496.89,0.259173,578062,318274
1500.03,0.259760,574159,315698
1503.18,0.259753,570285,313573
1506.32,0.259554,565444,311054
1509.45,0.258380,560571,309208
1512.58,0.256171,555821,308151
1515.71,0.253770,550344,306806
1519.87,0.250493,543983,305557
1522.99,0.249270,538764,303479
1526.1,0.246182,533692,302767
1529.21,0.242903,527902,301752
1532.32,0.239426,521886,300711
1535.42,0.236759,515888,299086
1538.51,0.235022,509987,296850
1541.6,0.231988,503936,295384
1545.72,0.227536,494694,292955
1548.8,0.225094,488378,290845
1551.88,0.222950,481832,288367
1554.95,0.220305,474989,286008
1558.02,0.218076,467818,283140
1561.08,0.218119,460730,278822
1564.15,0.217128,454170,275480
1568.22,0.215738,444181,270285
1571.27,0.216127,436947,265645
1574.32,0.214340,429598,262254
1577.36,0.213369,422039,258216
1580.4,0.212122,414375,254256
1583.43,0.210216,406354,250431
1586.46,0.208901,398475,246320
1590.49,0.207442,388982,241261
1593.51,0.205003,380708,237459
1596.53,0.203080,372727,233513
1599.54,0.201324,365060,229636
1602.55,0.199358,357543,225928
1605.55,0.197848,349495,221612
1608.55,0.195192,341154,217650
1612.54,0.193443,330877,211945
1615.53,0.192594,322904,207243
1618.51,0.190953,315116,203010
1621.49,0.189409,307217,198626
1624.47,0.187988,299481,194259
1627.44,0.187326,292112,189768
1630.41,0.186782,284245,184889
1634.36,0.185333,274079,178872
1637.32,0.184385,266916,174578
1640.27,0.184300,259612,169834
1643.22,0.183387,251804,165073
1646.16,0.182055,244348,160677
1649.1,0.180345,236703,156264
1652.04,0.179462,228171,150938
1655.95,0.175334,215408,143856
1658.88,0.173182,204937,137543
1661.8,0.168677,193395,131150
1664.72,0.160284,179728,124260
1667.63,0.146969,163642,116661
1670.54,0.133702,146312,107542
1673.44,0.116692,128451,98185
1677.31,0.101245,105080,83229
1680.21,0.085222,88906,73065
1683.1,0.083435,75033,61918
1685.99,0.081702,63520,52627
1688.87,0.086566,53714,44007
1691.75,0.090834,45653,37037
1694.62,0.097474,39137,31269
1697.49,0.096024,33776,27076
1701.31,0.112145,28175,21763