File: samples/wool/wool-000811/Column 1_050580_20150331_121403.csv
Method:,Column 1,,
Host Date-Time:,31/3/15 @ 12:14:3,,
Header Version:,1,,
System Temp (C):,33.78,,
Detector Temp (C):,34.59,,
Humidity (%):,1.95,,
Lamp PD:,3819,,
Shift Vector Coefficients:,-10.5391,0.0761263,-0.000134223,,
Pixel to Wavelength Coefficients:,1775.68,-0.916766,-0.000235065,,
Serial Number:,5510004,,
Scan Config Name:,Column 1,,
Scan Config Type:,Slew,,
Section 1,,
Start wavelength (nm):,900,,
End wavelength (nm):,1700,,
Pattern Pixel Width (nm):,   7.03,,,,
Exposure (ms):,  0.635,,,,
Digital Resolution:,228,,
Num Repeats:,6,,
PGA Gain:,64,,
Total Measurement Time in sec:,  2.670,,
Wavelength (nm),Absorbance (AU),Reference Signal (unitless),Sample Signal (unitless)
901.51,0.072177,108485,91874
905.376,0.077331,121306,101520
909.237,0.079253,131909,109906
913.095,0.080397,143299,119082
916.948,0.080932,156982,130292
922.079,0.082112,179937,148939
925.923,0.084060,200504,165220
929.762,0.083994,222660,183505
933.597,0.085501,244426,200746
937.427,0.083745,263972,217677
941.254,0.082584,281845,233038
945.076,0.081531,297271,246389
950.165,0.080952,315605,261934
953.978,0.080348,328029,272624
957.786,0.080352,340470,282961
961.59,0.081482,352317,292046
965.389,0.080843,363056,301391
969.185,0.081206,373162,309522
972.976,0.081261,382632,317337
976.763,0.082136,391202,323791
981.806,0.081941,400190,331379
985.583,0.082843,406088,335565
989.355,0.083272,410162,338597
993.124,0.083794,412868,340422
996.888,0.084337,414263,341145
1000.65,0.085466,415476,341256
1004.4,0.085591,415479,341160
1009.41,0.087317,414358,338890
1013.15,0.087869,412923,337287
1016.89,0.087948,411526,336085
1020.63,0.087483,409066,334434
1024.36,0.088367,406777,331886
1028.09,0.088253,404427,330056
1031.82,0.087860,401911,328299
1036.78,0.087131,398410,325986
1040.49,0.087280,396204,324070
1044.2,0.087092,394236,322600
1047.91,0.087060,392042,320828
1051.61,0.087060,389823,319012
1055.31,0.086160,388234,318371
1059,0.085941,387599,318011
1063.92,0.084822,386688,318082
1067.61,0.085237,386598,317704
1071.29,0.084391,387377,318965
1074.96,0.084180,388536,320075
1078.63,0.083322,389855,321796
1082.3,0.081853,391215,324013
1085.96,0.081912,393215,325625
1090.84,0.080756,396270,329030
1094.49,0.079795,398760,331831
1098.14,0.079510,400987,333903
1101.79,0.079617,403477,335894
1105.43,0.078968,406116,338596
1109.06,0.078175,407701,340539
1112.7,0.078077,409859,342419
1117.53,0.077571,412494,345022
1121.15,0.077378,414909,347196
1124.77,0.078173,416559,347939
1128.38,0.079570,418532,348465
1131.99,0.079987,419956,349315
1135.6,0.081432,421946,349804
1139.2,0.083129,423881,350038
1143.99,0.085826,426786,350255
1147.58,0.086244,428617,351419
1151.17,0.087304,431169,352650
1154.75,0.088099,433579,353972
1158.33,0.088975,436264,355447
1161.91,0.091608,439132,355621
1165.48,0.093270,442389,356890
1169.04,0.096005,446101,357625
1173.79,0.098779,451929,359991
1177.34,0.100729,456026,361627
1180.9,0.102872,461306,364013
1184.44,0.104883,467657,367320
1187.99,0.105430,473969,371809
1191.52,0.105543,479856,376329
1195.06,0.105605,487372,382169
1199.76,0.105079,497347,390464
1203.29,0.104091,504311,396833
1206.81,0.103801,511507,402764
1210.33,0.103318,519078,409180
1213.84,0.102643,527163,416200
1217.35,0.102263,534208,422131
1220.85,0.100902,540472,428421
1225.51,0.100278,549929,436545
1229.01,0.100096,556888,442254
1232.5,0.099703,562180,446861
1235.98,0.099380,567975,451803
1239.46,0.098219,574815,458468
1242.94,0.096794,582782,466350
1246.41,0.096747,591476,473358
1251.03,0.096661,604016,483490
1254.5,0.096652,612289,490122
1257.96,0.096595,619125,495659
1261.41,0.097225,624551,499279
1264.86,0.097690,629900,503016
1268.31,0.098473,634345,505653
1271.75,0.099245,638574,508120
1276.33,0.099418,642499,511039
1279.76,0.099369,645905,513806
1283.19,0.098830,648307,516358
1286.61,0.098389,650446,518588
1290.03,0.097795,652132,520643
1293.44,0.097574,653907,522327
1296.85,0.097533,655963,524018
1301.39,0.097486,657349,525182
1304.8,0.097439,657558,525406
1308.19,0.097691,658515,525866
1311.58,0.097591,658804,526217
1314.97,0.098275,659011,525554
1318.36,0.098823,658272,524303
1321.73,0.098930,658022,523975
1326.23,0.100409,657870,522073
1329.6,0.100828,656482,520469
1332.97,0.102130,654926,517681
1336.33,0.103293,653727,515351
1339.69,0.104871,652497,512516
1343.04,0.106318,649913,508789
1346.39,0.108337,647671,504681
1349.73,0.110412,645338,500467
1354.18,0.113239,641175,494012
1357.52,0.115099,638376,489753
1360.85,0.117358,635805,485250
1364.17,0.119512,633413,481033
1367.49,0.122099,631026,476374
1370.81,0.124168,628050,471874
1374.12,0.126276,625034,467334
1378.54,0.129713,620272,460118
1381.84,0.133021,616892,454138
1385.14,0.136705,613613,447909
1388.43,0.141095,611526,441896
1391.72,0.146003,610663,436313
1395.01,0.150945,610634,431356
1398.29,0.156323,611700,426791
1402.66,0.163433,614051,421475
1405.93,0.169414,616268,417211
1409.2,0.174769,617795,413119
1412.46,0.180530,618872,408386
1415.72,0.185174,619795,404645
1418.98,0.189017,620495,401533
1422.23,0.192968,621087,398276
1426.56,0.197178,621375,394617
1429.8,0.199992,621616,392220
1433.04,0.202443,622129,390335
1436.27,0.204990,621526,387676
1439.5,0.207257,621113,385402
1442.72,0.209142,620921,383614
1445.94,0.211373,620270,381248
1450.23,0.214930,618860,377279
1453.44,0.217847,617697,374049
1456.64,0.219886,616264,371433
1459.85,0.222204,614413,368346
1463.04,0.225134,612307,364616
1466.24,0.228026,610032,360850
1469.43,0.231039,607345,356777
1473.67,0.236109,603789,350571
1476.85,0.241517,601175,344734
1480.02,0.246221,597737,339070
1483.19,0.251359,594479,333256
1486.36,0.256052,591232,327873
1489.52,0.260918,587853,322367
1492.68,0.262942,583875,318697
1496.89,0.265280,578062,313830
1500.03,0.265145,574159,311808
1503.18,0.265663,570285,309335
1506.32,0.264973,565444,307197
1509.45,0.263584,560571,305525
1512.58,0.261821,555821,304168
1515.71,0.259775,550344,302593
1519.87,0.257869,543983,300411
1522.99,0.254642,538764,299748
1526.1,0.251904,533692,298804
1529.21,0.249115,527902,297467
1532.32,0.247030,521886,295492
1535.42,0.244285,515888,293948
1538.51,0.241046,509987,292761
1541.6,0.237925,503936,291374
1545.72,0.233515,494694,288949
1548.8,0.231035,488378,286894
1551.88,0.228810,481832,284502
1554.95,0.226305,474989,282084
1558.02,0.224862,467818,278750
1561.08,0.224303,460730,274880
1564.15,0.223301,454170,271592
1568.22,0.222151,444181,266323
1571.27,0.221192,436947,262565
1574.32,0.220639,429598,258478
1577.36,0.218554,422039,255152
1580.4,0.217165,414375,251321
1583.43,0.216077,406354,247074
1586.46,0.214257,398475,243301
1590.49,0.212760,388982,238325
1593.51,0.211410,380708,233982
1596.53,0.208364,372727,230689
1599.54,0.206218,365060,227063
1602.55,0.204428,357543,223306
1605.55,0.202301,349495,219351
1608.55,0.200601,341154,214956
1612.54,0.198603,330877,209442
1615.53,0.197178,322904,205067
1618.51,0.196685,315116,200348
1621.49,0.194908,307217,196127
1624.47,0.193577,299481,191775
1627.44,0.192972,292112,187317
1630.41,0.191595,284245,182851
1634.36,0.190114,274079,176914
1637.32,0.190064,266916,172310
1640.27,0.188641,259612,168145
1643.22,0.187449,251804,163536
1646.16,0.186967,244348,158870
1649.1,0.185309,236703,154488
1652.04,0.185506,228171,148852
1655.95,0.180967,215408,142002
1658.88,0.176851,204937,136386
1661.8,0.172549,193395,129986
1664.72,0.165241,179728,122850
1667.63,0.153439,163642,114936
1670.54,0.138649,146312,106324
1673.44,0.125608,128451,96190
1677.31,0.104908,105080,82530
1680.21,0.094862,88906,71461
1683.1,0.088955,75033,61136
1685.99,0.090833,63520,51532
1688.87,0.091069,53714,43553
1691.75,0.097939,45653,36436
1694.62,0.109643,39137,30405
1697.49,0.112684,33776,26057
1701.31,0.108687,28175,21937