File: samples/wool/wool-000811/Column 1_050629_20150331_123717.csv
Method:,Column 1,,
Host Date-Time:,31/3/15 @ 12:37:17,,
Header Version:,1,,
System Temp (C):,34.14,,
Detector Temp (C):,35.06,,
Humidity (%):,1.56,,
Lamp PD:,3817,,
Shift Vector Coefficients:,-10.5391,0.0761263,-0.000134223,,
Pixel to Wavelength Coefficients:,1775.68,-0.916766,-0.000235065,,
Serial Number:,5510004,,
Scan Config Name:,Column 1,,
Scan Config Type:,Slew,,
Section 1,,
Start wavelength (nm):,900,,
End wavelength (nm):,1700,,
Pattern Pixel Width (nm):,   7.03,,,,
Exposure (ms):,  0.635,,,,
Digital Resolution:,228,,
Num Repeats:,6,,
PGA Gain:,64,,
Total Measurement Time in sec:,  2.672,,
Wavelength (nm),Absorbance (AU),Reference Signal (unitless),Sample Signal (unitless)
901.51,0.067181,108485,92937
905.376,0.075227,121306,102013
909.237,0.077219,131909,110422
913.095,0.077243,143299,119950
916.948,0.076984,156982,131482
922.079,0.079527,179937,149828
925.923,0.079948,200504,166792
929.762,0.081058,222660,184750
933.597,0.082038,244426,202353
937.427,0.080201,263972,219461
941.254,0.078966,281845,234987
945.076,0.078922,297271,247874
950.165,0.078100,315605,263660
953.978,0.076548,328029,275020
957.786,0.076779,340470,285299
961.59,0.077185,352317,294950
965.389,0.077110,363056,303993
969.185,0.077312,373162,312310
972.976,0.077199,382632,320319
976.763,0.078110,391202,326807
981.806,0.078866,400190,333734
985.583,0.078940,406088,338595
989.355,0.078691,410162,342188
993.124,0.079397,412868,343886
996.888,0.080008,414263,344563
1000.65,0.080955,415476,344819
1004.4,0.081636,415479,344281
1009.41,0.083097,414358,342199
1013.15,0.083516,412923,340685
1016.89,0.084522,411526,338747
1020.63,0.083778,409066,337299
1024.36,0.084583,406777,334791
1028.09,0.083634,404427,333585
1031.82,0.083703,401911,331457
1036.78,0.083575,398410,328666
1040.49,0.083194,396204,327133
1044.2,0.083515,394236,325268
1047.91,0.082961,392042,323871
1051.61,0.082933,389823,322058
1055.31,0.081807,388234,321578
1059,0.082599,387599,320467
1063.92,0.081068,386688,320843
1067.61,0.079913,386598,321623
1071.29,0.079545,387377,322544
1074.96,0.079301,388536,323691
1078.63,0.078373,389855,325484
1082.3,0.077517,391215,327264
1085.96,0.077179,393215,329193
1090.84,0.076057,396270,332609
1094.49,0.075177,398760,335378
1098.14,0.074880,400987,337482
1101.79,0.074002,403477,340265
1105.43,0.074318,406116,342241
1109.06,0.073166,407701,344489
1112.7,0.072864,409859,346554
1117.53,0.072494,412494,349079
1121.15,0.073173,414909,350574
1124.77,0.073210,416559,351938
1128.38,0.074461,418532,352588
1131.99,0.075369,419956,353049
1135.6,0.076132,421946,354099
1139.2,0.077551,423881,354563
1143.99,0.079806,426786,355144
1147.58,0.080445,428617,356143
1151.17,0.080819,431169,357955
1154.75,0.082345,433579,358693
1158.33,0.083938,436264,359593
1161.91,0.084950,439132,361115
1165.48,0.087785,442389,361426
1169.04,0.089417,446101,363092
1173.79,0.093134,451929,364700
1177.34,0.094974,456026,366451
1180.9,0.097100,461306,368883
1184.44,0.099606,467657,371810
1187.99,0.100200,473969,376314
1191.52,0.100098,479856,381077
1195.06,0.099582,487372,387506
1199.76,0.099211,497347,395775
1203.29,0.098548,504311,401930
1206.81,0.098211,511507,407982
1210.33,0.097668,519078,414538
1213.84,0.096854,527163,421785
1217.35,0.096358,534208,427910
1220.85,0.095728,540472,433556
1225.51,0.095046,549929,441836
1229.01,0.094217,556888,448282
1232.5,0.093870,562180,452903
1235.98,0.093328,567975,458143
1239.46,0.092379,574815,464675
1242.94,0.091348,582782,472235
1246.41,0.091034,591476,479627
1251.03,0.090802,604016,490057
1254.5,0.090751,612289,496827
1257.96,0.091328,619125,501707
1261.41,0.092036,624551,505280
1264.86,0.092580,629900,508969
1268.31,0.092783,634345,512321
1271.75,0.093548,638574,514829
1276.33,0.093580,642499,517955
1279.76,0.093624,645905,520648
1283.19,0.093042,648307,523286
1286.61,0.092774,650446,525336
1290.03,0.092452,652132,527088
1293.44,0.092057,653907,529004
1296.85,0.091347,655963,531535
1301.39,0.091171,657349,532875
1304.8,0.091210,657558,532996
1308.19,0.091410,658515,533526
1311.58,0.091363,658804,533818
1314.97,0.091801,659011,533447
1318.36,0.092218,658272,532338
1321.73,0.092185,658022,532176
1326.23,0.093277,657870,530717
1329.6,0.094054,656482,528651
1332.97,0.094657,654926,526666
1336.33,0.095782,653727,524342
1339.69,0.097248,652497,521592
1343.04,0.098520,649913,518006
1346.39,0.100403,647671,513986
1349.73,0.101951,645338,510313
1354.18,0.104948,641175,503534
1357.52,0.107088,638376,498871
1360.85,0.109052,635805,494620
1364.17,0.110665,633413,490933
1367.49,0.112984,631026,486478
1370.81,0.115185,628050,481736
1374.12,0.117400,625034,476984
1378.54,0.119736,620272,470810
1381.84,0.122567,616892,465203
1385.14,0.125470,613613,459647
1388.43,0.129109,611526,454262
1391.72,0.132875,610663,449704
1395.01,0.136959,610634,445474
1398.29,0.140922,611700,442198
1402.66,0.146499,614051,438233
1405.93,0.151611,616268,434669
1409.2,0.156251,617795,431115
1412.46,0.160160,618872,427997
1415.72,0.163593,619795,425261
1418.98,0.167127,620495,422290
1422.23,0.170249,621087,419666
1426.56,0.173400,621375,416825
1429.8,0.176023,621616,414476
1433.04,0.179093,622129,411896
1436.27,0.180971,621526,409721
1439.5,0.183130,621113,407418
1442.72,0.185041,620921,405504
1445.94,0.188182,620270,402160
1450.23,0.192035,618860,397702
1453.44,0.194270,617697,394917
1456.64,0.197653,616264,390943
1459.85,0.199944,614413,387718
1463.04,0.203373,612307,383351
1466.24,0.206634,610032,379069
1469.43,0.210670,607345,373909
1473.67,0.217363,603789,366035
1476.85,0.223281,601175,359517
1480.02,0.229695,597737,352221
1483.19,0.235969,594479,345277
1486.36,0.242591,591232,338195
1489.52,0.247169,587853,332736
1492.68,0.250963,583875,327610
1496.89,0.252338,578062,323323
1500.03,0.253582,574159,320221
1503.18,0.253382,570285,318207
1506.32,0.252845,565444,315896
1509.45,0.251042,560571,314477
1512.58,0.249407,555821,312988
1515.71,0.247268,550344,311434
1519.87,0.243974,543983,310178
1522.99,0.241309,538764,309093
1526.1,0.238990,533692,307823
1529.21,0.236752,527902,306056
1532.32,0.232971,521886,305214
1535.42,0.230229,515888,303617
1538.51,0.227531,509987,302015
1541.6,0.224532,503936,300499
1545.72,0.220621,494694,297657
1548.8,0.217759,488378,295799
1551.88,0.214569,481832,293986
1554.95,0.213868,474989,290279
1558.02,0.211604,467818,287391
1561.08,0.210916,460730,283485
1564.15,0.210540,454170,279691
1568.22,0.209136,444181,274425
1571.27,0.208115,436947,270591
1574.32,0.208259,429598,265952
1577.36,0.206667,422039,262232
1580.4,0.205505,414375,258160
1583.43,0.204382,406354,253818
1586.46,0.202110,398475,250202
1590.49,0.201329,388982,244681
1593.51,0.199277,380708,240611
1596.53,0.196811,372727,236908
1599.54,0.194453,365060,233298
1602.55,0.192536,357543,229505
1605.55,0.191065,349495,225100
1608.55,0.188710,341154,220923
1612.54,0.187717,330877,214758
1615.53,0.184879,322904,210957
1618.51,0.185086,315116,205771
1621.49,0.183397,307217,201395
1624.47,0.183203,299481,196411
1627.44,0.181060,292112,192526
1630.41,0.179500,284245,188015
1634.36,0.178729,274079,181613
1637.32,0.178772,266916,176849
1640.27,0.178097,259612,172277
1643.22,0.176952,251804,167537
1646.16,0.174924,244348,163337
1649.1,0.174312,236703,158450
1652.04,0.173331,228171,153084
1655.95,0.170703,215408,145398
1658.88,0.167059,204937,139496
1661.8,0.161267,193395,133407
1664.72,0.153443,179728,126233
1667.63,0.139803,163642,118602
1670.54,0.126497,146312,109341
1673.44,0.109563,128451,99810
1677.31,0.088043,105080,85798
1680.21,0.077206,88906,74426
1683.1,0.069425,75033,63948
1685.99,0.068599,63520,54239
1688.87,0.073683,53714,45332
1691.75,0.079080,45653,38053
1694.62,0.086719,39137,32053
1697.49,0.079176,33776,28147
1701.31,0.092997,28175,22744