File: samples/wool/wool-000811/Column 1_050598_20150331_122227.csv
Method:,Column 1,,
Host Date-Time:,31/3/15 @ 12:22:27,,
Header Version:,1,,
System Temp (C):,33.94,,
Detector Temp (C):,34.69,,
Humidity (%):,1.76,,
Lamp PD:,3818,,
Shift Vector Coefficients:,-10.5391,0.0761263,-0.000134223,,
Pixel to Wavelength Coefficients:,1775.68,-0.916766,-0.000235065,,
Serial Number:,5510004,,
Scan Config Name:,Column 1,,
Scan Config Type:,Slew,,
Section 1,,
Start wavelength (nm):,900,,
End wavelength (nm):,1700,,
Pattern Pixel Width (nm):,   7.03,,,,
Exposure (ms):,  0.635,,,,
Digital Resolution:,228,,
Num Repeats:,6,,
PGA Gain:,64,,
Total Measurement Time in sec:,  2.671,,
Wavelength (nm),Absorbance (AU),Reference Signal (unitless),Sample Signal (unitless)
901.51,0.070926,108485,92139
905.376,0.077510,121306,101478
909.237,0.078274,131909,110154
913.095,0.080729,143299,118991
916.948,0.079598,156982,130693
922.079,0.081151,179937,149269
925.923,0.081803,200504,166081
929.762,0.083590,222660,183676
933.597,0.082936,244426,201935
937.427,0.082267,263972,218419
941.254,0.080793,281845,234001
945.076,0.079844,297271,247348
950.165,0.079132,315605,263034
953.978,0.077908,328029,274160
957.786,0.078586,340470,284114
961.59,0.078561,352317,294017
965.389,0.078173,363056,303250
969.185,0.078027,373162,311796
972.976,0.079332,382632,318749
976.763,0.079817,391202,325525
981.806,0.079801,400190,333016
985.583,0.080745,406088,337190
989.355,0.080803,410162,340528
993.124,0.081241,412868,342429
996.888,0.081826,414263,343123
1000.65,0.082637,415476,343486
1004.4,0.084098,415479,342335
1009.41,0.084809,414358,340853
1013.15,0.085812,412923,338889
1016.89,0.085781,411526,337766
1020.63,0.086471,409066,335214
1024.36,0.086386,406777,333404
1028.09,0.085735,404427,331975
1031.82,0.085592,401911,330018
1036.78,0.084818,398410,327727
1040.49,0.084910,396204,325843
1044.2,0.085343,394236,323902
1047.91,0.084546,392042,322691
1051.61,0.084111,389823,321186
1055.31,0.083911,388234,320024
1059,0.083655,387599,319689
1063.92,0.082890,386688,319500
1067.61,0.081827,386598,320208
1071.29,0.081655,387377,320981
1074.96,0.081217,388536,322266
1078.63,0.080626,389855,323800
1082.3,0.079403,391215,325846
1085.96,0.078695,393215,328046
1090.84,0.077901,396270,331200
1094.49,0.076770,398760,334150
1098.14,0.077104,400987,335758
1101.79,0.076675,403477,338177
1105.43,0.076692,406116,340375
1109.06,0.075353,407701,342759
1112.7,0.074756,409859,345047
1117.53,0.074953,412494,347108
1121.15,0.075709,414909,348533
1124.77,0.075401,416559,350167
1128.38,0.076550,418532,350896
1131.99,0.077395,419956,351406
1135.6,0.078947,421946,351811
1139.2,0.080312,423881,352316
1143.99,0.081992,426786,353361
1147.58,0.083071,428617,353996
1151.17,0.084120,431169,355245
1154.75,0.084923,433579,356570
1158.33,0.086513,436264,357467
1161.91,0.087597,439132,358920
1165.48,0.089826,442389,359731
1169.04,0.092310,446101,360681
1173.79,0.095477,451929,362738
1177.34,0.098064,456026,363853
1180.9,0.099966,461306,366457
1184.44,0.101744,467657,369984
1187.99,0.102470,473969,374352
1191.52,0.102657,479856,378838
1195.06,0.102490,487372,384920
1199.76,0.101886,497347,393345
1203.29,0.101218,504311,399467
1206.81,0.101039,511507,405334
1210.33,0.100077,519078,412245
1213.84,0.099437,527163,419284
1217.35,0.098428,534208,425875
1220.85,0.098120,540472,431175
1225.51,0.097228,549929,439621
1229.01,0.097422,556888,444986
1232.5,0.096543,562180,450124
1235.98,0.096119,567975,455208
1239.46,0.094982,574815,461898
1242.94,0.093478,582782,469925
1246.41,0.093307,591476,477123
1251.03,0.093143,604016,487422
1254.5,0.093094,612289,494154
1257.96,0.093524,619125,499177
1261.41,0.094450,624551,502479
1264.86,0.094738,629900,506447
1268.31,0.095269,634345,509397
1271.75,0.096258,638574,511627
1276.33,0.095577,642499,515579
1279.76,0.095685,645905,518184
1283.19,0.095818,648307,519951
1286.61,0.094883,650446,522791
1290.03,0.094566,652132,524529
1293.44,0.094125,653907,526491
1296.85,0.094069,655963,528214
1301.39,0.093866,657349,529578
1304.8,0.093580,657558,530095
1308.19,0.093821,658515,530573
1311.58,0.093878,658804,530736
1314.97,0.094391,659011,530276
1318.36,0.095164,658272,528739
1321.73,0.095595,658022,528014
1326.23,0.096435,657870,526872
1329.6,0.097068,656482,524995
1332.97,0.097885,654926,522766
1336.33,0.098670,653727,520866
1339.69,0.100403,652497,517816
1343.04,0.101495,649913,514470
1346.39,0.103851,647671,509922
1349.73,0.105970,645338,505612
1354.18,0.108885,641175,498990
1357.52,0.111088,638376,494298
1360.85,0.112826,635805,490341
1364.17,0.114828,633413,486249
1367.49,0.117087,631026,481904
1370.81,0.119415,628050,477067
1374.12,0.121274,625034,472748
1378.54,0.124341,620272,465845
1381.84,0.127177,616892,460291
1385.14,0.130400,613613,454459
1388.43,0.134775,611526,448373
1391.72,0.138444,610663,443974
1395.01,0.142970,610634,439350
1398.29,0.147734,611700,435316
1402.66,0.153613,614051,431113
1405.93,0.159133,616268,427205
1409.2,0.164139,617795,423356
1412.46,0.168454,618872,419901
1415.72,0.172178,619795,416937
1418.98,0.176007,620495,413744
1422.23,0.179577,621087,410748
1426.56,0.183759,621375,407000
1429.8,0.186155,621616,404918
1433.04,0.187926,622129,403603
1436.27,0.190781,621526,400570
1439.5,0.192953,621113,398307
1442.72,0.194824,620921,396472
1445.94,0.197935,620270,393229
1450.23,0.200991,618860,389584
1453.44,0.204010,617697,386158
1456.64,0.206333,616264,383207
1459.85,0.209459,614413,379316
1463.04,0.212059,612307,375760
1466.24,0.215703,610032,371236
1469.43,0.218454,607345,367267
1473.67,0.225293,603789,359412
1476.85,0.230234,601175,353807
1480.02,0.236239,597737,346953
1483.19,0.242116,594479,340424
1486.36,0.247546,591232,334358
1489.52,0.252383,587853,328765
1492.68,0.255432,583875,324256
1496.89,0.257312,578062,319641
1500.03,0.258303,574159,316759
1503.18,0.258038,570285,314814
1506.32,0.257626,565444,312438
1509.45,0.255948,560571,310944
1512.58,0.254214,555821,309543
1515.71,0.252249,550344,307883
1519.87,0.249064,543983,306564
1522.99,0.247483,538764,304730
1526.1,0.244544,533692,303911
1529.21,0.241182,527902,302950
1532.32,0.238385,521886,301433
1535.42,0.235824,515888,299731
1538.51,0.233573,509987,297842
1541.6,0.230323,503936,296519
1545.72,0.226007,494694,293988
1548.8,0.223186,488378,292126
1551.88,0.220860,481832,289758
1554.95,0.218502,474989,287198
1558.02,0.217277,467818,283661
1561.08,0.216572,460730,279817
1564.15,0.215357,454170,276606
1568.22,0.214487,444181,271065
1571.27,0.213804,436947,267070
1574.32,0.213250,429598,262913
1577.36,0.212341,422039,258828
1580.4,0.209683,414375,255688
1583.43,0.208658,406354,251331
1586.46,0.208250,398475,246690
1590.49,0.205714,388982,242223
1593.51,0.204114,380708,237946
1596.53,0.201487,372727,234371
1599.54,0.199635,365060,230531
1602.55,0.198694,357543,226274
1605.55,0.196101,349495,222505
1608.55,0.194096,341154,218200
1612.54,0.192447,330877,212432
1615.53,0.190036,322904,208467
1618.51,0.189859,315116,203522
1621.49,0.188110,307217,199221
1624.47,0.187075,299481,194668
1627.44,0.185477,292112,190578
1630.41,0.186021,284245,185213
1634.36,0.184027,274079,179411
1637.32,0.183324,266916,175005
1640.27,0.183503,259612,170146
1643.22,0.181237,251804,165892
1646.16,0.180946,244348,161088
1649.1,0.180793,236703,156103
1652.04,0.178060,228171,151426
1655.95,0.175177,215408,143908
1658.88,0.173902,204937,137315
1661.8,0.172165,193395,130101
1664.72,0.157102,179728,125174
1667.63,0.146471,163642,116795
1670.54,0.132363,146312,107874
1673.44,0.115173,128451,98529
1677.31,0.097779,105080,83896
1680.21,0.086263,88906,72890
1683.1,0.081671,75033,62170
1685.99,0.080985,63520,52714
1688.87,0.082617,53714,44409
1691.75,0.088460,45653,37240
1694.62,0.102011,39137,30944
1697.49,0.094998,33776,27140
1701.31,0.107126,28175,22016