File: samples/wool/wool-000811/Column 1_050560_20150331_120445.csv
Method:,Column 1,,
Host Date-Time:,31/3/15 @ 12:4:45,,
Header Version:,1,,
System Temp (C):,33.69,,
Detector Temp (C):,33.22,,
Humidity (%):,2.15,,
Lamp PD:,3819,,
Shift Vector Coefficients:,-10.5391,0.0761263,-0.000134223,,
Pixel to Wavelength Coefficients:,1775.68,-0.916766,-0.000235065,,
Serial Number:,5510004,,
Scan Config Name:,Column 1,,
Scan Config Type:,Slew,,
Section 1,,
Start wavelength (nm):,900,,
End wavelength (nm):,1700,,
Pattern Pixel Width (nm):,   7.03,,,,
Exposure (ms):,  0.635,,,,
Digital Resolution:,228,,
Num Repeats:,6,,
PGA Gain:,64,,
Total Measurement Time in sec:,  2.660,,
Wavelength (nm),Absorbance (AU),Reference Signal (unitless),Sample Signal (unitless)
901.51,0.031659,108485,100858
905.376,0.036670,121306,111484
909.237,0.040836,131909,120071
913.095,0.040386,143299,130574
916.948,0.042978,156982,142191
922.079,0.044043,179937,162584
925.923,0.044231,200504,181089
929.762,0.045543,222660,200493
933.597,0.045837,244426,219943
937.427,0.046095,263972,237390
941.254,0.046195,281845,253405
945.076,0.045511,297271,267696
950.165,0.045465,315605,284236
953.978,0.045203,328029,295603
957.786,0.045375,340470,306693
961.59,0.045741,352317,317097
965.389,0.045494,363056,326949
969.185,0.046077,373162,335599
972.976,0.046552,382632,343739
976.763,0.046985,391202,351088
981.806,0.047717,400190,358550
985.583,0.048272,406088,363369
989.355,0.049037,410162,366369
993.124,0.049192,412868,368654
996.888,0.050058,414263,369163
1000.65,0.050753,415476,369652
1004.4,0.051582,415479,368950
1009.41,0.053480,414358,366350
1013.15,0.053812,412923,364802
1016.89,0.054121,411526,363309
1020.63,0.053959,409066,361272
1024.36,0.054146,406777,359096
1028.09,0.053943,404427,357188
1031.82,0.053850,401911,355042
1036.78,0.053074,398410,352579
1040.49,0.052765,396204,350876
1044.2,0.052450,394236,349387
1047.91,0.052142,392042,347689
1051.61,0.051342,389823,346358
1055.31,0.051067,388234,345165
1059,0.050449,387599,345091
1063.92,0.049417,386688,345099
1067.61,0.048840,386598,345477
1071.29,0.048020,387377,346828
1074.96,0.048123,388536,347783
1078.63,0.046733,389855,350082
1082.3,0.046903,391215,351166
1085.96,0.045970,393215,353720
1090.84,0.045357,396270,356972
1094.49,0.044472,398760,359948
1098.14,0.044644,400987,361815
1101.79,0.044288,403477,364360
1105.43,0.044359,406116,366683
1109.06,0.043291,407701,369021
1112.7,0.043566,409859,370739
1117.53,0.043996,412494,372753
1121.15,0.043879,414909,375037
1124.77,0.044759,416559,375766
1128.38,0.046314,418532,376196
1131.99,0.047937,419956,376068
1135.6,0.049701,421946,376319
1139.2,0.051496,423881,376485
1143.99,0.053809,426786,377052
1147.58,0.054943,428617,377682
1151.17,0.056064,431169,378951
1154.75,0.056934,433579,380307
1158.33,0.058651,436264,381152
1161.91,0.061187,439132,381424
1165.48,0.063739,442389,382002
1169.04,0.065454,446101,383689
1173.79,0.069641,451929,384972
1177.34,0.072071,456026,386295
1180.9,0.074603,461306,388496
1184.44,0.075894,467657,392675
1187.99,0.076887,473969,397066
1191.52,0.077177,479856,401730
1195.06,0.076760,487372,408414
1199.76,0.075717,497347,417775
1203.29,0.075059,504311,424267
1206.81,0.074097,511507,431275
1210.33,0.073206,519078,438558
1213.84,0.072416,527163,446199
1217.35,0.071567,534208,453047
1220.85,0.071124,540472,458827
1225.51,0.069860,549929,468216
1229.01,0.069581,556888,474446
1232.5,0.068748,562180,479874
1235.98,0.068426,567975,485180
1239.46,0.067298,574815,492300
1242.94,0.066165,582782,500428
1246.41,0.065291,591476,508916
1251.03,0.065353,604016,519632
1254.5,0.065783,612289,526227
1257.96,0.066135,619125,531671
1261.41,0.066549,624551,535820
1264.86,0.067407,629900,539343
1268.31,0.067962,634345,542455
1271.75,0.068804,638574,545013
1276.33,0.068741,642499,548443
1279.76,0.068741,645905,551350
1283.19,0.068510,648307,553695
1286.61,0.067720,650446,556533
1290.03,0.067608,652132,558120
1293.44,0.067149,653907,560231
1296.85,0.066965,655963,562230
1301.39,0.066790,657349,563646
1304.8,0.066618,657558,564048
1308.19,0.067091,658515,564254
1311.58,0.067314,658804,564212
1314.97,0.068171,659011,563277
1318.36,0.068375,658272,562381
1321.73,0.068739,658022,561696
1326.23,0.069481,657870,560608
1329.6,0.070735,656482,557812
1332.97,0.071823,654926,555098
1336.33,0.072846,653727,552778
1339.69,0.074550,652497,549577
1343.04,0.076271,649913,545236
1346.39,0.078775,647671,540231
1349.73,0.080964,645338,535579
1354.18,0.083964,641175,528460
1357.52,0.086328,638376,523297
1360.85,0.088565,635805,518512
1364.17,0.090807,633413,513902
1367.49,0.092953,631026,509442
1370.81,0.095337,628050,504263
1374.12,0.097817,625034,498984
1378.54,0.101810,620272,490650
1381.84,0.105296,616892,484076
1385.14,0.109063,613613,477344
1388.43,0.113729,611526,470637
1391.72,0.118606,610663,464725
1395.01,0.123568,610634,459423
1398.29,0.129218,611700,454277
1402.66,0.136561,614051,448377
1405.93,0.142617,616268,443765
1409.2,0.148028,617795,439356
1412.46,0.153696,618872,434415
1415.72,0.157927,619795,430845
1418.98,0.162418,620495,426894
1422.23,0.166066,621087,423727
1426.56,0.170017,621375,420085
1429.8,0.173387,621616,416999
1433.04,0.175821,622129,415011
1436.27,0.178669,621526,411899
1439.5,0.180562,621113,409835
1442.72,0.183411,620921,407029
1445.94,0.186024,620270,404163
1450.23,0.189101,618860,400398
1453.44,0.192506,617697,396524
1456.64,0.195142,616264,393210
1459.85,0.198031,614413,389430
1463.04,0.201139,612307,385328
1466.24,0.204215,610032,381187
1469.43,0.207740,607345,376440
1473.67,0.213761,603789,369083
1476.85,0.218840,601175,363213
1480.02,0.224894,597737,356136
1483.19,0.231820,594479,348591
1486.36,0.237360,591232,342293
1489.52,0.242082,587853,336656
1492.68,0.245416,583875,331821
1496.89,0.247851,578062,326681
1500.03,0.248273,574159,324160
1503.18,0.248623,570285,321713
1506.32,0.248082,565444,319380
1509.45,0.246586,560571,317720
1512.58,0.244554,555821,316505
1515.71,0.242076,550344,315180
1519.87,0.239477,543983,313407
1522.99,0.236161,538764,312779
1526.1,0.233693,533692,311600
1529.21,0.230941,527902,310179
1532.32,0.227890,521886,308806
1535.42,0.224966,515888,307319
1538.51,0.221914,509987,305946
1541.6,0.217794,503936,305198
1545.72,0.214123,494694,302144
1548.8,0.211202,488378,300299
1551.88,0.208140,481832,298370
1554.95,0.206226,474989,295432
1558.02,0.203975,467818,292484
1561.08,0.203122,460730,288619
1564.15,0.202511,454170,284910
1568.22,0.201932,444181,279015
1571.27,0.200279,436947,275518
1574.32,0.198997,429598,271685
1577.36,0.197433,422039,267867
1580.4,0.196562,414375,263531
1583.43,0.195313,406354,259174
1586.46,0.192036,398475,256074
1590.49,0.191340,388982,250374
1593.51,0.188386,380708,246721
1596.53,0.186391,372727,242661
1599.54,0.183494,365060,239260
1602.55,0.181470,357543,235428
1605.55,0.180290,349495,230755
1608.55,0.178103,341154,226385
1612.54,0.175223,330877,221026
1615.53,0.173439,322904,216588
1618.51,0.172549,315116,211798
1621.49,0.170448,307217,207490
1624.47,0.169636,299481,202644
1627.44,0.168301,292112,198266
1630.41,0.166761,284245,193612
1634.36,0.165234,274079,187345
1637.32,0.164881,266916,182597
1640.27,0.162747,259612,178475
1643.22,0.162630,251804,173154
1646.16,0.161584,244348,168432
1649.1,0.160808,236703,163454
1652.04,0.159964,228171,157869
1655.95,0.156485,215408,150237
1658.88,0.156725,204937,142855
1661.8,0.148329,193395,137441
1664.72,0.143377,179728,129193
1667.63,0.134160,163642,120153
1670.54,0.123777,146312,110028
1673.44,0.111456,128451,99376
1677.31,0.097768,105080,83898
1680.21,0.090978,88906,72103
1683.1,0.084180,75033,61812
1685.99,0.091230,63520,51485
1688.87,0.096135,53714,43048
1691.75,0.099264,45653,36325
1694.62,0.103656,39137,30827
1697.49,0.108735,33776,26295
1701.31,0.114707,28175,21635