File: samples/wool/wool-000811/Column 1_050583_20150331_121531.csv
Method:,Column 1,,
Host Date-Time:,31/3/15 @ 12:15:31,,
Header Version:,1,,
System Temp (C):,33.75,,
Detector Temp (C):,34.49,,
Humidity (%):,1.91,,
Lamp PD:,3819,,
Shift Vector Coefficients:,-10.5391,0.0761263,-0.000134223,,
Pixel to Wavelength Coefficients:,1775.68,-0.916766,-0.000235065,,
Serial Number:,5510004,,
Scan Config Name:,Column 1,,
Scan Config Type:,Slew,,
Section 1,,
Start wavelength (nm):,900,,
End wavelength (nm):,1700,,
Pattern Pixel Width (nm):,   7.03,,,,
Exposure (ms):,  0.635,,,,
Digital Resolution:,228,,
Num Repeats:,6,,
PGA Gain:,64,,
Total Measurement Time in sec:,  2.666,,
Wavelength (nm),Absorbance (AU),Reference Signal (unitless),Sample Signal (unitless)
901.51,0.069782,108485,92382
905.376,0.075035,121306,102058
909.237,0.076566,131909,110588
913.095,0.077272,143299,119942
916.948,0.078612,156982,130990
922.079,0.079461,179937,149851
925.923,0.081450,200504,166216
929.762,0.082117,222660,184300
933.597,0.083076,244426,201870
937.427,0.081719,263972,218695
941.254,0.081257,281845,233751
945.076,0.080229,297271,247129
950.165,0.078761,315605,263259
953.978,0.078985,328029,273481
957.786,0.079082,340470,283790
961.59,0.079382,352317,293462
965.389,0.079433,363056,302371
969.185,0.080142,373162,310281
972.976,0.079829,382632,318385
976.763,0.080650,391202,324901
981.806,0.080607,400190,332399
985.583,0.081729,406088,336427
989.355,0.082048,410162,339553
993.124,0.082485,412868,341449
996.888,0.082883,414263,342289
1000.65,0.083495,415476,342808
1004.4,0.084956,415479,341659
1009.41,0.085893,414358,340003
1013.15,0.086364,412923,338458
1016.89,0.086901,411526,336896
1020.63,0.087160,409066,334683
1024.36,0.086735,406777,333136
1028.09,0.086134,404427,331670
1031.82,0.086018,401911,329695
1036.78,0.085781,398410,327001
1040.49,0.085973,396204,325047
1044.2,0.085940,394236,323457
1047.91,0.085589,392042,321917
1051.61,0.085100,389823,320455
1055.31,0.084870,388234,319318
1059,0.084521,387599,319052
1063.92,0.082834,386688,319541
1067.61,0.082551,386598,319675
1071.29,0.082731,387377,320186
1074.96,0.081706,388536,321903
1078.63,0.081890,389855,322859
1082.3,0.080686,391215,324885
1085.96,0.079781,393215,327227
1090.84,0.079308,396270,330129
1094.49,0.079035,398760,332412
1098.14,0.078569,400987,334627
1101.79,0.077542,403477,337502
1105.43,0.077587,406116,339675
1109.06,0.076753,407701,341656
1112.7,0.075870,409859,344163
1117.53,0.076044,412494,346237
1121.15,0.076729,414909,347715
1124.77,0.076397,416559,349365
1128.38,0.077155,418532,350408
1131.99,0.079055,419956,350065
1135.6,0.080108,421946,350872
1139.2,0.081667,423881,351218
1143.99,0.083258,426786,352332
1147.58,0.083907,428617,353315
1151.17,0.085370,431169,354224
1154.75,0.086130,433579,355581
1158.33,0.087823,436264,356391
1161.91,0.090066,439132,356886
1165.48,0.091491,442389,358355
1169.04,0.094454,446101,358905
1173.79,0.097200,451929,361302
1177.34,0.099722,456026,362466
1180.9,0.101101,461306,365501
1184.44,0.102993,467657,368922
1187.99,0.103976,473969,373056
1191.52,0.104540,479856,377199
1195.06,0.103908,487372,383665
1199.76,0.103619,497347,391778
1203.29,0.102784,504311,398029
1206.81,0.102283,511507,404174
1210.33,0.101612,519078,410791
1213.84,0.101104,527163,417677
1217.35,0.099963,534208,424373
1220.85,0.100049,540472,429264
1225.51,0.099044,549929,437787
1229.01,0.098925,556888,443448
1232.5,0.098279,562180,448329
1235.98,0.097427,567975,453839
1239.46,0.096268,574815,460532
1242.94,0.095833,582782,467383
1246.41,0.095625,591476,474583
1251.03,0.094845,604016,485516
1254.5,0.094975,612289,492018
1257.96,0.095671,619125,496715
1261.41,0.096890,624551,499664
1264.86,0.096489,629900,504409
1268.31,0.097078,634345,507280
1271.75,0.097881,638574,509718
1276.33,0.097737,642499,513021
1279.76,0.097903,645905,515544
1283.19,0.097040,648307,518490
1286.61,0.097082,650446,520151
1290.03,0.096921,652132,521692
1293.44,0.096177,653907,524009
1296.85,0.095912,655963,525978
1301.39,0.095732,657349,527308
1304.8,0.095767,657558,527433
1308.19,0.096206,658515,527667
1311.58,0.096003,658804,528145
1314.97,0.096806,659011,527335
1318.36,0.097581,658272,525804
1321.73,0.097626,658022,525550
1326.23,0.098532,657870,524334
1329.6,0.099559,656482,521992
1332.97,0.100462,654926,519673
1336.33,0.101536,653727,517440
1339.69,0.103170,652497,514528
1343.04,0.104951,649913,510393
1346.39,0.106355,647671,506990
1349.73,0.108608,645338,502550
1354.18,0.111610,641175,495869
1357.52,0.113662,638376,491377
1360.85,0.115892,635805,486891
1364.17,0.118014,633413,482695
1367.49,0.119920,631026,478770
1370.81,0.121902,628050,474343
1374.12,0.124331,625034,469432
1378.54,0.127863,620272,462082
1381.84,0.130770,616892,456498
1385.14,0.134702,613613,449979
1388.43,0.138749,611526,444289
1391.72,0.143485,610663,438851
1395.01,0.147803,610634,434488
1398.29,0.153610,611700,429466
1402.66,0.160472,614051,424358
1405.93,0.166231,616268,420280
1409.2,0.171967,617795,415793
1412.46,0.177538,618872,411209
1415.72,0.181423,619795,408155
1418.98,0.184881,620495,405375
1422.23,0.188700,621087,402210
1426.56,0.192512,621375,398880
1429.8,0.195510,621616,396289
1433.04,0.198340,622129,394040
1436.27,0.200660,621526,391561
1439.5,0.203122,621113,389089
1442.72,0.204904,620921,387376
1445.94,0.207480,620270,384681
1450.23,0.210391,618860,381243
1453.44,0.213231,617697,378046
1456.64,0.215923,616264,374838
1459.85,0.218789,614413,371254
1463.04,0.220950,612307,368145
1466.24,0.224089,610032,364136
1469.43,0.227293,607345,359867
1473.67,0.232525,603789,353476
1476.85,0.237638,601175,347827
1480.02,0.242163,597737,342253
1483.19,0.247928,594479,335899
1486.36,0.253061,591232,330139
1489.52,0.257162,587853,325167
1492.68,0.260824,583875,320255
1496.89,0.262243,578062,316032
1500.03,0.263091,574159,313286
1503.18,0.263288,570285,311031
1506.32,0.261956,565444,309338
1509.45,0.261171,560571,307227
1512.58,0.259205,555821,306006
1515.71,0.257171,550344,304413
1519.87,0.254369,543983,302842
1522.99,0.251669,538764,301807
1526.1,0.249326,533692,300583
1529.21,0.246435,527902,299308
1532.32,0.243639,521886,297808
1535.42,0.241475,515888,295856
1538.51,0.237958,509987,294850
1541.6,0.235056,503936,293305
1545.72,0.230845,494694,290731
1548.8,0.227812,488378,289031
1551.88,0.225915,481832,286405
1554.95,0.223633,474989,283825
1558.02,0.221652,467818,280818
1561.08,0.220722,460730,277156
1564.15,0.219877,454170,273742
1568.22,0.218439,444181,268609
1571.27,0.218189,436947,264387
1574.32,0.217376,429598,260427
1577.36,0.216409,422039,256415
1580.4,0.214776,414375,252707
1583.43,0.212824,406354,248932
1586.46,0.211560,398475,244817
1590.49,0.209149,388982,240315
1593.51,0.207776,380708,235948
1596.53,0.204972,372727,232498
1599.54,0.203280,365060,228604
1602.55,0.200789,357543,225185
1605.55,0.200294,349495,220367
1608.55,0.197218,341154,216637
1612.54,0.197011,330877,210211
1615.53,0.194705,322904,206238
1618.51,0.193978,315116,201601
1621.49,0.191900,307217,197490
1624.47,0.190099,299481,193317
1627.44,0.189794,292112,188693
1630.41,0.187393,284245,184629
1634.36,0.186544,274079,178374
1637.32,0.187235,266916,173436
1640.27,0.184766,259612,169652
1643.22,0.184140,251804,164787
1646.16,0.184791,244348,159668
1649.1,0.183295,236703,155206
1652.04,0.181802,228171,150127
1655.95,0.179042,215408,142633
1658.88,0.175112,204937,136933
1661.8,0.168912,193395,131079
1664.72,0.162025,179728,123763
1667.63,0.148136,163642,116348
1670.54,0.134547,146312,107333
1673.44,0.120656,128451,97293
1677.31,0.100349,105080,83401
1680.21,0.090821,88906,72129
1683.1,0.082196,75033,62095
1685.99,0.087074,63520,51980
1688.87,0.088782,53714,43783
1691.75,0.085600,45653,37486
1694.62,0.096960,39137,31306
1697.49,0.097759,33776,26968
1701.31,0.111089,28175,21816