File: samples/wool/wool-000811/Column 1_050552_20150331_120102.csv
Method:,Column 1,,
Host Date-Time:,31/3/15 @ 12:1:2,,
Header Version:,1,,
System Temp (C):,33.36,,
Detector Temp (C):,32.32,,
Humidity (%):,2.83,,
Lamp PD:,3820,,
Shift Vector Coefficients:,-10.5391,0.0761263,-0.000134223,,
Pixel to Wavelength Coefficients:,1775.68,-0.916766,-0.000235065,,
Serial Number:,5510004,,
Scan Config Name:,Column 1,,
Scan Config Type:,Slew,,
Section 1,,
Start wavelength (nm):,900,,
End wavelength (nm):,1700,,
Pattern Pixel Width (nm):,   7.03,,,,
Exposure (ms):,  0.635,,,,
Digital Resolution:,228,,
Num Repeats:,6,,
PGA Gain:,64,,
Total Measurement Time in sec:,  2.726,,
Wavelength (nm),Absorbance (AU),Reference Signal (unitless),Sample Signal (unitless)
901.51,0.033999,108485,100316
905.376,0.039817,121306,110679
909.237,0.041129,131909,119990
913.095,0.041602,143299,130209
916.948,0.042740,156982,142269
922.079,0.043034,179937,162962
925.923,0.044656,200504,180912
929.762,0.045543,222660,200493
933.597,0.046246,244426,219736
937.427,0.046507,263972,237165
941.254,0.046192,281845,253407
945.076,0.045444,297271,267737
950.165,0.045249,315605,284377
953.978,0.044491,328029,296088
957.786,0.045583,340470,306546
961.59,0.046046,352317,316875
965.389,0.046771,363056,325989
969.185,0.046259,373162,335458
972.976,0.046625,382632,343682
976.763,0.047825,391202,350410
981.806,0.047880,400190,358415
985.583,0.049085,406088,362690
989.355,0.049681,410162,365826
993.124,0.050140,412868,367850
996.888,0.050450,414263,368830
1000.65,0.051057,415476,369393
1004.4,0.053054,415479,367701
1009.41,0.053742,414358,366129
1013.15,0.054391,412923,364316
1016.89,0.054592,411526,362915
1020.63,0.054585,409066,360752
1024.36,0.054803,406777,358553
1028.09,0.054513,404427,356720
1031.82,0.054227,401911,354734
1036.78,0.053554,398410,352189
1040.49,0.053331,396204,350419
1044.2,0.052731,394236,349161
1047.91,0.052345,392042,347526
1051.61,0.052320,389823,345579
1055.31,0.051410,388234,344892
1059,0.051088,387599,344584
1063.92,0.050316,386688,344385
1067.61,0.049302,386598,345110
1071.29,0.048699,387377,346286
1074.96,0.048500,388536,347481
1078.63,0.047825,389855,349203
1082.3,0.047240,391215,350894
1085.96,0.046271,393215,353475
1090.84,0.045767,396270,356635
1094.49,0.045361,398760,359212
1098.14,0.045528,400987,361079
1101.79,0.044573,403477,364121
1105.43,0.044712,406116,366385
1109.06,0.044345,407701,368126
1112.7,0.043974,409859,370391
1117.53,0.044214,412494,372566
1121.15,0.045424,414909,373705
1124.77,0.045737,416559,374921
1128.38,0.046523,418532,376015
1131.99,0.048603,419956,375492
1135.6,0.050363,421946,375746
1139.2,0.052258,423881,375825
1143.99,0.055155,426786,375885
1147.58,0.055460,428617,377233
1151.17,0.056792,431169,378317
1154.75,0.058098,433579,379289
1158.33,0.060038,436264,379937
1161.91,0.062509,439132,380265
1165.48,0.064821,442389,381051
1169.04,0.067170,446101,382176
1173.79,0.071316,451929,383490
1177.34,0.073144,456026,385341
1180.9,0.075367,461306,387813
1184.44,0.077073,467657,391611
1187.99,0.078184,473969,395882
1191.52,0.077769,479856,401182
1195.06,0.078061,487372,407192
1199.76,0.076997,497347,416546
1203.29,0.075735,504311,423607
1206.81,0.074885,511507,430493
1210.33,0.074448,519078,437305
1213.84,0.073490,527163,445097
1217.35,0.073020,534208,451534
1220.85,0.071932,540472,457974
1225.51,0.071213,549929,466760
1229.01,0.070444,556888,473504
1232.5,0.069985,562180,478509
1235.98,0.069461,567975,484025
1239.46,0.068537,574815,490898
1242.94,0.067034,582782,499427
1246.41,0.066751,591476,507208
1251.03,0.066226,604016,518588
1254.5,0.066322,612289,525575
1257.96,0.066878,619125,530763
1261.41,0.067444,624551,534717
1264.86,0.068160,629900,538408
1268.31,0.068867,634345,541325
1271.75,0.069594,638574,544023
1276.33,0.069734,642499,547190
1279.76,0.069629,645905,550224
1283.19,0.069322,648307,552661
1286.61,0.068822,650446,555123
1290.03,0.068685,652132,556737
1293.44,0.068102,653907,559003
1296.85,0.067912,655963,561006
1301.39,0.067494,657349,562733
1304.8,0.068057,657558,562182
1308.19,0.068061,658515,562995
1311.58,0.068337,658804,562885
1314.97,0.068833,659011,562419
1318.36,0.069518,658272,560902
1321.73,0.069910,658022,560183
1326.23,0.070836,657870,558862
1329.6,0.072157,656482,555989
1332.97,0.072892,654926,553733
1336.33,0.074255,653727,550987
1339.69,0.076127,652497,547585
1343.04,0.077435,649913,543776
1346.39,0.079894,647671,538841
1349.73,0.082786,645338,533336
1354.18,0.085699,641175,526354
1357.52,0.088027,638376,521254
1360.85,0.090166,635805,516604
1364.17,0.092381,633413,512042
1367.49,0.095038,631026,507002
1370.81,0.097247,628050,502050
1374.12,0.099910,625034,496585
1378.54,0.103569,620272,488667
1381.84,0.107611,616892,481502
1385.14,0.111174,613613,475029
1388.43,0.116400,611526,467751
1391.72,0.121611,610663,461520
1395.01,0.126479,610634,456354
1398.29,0.132490,611700,450867
1402.66,0.140735,614051,444088
1405.93,0.147275,616268,439030
1409.2,0.153410,617795,433945
1412.46,0.158921,618872,429220
1415.72,0.163749,619795,425108
1418.98,0.168501,620495,420957
1422.23,0.172581,621087,417418
1426.56,0.177701,621375,412717
1429.8,0.180284,621616,410429
1433.04,0.183155,622129,408061
1436.27,0.185734,621526,405252
1439.5,0.187772,621113,403087
1442.72,0.190979,620921,399998
1445.94,0.193016,620270,397708
1450.23,0.196349,618860,393771
1453.44,0.199172,617697,390484
1456.64,0.201972,616264,387075
1459.85,0.205555,614413,382741
1463.04,0.207380,612307,379830
1466.24,0.210636,610032,375592
1469.43,0.214010,607345,371044
1473.67,0.219758,603789,364022
1476.85,0.224449,601175,358552
1480.02,0.229685,597737,352229
1483.19,0.235817,594479,345398
1486.36,0.241087,591232,339368
1489.52,0.246047,587853,333597
1492.68,0.249028,583875,329073
1496.89,0.251295,578062,324100
1500.03,0.252698,574159,320874
1503.18,0.252055,570285,319181
1506.32,0.251694,565444,316735
1509.45,0.250470,560571,314891
1512.58,0.249141,555821,313180
1515.71,0.246233,550344,312177
1519.87,0.243157,543983,310762
1522.99,0.239995,538764,310030
1526.1,0.237553,533692,308843
1529.21,0.234676,527902,307523
1532.32,0.231795,521886,306042
1535.42,0.228649,515888,304724
1538.51,0.225501,509987,303430
1541.6,0.223278,503936,301368
1545.72,0.218644,494694,299015
1548.8,0.215401,488378,297410
1551.88,0.213247,481832,294882
1554.95,0.210323,474989,292658
1558.02,0.209163,467818,289011
1561.08,0.207548,460730,285692
1564.15,0.206006,454170,282626
1568.22,0.205210,444181,276917
1571.27,0.204078,436947,273118
1574.32,0.202178,429598,269702
1577.36,0.201430,422039,265413
1580.4,0.200184,414375,261342
1583.43,0.198708,406354,257156
1586.46,0.196349,398475,253543
1590.49,0.194715,388982,248436
1593.51,0.192793,380708,244230
1596.53,0.190868,372727,240172
1599.54,0.188267,365060,236645
1602.55,0.185883,357543,233048
1605.55,0.183991,349495,228797
1608.55,0.181123,341154,224816
1612.54,0.178668,330877,219280
1615.53,0.176813,322904,214912
1618.51,0.175062,315116,210576
1621.49,0.174302,307217,205657
1624.47,0.172612,299481,201260
1627.44,0.172361,292112,196421
1630.41,0.170622,284245,191898
1634.36,0.169101,274079,185684
1637.32,0.168531,266916,181069
1640.27,0.167698,259612,176452
1643.22,0.166558,251804,171595
1646.16,0.165800,244348,166805
1649.1,0.164131,236703,162208
1652.04,0.163405,228171,156623
1655.95,0.161673,215408,148453
1658.88,0.158874,204937,142150
1661.8,0.154740,193395,135427
1664.72,0.149467,179728,127394
1667.63,0.142433,163642,117886
1670.54,0.133750,146312,107530
1673.44,0.122786,128451,96817
1677.31,0.110837,105080,81411
1680.21,0.106072,88906,69640
1683.1,0.106969,75033,58652
1685.99,0.108367,63520,49493
1688.87,0.112678,53714,41439
1691.75,0.122179,45653,34458
1694.62,0.125261,39137,29331
1697.49,0.125247,33776,25314
1701.31,0.135638,28175,20617