File: samples/wool/wool-000811/Column 1_050611_20150331_122840.csv
Method:,Column 1,,
Host Date-Time:,31/3/15 @ 12:28:40,,
Header Version:,1,,
System Temp (C):,34.06,,
Detector Temp (C):,34.95,,
Humidity (%):,1.66,,
Lamp PD:,3818,,
Shift Vector Coefficients:,-10.5391,0.0761263,-0.000134223,,
Pixel to Wavelength Coefficients:,1775.68,-0.916766,-0.000235065,,
Serial Number:,5510004,,
Scan Config Name:,Column 1,,
Scan Config Type:,Slew,,
Section 1,,
Start wavelength (nm):,900,,
End wavelength (nm):,1700,,
Pattern Pixel Width (nm):,   7.03,,,,
Exposure (ms):,  0.635,,,,
Digital Resolution:,228,,
Num Repeats:,6,,
PGA Gain:,64,,
Total Measurement Time in sec:,  2.668,,
Wavelength (nm),Absorbance (AU),Reference Signal (unitless),Sample Signal (unitless)
901.51,0.068806,108485,92590
905.376,0.075998,121306,101832
909.237,0.076720,131909,110549
913.095,0.076216,143299,120234
916.948,0.077760,156982,131247
922.079,0.080668,179937,149435
925.923,0.080852,200504,166445
929.762,0.082067,222660,184321
933.597,0.081810,244426,202459
937.427,0.080664,263972,219227
941.254,0.079371,281845,234768
945.076,0.078802,297271,247942
950.165,0.077660,315605,263927
953.978,0.076990,328029,274740
957.786,0.077460,340470,284852
961.59,0.077825,352317,294516
965.389,0.077556,363056,303681
969.185,0.076801,373162,312677
972.976,0.077937,382632,319775
976.763,0.077976,391202,326908
981.806,0.078556,400190,333972
985.583,0.079608,406088,338074
989.355,0.079622,410162,341455
993.124,0.080131,412868,343305
996.888,0.080550,414263,344133
1000.65,0.081680,415476,344244
1004.4,0.082653,415479,343476
1009.41,0.084140,414358,341378
1013.15,0.084559,412923,339868
1016.89,0.084860,411526,338483
1020.63,0.084384,409066,336829
1024.36,0.085178,406777,334332
1028.09,0.084310,404427,333066
1031.82,0.084391,401911,330932
1036.78,0.083733,398410,328547
1040.49,0.083191,396204,327136
1044.2,0.083856,394236,325013
1047.91,0.083313,392042,323608
1051.61,0.083063,389823,321962
1055.31,0.082383,388234,321152
1059,0.082250,387599,320725
1063.92,0.081308,386688,320666
1067.61,0.080722,386598,321024
1071.29,0.080123,387377,322115
1074.96,0.079655,388536,323427
1078.63,0.078671,389855,325261
1082.3,0.078244,391215,326717
1085.96,0.077641,393215,328843
1090.84,0.076543,396270,332237
1094.49,0.075908,398760,334814
1098.14,0.075712,400987,336836
1101.79,0.075332,403477,339224
1105.43,0.074324,406116,342236
1109.06,0.073733,407701,344040
1112.7,0.074178,409859,345507
1117.53,0.073554,412494,348228
1121.15,0.073766,414909,350096
1124.77,0.073717,416559,351528
1128.38,0.074905,418532,352228
1131.99,0.076029,419956,352513
1135.6,0.077219,421946,353214
1139.2,0.078570,423881,353732
1143.99,0.080727,426786,354391
1147.58,0.081642,428617,355163
1151.17,0.081922,431169,357047
1154.75,0.083470,433579,357765
1158.33,0.084579,436264,359063
1161.91,0.086833,439132,359552
1165.48,0.087984,442389,361260
1169.04,0.090481,446101,362203
1173.79,0.093960,451929,364007
1177.34,0.096379,456026,365267
1180.9,0.098265,461306,367895
1184.44,0.100171,467657,371327
1187.99,0.100903,473969,375705
1191.52,0.100600,479856,380637
1195.06,0.100409,487372,386769
1199.76,0.100333,497347,394754
1203.29,0.099619,504311,400940
1206.81,0.098936,511507,407301
1210.33,0.098727,519078,413529
1213.84,0.097942,527163,420729
1217.35,0.097291,534208,426992
1220.85,0.096510,540472,432776
1225.51,0.096072,549929,440793
1229.01,0.095387,556888,447075
1232.5,0.094505,562180,452241
1235.98,0.094391,567975,457023
1239.46,0.092961,574815,464053
1242.94,0.092404,582782,471088
1246.41,0.091861,591476,478714
1251.03,0.091540,604016,489225
1254.5,0.091644,612289,495807
1257.96,0.091782,619125,501183
1261.41,0.092846,624551,504338
1264.86,0.093259,629900,508174
1268.31,0.093426,634345,511564
1271.75,0.094232,638574,514019
1276.33,0.094677,642499,516649
1279.76,0.094455,645905,519653
1283.19,0.093676,648307,522522
1286.61,0.093371,650446,524615
1290.03,0.093049,652132,526364
1293.44,0.092899,653907,527979
1296.85,0.092321,655963,530345
1301.39,0.091785,657349,532122
1304.8,0.092187,657558,531798
1308.19,0.092506,658515,532181
1311.58,0.092455,658804,532477
1314.97,0.092682,659011,532367
1318.36,0.093097,658272,531261
1321.73,0.093123,658022,531028
1326.23,0.094300,657870,529469
1329.6,0.094893,656482,527630
1332.97,0.095997,654926,525044
1336.33,0.096715,653727,523216
1339.69,0.098272,652497,520363
1343.04,0.099751,649913,516540
1346.39,0.101725,647671,512424
1349.73,0.103924,645338,508000
1354.18,0.106361,641175,501898
1357.52,0.108317,638376,497462
1360.85,0.110559,635805,492907
1364.17,0.112550,633413,488806
1367.49,0.114409,631026,484885
1370.81,0.116927,628050,479808
1374.12,0.118835,625034,475410
1378.54,0.121490,620272,468913
1381.84,0.124565,616892,463067
1385.14,0.127392,613613,457617
1388.43,0.131534,611526,451732
1391.72,0.135386,610663,447111
1395.01,0.139107,610634,443276
1398.29,0.143762,611700,439315
1402.66,0.149647,614051,435068
1405.93,0.154892,616268,431397
1409.2,0.158999,617795,428396
1412.46,0.163572,618872,424648
1415.72,0.167378,619795,421570
1418.98,0.170857,620495,418679
1422.23,0.174141,621087,415922
1426.56,0.177904,621375,412525
1429.8,0.180362,621616,410355
1433.04,0.183231,622129,407990
1436.27,0.185188,621526,405762
1439.5,0.187115,621113,403697
1442.72,0.189652,620921,401222
1445.94,0.192507,620270,398175
1450.23,0.195682,618860,394376
1453.44,0.198372,617697,391204
1456.64,0.201135,616264,387821
1459.85,0.204065,614413,384057
1463.04,0.206741,612307,380389
1466.24,0.210248,610032,375928
1469.43,0.214088,607345,370977
1473.67,0.220621,603789,363299
1476.85,0.225789,601175,357447
1480.02,0.232199,597737,350196
1483.19,0.239105,594479,342793
1486.36,0.244116,591232,337009
1489.52,0.249268,587853,331132
1492.68,0.252421,583875,326512
1496.89,0.254523,578062,321700
1500.03,0.255069,574159,319127
1503.18,0.255585,570285,316597
1506.32,0.254064,565444,315011
1509.45,0.253056,560571,313022
1512.58,0.251200,555821,311699
1515.71,0.248563,550344,310507
1519.87,0.246539,543983,308352
1522.99,0.244961,538764,306505
1526.1,0.241464,533692,306074
1529.21,0.238218,527902,305025
1532.32,0.236058,521886,303052
1535.42,0.232579,515888,301979
1538.51,0.229424,509987,300701
1541.6,0.227326,503936,298572
1545.72,0.222366,494694,296463
1548.8,0.219615,488378,294538
1551.88,0.217676,481832,291890
1554.95,0.215802,474989,288989
1558.02,0.214138,467818,285719
1561.08,0.212434,460730,282496
1564.15,0.212099,454170,278689
1568.22,0.210939,444181,273288
1571.27,0.210945,436947,268834
1574.32,0.209903,429598,264947
1577.36,0.208742,422039,260982
1580.4,0.207677,414375,256872
1583.43,0.206093,406354,252820
1586.46,0.204940,398475,248577
1590.49,0.203229,388982,243613
1593.51,0.200804,380708,239766
1596.53,0.198967,372727,235735
1599.54,0.196867,365060,232005
1602.55,0.194288,357543,228581
1605.55,0.192881,349495,224161
1608.55,0.190609,341154,219959
1612.54,0.189702,330877,213779
1615.53,0.187247,322904,209810
1618.51,0.186721,315116,204998
1621.49,0.186352,307217,200029
1624.47,0.184887,299481,195651
1627.44,0.183778,292112,191325
1630.41,0.182360,284245,186781
1634.36,0.181464,274079,180473
1637.32,0.180702,266916,176065
1640.27,0.179764,259612,171617
1643.22,0.178783,251804,166832
1646.16,0.178416,244348,162029
1649.1,0.178296,236703,157003
1652.04,0.176451,228171,151988
1655.95,0.172742,215408,144717
1658.88,0.169863,204937,138598
1661.8,0.163542,193395,132710
1664.72,0.154952,179728,125795
1667.63,0.143347,163642,117638
1670.54,0.129230,146312,108655
1673.44,0.113278,128451,98960
1677.31,0.090943,105080,85227
1680.21,0.081770,88906,73648
1683.1,0.074501,75033,63205
1685.99,0.076224,63520,53295
1688.87,0.074767,53714,45219
1691.75,0.082426,45653,37761
1694.62,0.089314,39137,31862
1697.49,0.096730,33776,27032
1701.31,0.098822,28175,22441