File: samples/wool/wool-000811/Column 1_050538_20150331_115418.csv
Method:,Column 1,,
Host Date-Time:,31/3/15 @ 11:54:18,,
Header Version:,1,,
System Temp (C):,31.93,,
Detector Temp (C):,30.27,,
Humidity (%):,3.32,,
Lamp PD:,3825,,
Shift Vector Coefficients:,-10.5391,0.0761263,-0.000134223,,
Pixel to Wavelength Coefficients:,1775.68,-0.916766,-0.000235065,,
Serial Number:,5510004,,
Scan Config Name:,Column 1,,
Scan Config Type:,Slew,,
Section 1,,
Start wavelength (nm):,900,,
End wavelength (nm):,1700,,
Pattern Pixel Width (nm):,   7.03,,,,
Exposure (ms):,  0.635,,,,
Digital Resolution:,228,,
Num Repeats:,6,,
PGA Gain:,64,,
Total Measurement Time in sec:,  2.675,,
Wavelength (nm),Absorbance (AU),Reference Signal (unitless),Sample Signal (unitless)
901.51,0.044827,108485,97846
905.376,0.050165,121306,108073
909.237,0.051436,131909,117176
913.095,0.051012,143299,127418
916.948,0.051120,156982,139550
922.079,0.049194,179937,160667
925.923,0.051271,200504,178177
929.762,0.052178,222660,197453
933.597,0.052758,244426,216466
937.427,0.052450,263972,233942
941.254,0.052764,281845,249601
945.076,0.053065,297271,263080
950.165,0.052608,315605,279599
953.978,0.053230,328029,290190
957.786,0.053722,340470,300855
961.59,0.053616,352317,311399
965.389,0.053862,363056,320709
969.185,0.054014,373162,329521
972.976,0.055662,382632,336604
976.763,0.056065,391202,343824
981.806,0.056664,400190,351239
985.583,0.056904,406088,356218
989.355,0.057828,410162,359027
993.124,0.058140,412868,361136
996.888,0.058888,414263,361733
1000.65,0.059895,415476,361952
1004.4,0.060155,415479,361738
1009.41,0.062257,414358,359020
1013.15,0.062594,412923,357499
1016.89,0.063575,411526,355486
1020.63,0.062975,409066,353849
1024.36,0.062861,406777,351962
1028.09,0.062556,404427,350174
1031.82,0.062013,401911,348431
1036.78,0.061572,398410,345747
1040.49,0.060266,396204,344868
1044.2,0.060225,394236,343187
1047.91,0.060636,392042,340955
1051.61,0.059206,389823,340143
1055.31,0.058790,388234,339081
1059,0.058216,387599,338974
1063.92,0.057288,386688,338901
1067.61,0.055885,386598,339918
1071.29,0.054788,387377,341465
1074.96,0.054478,388536,342731
1078.63,0.053737,389855,344482
1082.3,0.053159,391215,346144
1085.96,0.051745,393215,349048
1090.84,0.050711,396270,352598
1094.49,0.051174,398760,354436
1098.14,0.050449,400987,357011
1101.79,0.050175,403477,359454
1105.43,0.050503,406116,361532
1109.06,0.049572,407701,363722
1112.7,0.049855,409859,365409
1117.53,0.050002,412494,367634
1121.15,0.050885,414909,369035
1124.77,0.051386,416559,370076
1128.38,0.052759,418532,370655
1131.99,0.053920,419956,370923
1135.6,0.056299,421946,370645
1139.2,0.058542,423881,370426
1143.99,0.061656,426786,370300
1147.58,0.062924,428617,370805
1151.17,0.063910,431169,372167
1154.75,0.065548,433579,372838
1158.33,0.067872,436264,373145
1161.91,0.069481,439132,374209
1165.48,0.072750,442389,374157
1169.04,0.076074,446101,374420
1173.79,0.079878,451929,376004
1177.34,0.082654,456026,376995
1180.9,0.085361,461306,378990
1184.44,0.087094,467657,382678
1187.99,0.088063,473969,386979
1191.52,0.087254,479856,392516
1195.06,0.087087,487372,398817
1199.76,0.085301,497347,408657
1203.29,0.084491,504311,415152
1206.81,0.082817,511507,422702
1210.33,0.081518,519078,430244
1213.84,0.080886,527163,437581
1217.35,0.079834,534208,444505
1220.85,0.078642,540472,450953
1225.51,0.077029,549929,460551
1229.01,0.076296,556888,467167
1232.5,0.075324,562180,472663
1235.98,0.074976,567975,477918
1239.46,0.073420,574815,485409
1242.94,0.072573,582782,493098
1246.41,0.071850,591476,501288
1251.03,0.071034,604016,512878
1254.5,0.071053,612289,519880
1257.96,0.071662,619125,524948
1261.41,0.071876,624551,529288
1264.86,0.073003,629900,532438
1268.31,0.073467,634345,535622
1271.75,0.074338,638574,538113
1276.33,0.074849,642499,540783
1279.76,0.074380,645905,544238
1283.19,0.073800,648307,546992
1286.61,0.073349,650446,549366
1290.03,0.073083,652132,551128
1293.44,0.072664,653907,553162
1296.85,0.072567,655963,555025
1301.39,0.072197,657349,556672
1304.8,0.072158,657558,556898
1308.19,0.072424,658515,557368
1311.58,0.072638,658804,557338
1314.97,0.073441,659011,556483
1318.36,0.074091,658272,555027
1321.73,0.074254,658022,554609
1326.23,0.075732,657870,552597
1329.6,0.076692,656482,550213
1332.97,0.077575,654926,547794
1336.33,0.078993,653727,545009
1339.69,0.080824,652497,541695
1343.04,0.082756,649913,537155
1346.39,0.085329,647671,532139
1349.73,0.087762,645338,527261
1354.18,0.091396,641175,519494
1357.52,0.093967,638376,514173
1360.85,0.096635,635805,508966
1364.17,0.098663,633413,504689
1367.49,0.101700,631026,499284
1370.81,0.104066,628050,494229
1374.12,0.107321,625034,488183
1378.54,0.110517,620272,480912
1381.84,0.115145,616892,473221
1385.14,0.119876,613613,465606
1388.43,0.124868,611526,458719
1391.72,0.130775,610663,451884
1395.01,0.136940,610634,445493
1398.29,0.143086,611700,440000
1402.66,0.152083,614051,432635
1405.93,0.158945,616268,427390
1409.2,0.165077,617795,422442
1412.46,0.171386,618872,417076
1415.72,0.176769,619795,412552
1418.98,0.181627,620495,408424
1422.23,0.186033,621087,404687
1426.56,0.190605,621375,400635
1429.8,0.194093,621616,397584
1433.04,0.197025,622129,395235
1436.27,0.199612,621526,392507
1439.5,0.202147,621113,389963
1442.72,0.204259,620921,387951
1445.94,0.206920,620270,385177
1450.23,0.210923,618860,380776
1453.44,0.213967,617697,377406
1456.64,0.216191,616264,374607
1459.85,0.219570,614413,370587
1463.04,0.221798,612307,367427
1466.24,0.224918,610032,363442
1469.43,0.228532,607345,358842
1473.67,0.232646,603789,353378
1476.85,0.237507,601175,347932
1480.02,0.243427,597737,341258
1483.19,0.249687,594479,334541
1486.36,0.255008,591232,328662
1489.52,0.260513,587853,322668
1492.68,0.263763,583875,318095
1496.89,0.266562,578062,312905
1500.03,0.267518,574159,310109
1503.18,0.268076,570285,307621
1506.32,0.267535,565444,305390
1509.45,0.266037,560571,303804
1512.58,0.264830,555821,302068
1515.71,0.262252,550344,300872
1519.87,0.259058,543983,299590
1522.99,0.256882,538764,298206
1526.1,0.254119,533692,297284
1529.21,0.250315,527902,296646
1532.32,0.248022,521886,294818
1535.42,0.244412,515888,293862
1538.51,0.240961,509987,292818
1541.6,0.237822,503936,291443
1545.72,0.233604,494694,288890
1548.8,0.229780,488378,287724
1551.88,0.227232,481832,285538
1554.95,0.224399,474989,283325
1558.02,0.222263,467818,280423
1561.08,0.221445,460730,276695
1564.15,0.220690,454170,273230
1568.22,0.218810,444181,268380
1571.27,0.218194,436947,264384
1574.32,0.216923,429598,260699
1577.36,0.215861,422039,256739
1580.4,0.214405,414375,252923
1583.43,0.212409,406354,249170
1586.46,0.210732,398475,245284
1590.49,0.207837,388982,241042
1593.51,0.205682,380708,237088
1596.53,0.203370,372727,233357
1599.54,0.201434,365060,229578
1602.55,0.198793,357543,226222
1605.55,0.196082,349495,222515
1608.55,0.194006,341154,218245
1612.54,0.190370,330877,213450
1615.53,0.188281,322904,209311
1618.51,0.187427,315116,204665
1621.49,0.186367,307217,200022
1624.47,0.183956,299481,196071
1627.44,0.182726,292112,191789
1630.41,0.181343,284245,187219
1634.36,0.179957,274079,181100
1637.32,0.178858,266916,176814
1640.27,0.177553,259612,172493
1643.22,0.176789,251804,167600
1646.16,0.176282,244348,162827
1649.1,0.175244,236703,158110
1652.04,0.173898,228171,152884
1655.95,0.173977,215408,144306
1658.88,0.171685,204937,138018
1661.8,0.170635,193395,130560
1664.72,0.169075,179728,121770
1667.63,0.164995,163642,111918
1670.54,0.160391,146312,101132
1673.44,0.157045,128451,89473
1677.31,0.152435,105080,73975
1680.21,0.152912,88906,62520
1683.1,0.155316,75033,52473
1685.99,0.158019,63520,44146
1688.87,0.168259,53714,36461
1691.75,0.169370,45653,30910
1694.62,0.180278,39137,25841
1697.49,0.178496,33776,22393
1701.31,0.183962,28175,18446