File: samples/wool/wool-000811/Column 1_050629_20150331_123737.csv
Method:,Column 1,,
Host Date-Time:,31/3/15 @ 12:37:37,,
Header Version:,1,,
System Temp (C):,34.16,,
Detector Temp (C):,35.05,,
Humidity (%):,1.56,,
Lamp PD:,3818,,
Shift Vector Coefficients:,-10.5391,0.0761263,-0.000134223,,
Pixel to Wavelength Coefficients:,1775.68,-0.916766,-0.000235065,,
Serial Number:,5510004,,
Scan Config Name:,Column 1,,
Scan Config Type:,Slew,,
Section 1,,
Start wavelength (nm):,900,,
End wavelength (nm):,1700,,
Pattern Pixel Width (nm):,   7.03,,,,
Exposure (ms):,  0.635,,,,
Digital Resolution:,228,,
Num Repeats:,6,,
PGA Gain:,64,,
Total Measurement Time in sec:,  2.666,,
Wavelength (nm),Absorbance (AU),Reference Signal (unitless),Sample Signal (unitless)
901.51,0.069195,108485,92507
905.376,0.075602,121306,101925
909.237,0.077573,131909,110332
913.095,0.079603,143299,119300
916.948,0.079289,156982,130786
922.079,0.083005,179937,148633
925.923,0.081803,200504,166081
929.762,0.083292,222660,183802
933.597,0.082422,244426,202174
937.427,0.081651,263972,218729
941.254,0.079999,281845,234429
945.076,0.079800,297271,247373
950.165,0.078568,315605,263376
953.978,0.077160,328029,274633
957.786,0.076785,340470,285295
961.59,0.077913,352317,294456
965.389,0.077373,363056,303809
969.185,0.078573,373162,311404
972.976,0.078289,382632,319516
976.763,0.078388,391202,326598
981.806,0.078547,400190,333979
985.583,0.079278,406088,338331
989.355,0.079652,410162,341431
993.124,0.080312,412868,343162
996.888,0.080496,414263,344176
1000.65,0.081494,415476,344391
1004.4,0.081877,415479,344090
1009.41,0.083860,414358,341598
1013.15,0.084575,412923,339855
1016.89,0.084630,411526,338663
1020.63,0.084519,409066,336724
1024.36,0.084273,406777,335030
1028.09,0.083678,404427,333551
1031.82,0.084642,401911,330741
1036.78,0.083590,398410,328655
1040.49,0.083014,396204,327269
1044.2,0.083817,394236,325042
1047.91,0.083099,392042,323768
1051.61,0.082827,389823,322137
1055.31,0.082551,388234,321028
1059,0.082227,387599,320742
1063.92,0.080691,386688,321122
1067.61,0.080725,386598,321022
1071.29,0.080051,387377,322168
1074.96,0.079450,388536,323580
1078.63,0.079284,389855,324802
1082.3,0.077508,391215,327271
1085.96,0.077005,393215,329325
1090.84,0.076487,396270,332280
1094.49,0.075990,398760,334751
1098.14,0.074996,400987,337392
1101.79,0.074792,403477,339646
1105.43,0.074298,406116,342257
1109.06,0.073732,407701,344041
1112.7,0.073248,409859,346247
1117.53,0.072576,412494,349013
1121.15,0.073782,414909,350083
1124.77,0.073845,416559,351424
1128.38,0.074756,418532,352349
1131.99,0.075526,419956,352921
1135.6,0.076837,421946,353525
1139.2,0.078320,423881,353935
1143.99,0.080212,426786,354812
1147.58,0.081082,428617,355621
1151.17,0.081739,431169,357198
1154.75,0.082558,433579,358517
1158.33,0.084363,436264,359241
1161.91,0.085903,439132,360323
1165.48,0.087588,442389,361590
1169.04,0.089679,446101,362873
1173.79,0.093497,451929,364396
1177.34,0.095749,456026,365797
1180.9,0.097902,461306,368203
1184.44,0.099731,467657,371703
1187.99,0.100940,473969,375673
1191.52,0.100381,479856,380829
1195.06,0.100310,487372,386857
1199.76,0.100011,497347,395047
1203.29,0.098897,504311,401607
1206.81,0.098791,511507,407437
1210.33,0.098067,519078,414158
1213.84,0.097475,527163,421182
1217.35,0.097005,534208,427273
1220.85,0.096249,540472,433036
1225.51,0.095323,549929,441554
1229.01,0.094989,556888,447485
1232.5,0.094425,562180,452325
1235.98,0.093790,567975,457656
1239.46,0.092627,574815,464410
1242.94,0.091898,582782,471637
1246.41,0.091184,591476,479461
1251.03,0.090987,604016,489848
1254.5,0.091410,612289,496074
1257.96,0.091815,619125,501145
1261.41,0.092236,624551,505047
1264.86,0.092790,629900,508723
1268.31,0.093107,634345,511939
1271.75,0.094056,638574,514228
1276.33,0.093805,642499,517687
1279.76,0.093831,645905,520400
1283.19,0.093589,648307,522627
1286.61,0.092620,650446,525523
1290.03,0.092543,652132,526978
1293.44,0.092217,653907,528809
1296.85,0.091661,655963,531151
1301.39,0.091416,657349,532574
1304.8,0.091420,657558,532739
1308.19,0.091279,658515,533687
1311.58,0.091789,658804,533295
1314.97,0.092159,659011,533008
1318.36,0.092619,658272,531846
1321.73,0.092515,658022,531772
1326.23,0.093451,657870,530505
1329.6,0.094067,656482,528635
1332.97,0.095236,654926,525964
1336.33,0.095614,653727,524544
1339.69,0.097286,652497,521546
1343.04,0.098440,649913,518102
1346.39,0.100821,647671,513492
1349.73,0.102556,645338,509602
1354.18,0.105548,641175,502838
1357.52,0.107281,638376,498650
1360.85,0.108905,635805,494788
1364.17,0.111261,633413,490260
1367.49,0.113931,631026,485418
1370.81,0.115067,628050,481867
1374.12,0.117502,625034,476872
1378.54,0.120694,620272,469773
1381.84,0.123027,616892,464710
1385.14,0.125960,613613,459129
1388.43,0.129599,611526,453749
1391.72,0.133498,610663,449059
1395.01,0.136751,610634,445687
1398.29,0.140996,611700,442122
1402.66,0.147032,614051,437696
1405.93,0.151492,616268,434788
1409.2,0.155913,617795,431451
1412.46,0.160435,618872,427726
1415.72,0.163820,619795,425038
1418.98,0.167345,620495,422079
1422.23,0.170366,621087,419553
1426.56,0.174676,621375,415602
1429.8,0.176237,621616,414272
1433.04,0.179305,622129,411695
1436.27,0.181247,621526,409461
1439.5,0.183387,621113,407177
1442.72,0.186025,620921,404586
1445.94,0.188429,620270,401931
1450.23,0.191927,618860,397801
1453.44,0.194645,617697,394576
1456.64,0.197804,616264,390807
1459.85,0.200037,614413,387635
1463.04,0.203560,612307,383186
1466.24,0.206857,610032,378875
1469.43,0.211173,607345,373476
1473.67,0.217491,603789,365927
1476.85,0.223955,601175,358960
1480.02,0.229792,597737,352142
1483.19,0.236723,594479,344678
1486.36,0.242971,591232,337899
1489.52,0.247464,587853,332510
1492.68,0.251045,583875,327548
1496.89,0.253504,578062,322456
1500.03,0.253827,574159,320041
1503.18,0.253934,570285,317803
1506.32,0.252976,565444,315801
1509.45,0.251704,560571,313998
1512.58,0.250036,555821,312535
1515.71,0.247697,550344,311127
1519.87,0.244434,543983,309850
1522.99,0.242228,538764,308440
1526.1,0.239474,533692,307480
1529.21,0.236968,527902,305904
1532.32,0.233484,521886,304854
1535.42,0.231001,515888,303078
1538.51,0.227802,509987,301826
1541.6,0.225034,503936,300152
1545.72,0.221102,494694,297327
1548.8,0.218576,488378,295243
1551.88,0.215345,481832,293461
1554.95,0.213741,474989,290364
1558.02,0.212475,467818,286815
1561.08,0.211165,460730,283323
1564.15,0.211272,454170,279220
1568.22,0.209551,444181,274163
1571.27,0.208959,436947,270066
1574.32,0.208308,429598,265922
1577.36,0.207212,422039,261903
1580.4,0.205823,414375,257971
1583.43,0.204690,406354,253638
1586.46,0.203430,398475,249443
1590.49,0.201514,388982,244577
1593.51,0.199011,380708,240758
1596.53,0.196928,372727,236844
1599.54,0.195131,365060,232934
1602.55,0.193730,357543,228875
1605.55,0.191455,349495,224898
1608.55,0.189434,341154,220555
1612.54,0.188422,330877,214410
1615.53,0.185898,322904,210463
1618.51,0.186120,315116,205282
1621.49,0.184725,307217,200780
1624.47,0.183241,299481,196394
1627.44,0.183195,292112,191582
1630.41,0.181807,284245,187019
1634.36,0.181011,274079,180661
1637.32,0.179534,266916,176539
1640.27,0.179147,259612,171861
1643.22,0.177689,251804,167253
1646.16,0.176426,244348,162773
1649.1,0.176287,236703,157731
1652.04,0.174974,228171,152506
1655.95,0.170456,215408,145481
1658.88,0.168796,204937,138939
1661.8,0.162411,193395,133056
1664.72,0.155823,179728,125543
1667.63,0.142186,163642,117953
1670.54,0.127587,146312,109067
1673.44,0.111085,128451,99461
1677.31,0.088468,105080,85714
1680.21,0.076029,88906,74628
1683.1,0.070970,75033,63721
1685.99,0.071822,63520,53838
1688.87,0.070856,53714,45628
1691.75,0.079274,45653,38036
1694.62,0.086556,39137,32065
1697.49,0.094902,33776,27146
1701.31,0.097508,28175,22509