File: samples/wool/wool-000811/Column 1_050626_20150331_123605.csv
Method:,Column 1,,
Host Date-Time:,31/3/15 @ 12:36:5,,
Header Version:,1,,
System Temp (C):,34.16,,
Detector Temp (C):,35.05,,
Humidity (%):,1.56,,
Lamp PD:,3818,,
Shift Vector Coefficients:,-10.5391,0.0761263,-0.000134223,,
Pixel to Wavelength Coefficients:,1775.68,-0.916766,-0.000235065,,
Serial Number:,5510004,,
Scan Config Name:,Column 1,,
Scan Config Type:,Slew,,
Section 1,,
Start wavelength (nm):,900,,
End wavelength (nm):,1700,,
Pattern Pixel Width (nm):,   7.03,,,,
Exposure (ms):,  0.635,,,,
Digital Resolution:,228,,
Num Repeats:,6,,
PGA Gain:,64,,
Total Measurement Time in sec:,  2.671,,
Wavelength (nm),Absorbance (AU),Reference Signal (unitless),Sample Signal (unitless)
901.51,0.069660,108485,92408
905.376,0.076557,121306,101701
909.237,0.078653,131909,110058
913.095,0.078621,143299,119570
916.948,0.079428,156982,130744
922.079,0.080877,179937,149363
925.923,0.081296,200504,166275
929.762,0.082926,222660,183957
933.597,0.082521,244426,202128
937.427,0.081042,263972,219036
941.254,0.080429,281845,234197
945.076,0.079125,297271,247758
950.165,0.078101,315605,263659
953.978,0.076764,328029,274883
957.786,0.077504,340470,284823
961.59,0.077440,352317,294777
965.389,0.077868,363056,303463
969.185,0.077691,373162,312037
972.976,0.077633,382632,319999
976.763,0.078239,391202,326710
981.806,0.078375,400190,334111
985.583,0.079181,406088,338407
989.355,0.079539,410162,341520
993.124,0.080579,412868,342951
996.888,0.080504,414263,344169
1000.65,0.081232,415476,344599
1004.4,0.082720,415479,343423
1009.41,0.083895,414358,341571
1013.15,0.083974,412923,340326
1016.89,0.084604,411526,338683
1020.63,0.084921,409066,336413
1024.36,0.084667,406777,334726
1028.09,0.083888,404427,333390
1031.82,0.084522,401911,330832
1036.78,0.083731,398410,328548
1040.49,0.083556,396204,326861
1044.2,0.083408,394236,325348
1047.91,0.083250,392042,323655
1051.61,0.083383,389823,321725
1055.31,0.082413,388234,321130
1059,0.082751,387599,320355
1063.92,0.081254,386688,320706
1067.61,0.080910,386598,320885
1071.29,0.079794,387377,322359
1074.96,0.079799,388536,323320
1078.63,0.079302,389855,324789
1082.3,0.078225,391215,326731
1085.96,0.077537,393215,328922
1090.84,0.076133,396270,332551
1094.49,0.075667,398760,335000
1098.14,0.075342,400987,337123
1101.79,0.074797,403477,339642
1105.43,0.074417,406116,342163
1109.06,0.073528,407701,344202
1112.7,0.073502,409859,346045
1117.53,0.073285,412494,348444
1121.15,0.073385,414909,350403
1124.77,0.073656,416559,351577
1128.38,0.074629,418532,352452
1131.99,0.075648,419956,352822
1135.6,0.077383,421946,353081
1139.2,0.078236,423881,354004
1143.99,0.080754,426786,354369
1147.58,0.081332,428617,355416
1151.17,0.082359,431169,356688
1154.75,0.082745,433579,358363
1158.33,0.084032,436264,359515
1161.91,0.085683,439132,360506
1165.48,0.087642,442389,361545
1169.04,0.090072,446101,362544
1173.79,0.093736,451929,364195
1177.34,0.095452,456026,366048
1180.9,0.097914,461306,368193
1184.44,0.099894,467657,371564
1187.99,0.100962,473969,375654
1191.52,0.100377,479856,380832
1195.06,0.100406,487372,386772
1199.76,0.100150,497347,394920
1203.29,0.099111,504311,401409
1206.81,0.098812,511507,407417
1210.33,0.097921,519078,414297
1213.84,0.097082,527163,421563
1217.35,0.097319,534208,426964
1220.85,0.096178,540472,433107
1225.51,0.095161,549929,441719
1229.01,0.095244,556888,447223
1232.5,0.094181,562180,452579
1235.98,0.093656,567975,457797
1239.46,0.092609,574815,464429
1242.94,0.091982,582782,471546
1246.41,0.090660,591476,480040
1251.03,0.090861,604016,489990
1254.5,0.091004,612289,496538
1257.96,0.091843,619125,501113
1261.41,0.092281,624551,504995
1264.86,0.092941,629900,508547
1268.31,0.093250,634345,511771
1271.75,0.093941,638574,514364
1276.33,0.094065,642499,517377
1279.76,0.093906,645905,520310
1283.19,0.093170,648307,523131
1286.61,0.093195,650446,524827
1290.03,0.092865,652132,526587
1293.44,0.092243,653907,528777
1296.85,0.091628,655963,531192
1301.39,0.091627,657349,532315
1304.8,0.091732,657558,532356
1308.19,0.091622,658515,533266
1311.58,0.091689,658804,533417
1314.97,0.092593,659011,532475
1318.36,0.092645,658272,531815
1321.73,0.092846,658022,531367
1326.23,0.093508,657870,530435
1329.6,0.094648,656482,527928
1332.97,0.095108,654926,526119
1336.33,0.096069,653727,523995
1339.69,0.097449,652497,521350
1343.04,0.098889,649913,517566
1346.39,0.101004,647671,513275
1349.73,0.102814,645338,509299
1354.18,0.105365,641175,503051
1357.52,0.107602,638376,498281
1360.85,0.109607,635805,493989
1364.17,0.111565,633413,489916
1367.49,0.113655,631026,485727
1370.81,0.115678,628050,481190
1374.12,0.117408,625034,476975
1378.54,0.120369,620272,470125
1381.84,0.122993,616892,464746
1385.14,0.126181,613613,458895
1388.43,0.129963,611526,453369
1391.72,0.133386,610663,449175
1395.01,0.137359,610634,445064
1398.29,0.141640,611700,441467
1402.66,0.147863,614051,436859
1405.93,0.152492,616268,433788
1409.2,0.156801,617795,430570
1412.46,0.160612,618872,427552
1415.72,0.164630,619795,424246
1418.98,0.167828,620495,421609
1422.23,0.171111,621087,418834
1426.56,0.175010,621375,415283
1429.8,0.177162,621616,413390
1433.04,0.180228,622129,410821
1436.27,0.182085,621526,408671
1439.5,0.183831,621113,406761
1442.72,0.186426,620921,404213
1445.94,0.188685,620270,401694
1450.23,0.191889,618860,397835
1453.44,0.194980,617697,394272
1456.64,0.198226,616264,390428
1459.85,0.200657,614413,387082
1463.04,0.203761,612307,383008
1466.24,0.207354,610032,378441
1469.43,0.211770,607345,372963
1473.67,0.218310,603789,365237
1476.85,0.223662,601175,359202
1480.02,0.229882,597737,352069
1483.19,0.236732,594479,344671
1486.36,0.243376,591232,337584
1489.52,0.248190,587853,331955
1492.68,0.251184,583875,327443
1496.89,0.253482,578062,322472
1500.03,0.253882,574159,320000
1503.18,0.254350,570285,317499
1506.32,0.253718,565444,315262
1509.45,0.252052,560571,313746
1512.58,0.250544,555821,312170
1515.71,0.248071,550344,310859
1519.87,0.244933,543983,309494
1522.99,0.242390,538764,308325
1526.1,0.239998,533692,307109
1529.21,0.237430,527902,305579
1532.32,0.233427,521886,304894
1535.42,0.231163,515888,302965
1538.51,0.230620,509987,299874
1541.6,0.225945,503936,299523
1545.72,0.221596,494694,296989
1548.8,0.218162,488378,295525
1551.88,0.216494,481832,292686
1554.95,0.213845,474989,290294
1558.02,0.212610,467818,286726
1561.08,0.210936,460730,283472
1564.15,0.211712,454170,278937
1568.22,0.209803,444181,274004
1571.27,0.209698,436947,269607
1574.32,0.208576,429598,265758
1577.36,0.207575,422039,261684
1580.4,0.206208,414375,257742
1583.43,0.204868,406354,253534
1586.46,0.203047,398475,249663
1590.49,0.201331,388982,244680
1593.51,0.199717,380708,240367
1596.53,0.197791,372727,236374
1599.54,0.196190,365060,232367
1602.55,0.194347,357543,228550
1605.55,0.191540,349495,224854
1608.55,0.190159,341154,220187
1612.54,0.188122,330877,214558
1615.53,0.186383,322904,210228
1618.51,0.185490,315116,205580
1621.49,0.183681,307217,201263
1624.47,0.183122,299481,196448
1627.44,0.181877,292112,192164
1630.41,0.181227,284245,187269
1634.36,0.181165,274079,180597
1637.32,0.179354,266916,176612
1640.27,0.179451,259612,171741
1643.22,0.178123,251804,167086
1646.16,0.178036,244348,162171
1649.1,0.176237,236703,157749
1652.04,0.174851,228171,152549
1655.95,0.171894,215408,145000
1658.88,0.168634,204937,138991
1661.8,0.163093,193395,132847
1664.72,0.154497,179728,125927
1667.63,0.141527,163642,118132
1670.54,0.125830,146312,109509
1673.44,0.110352,128451,99629
1677.31,0.090734,105080,85268
1680.21,0.078914,88906,74134
1683.1,0.073081,75033,63412
1685.99,0.073681,63520,53608
1688.87,0.075420,53714,45151
1691.75,0.085010,45653,37537
1694.62,0.085096,39137,32173
1697.49,0.086332,33776,27687
1701.31,0.096544,28175,22559