File: samples/wool/wool-000811/Column 1_050536_20150331_115324.csv
Method:,Column 1,,
Host Date-Time:,31/3/15 @ 11:53:24,,
Header Version:,1,,
System Temp (C):,31.59,,
Detector Temp (C):,30.11,,
Humidity (%):,3.61,,
Lamp PD:,3826,,
Shift Vector Coefficients:,-10.5391,0.0761263,-0.000134223,,
Pixel to Wavelength Coefficients:,1775.68,-0.916766,-0.000235065,,
Serial Number:,5510004,,
Scan Config Name:,Column 1,,
Scan Config Type:,Slew,,
Section 1,,
Start wavelength (nm):,900,,
End wavelength (nm):,1700,,
Pattern Pixel Width (nm):,   7.03,,,,
Exposure (ms):,  0.635,,,,
Digital Resolution:,228,,
Num Repeats:,6,,
PGA Gain:,64,,
Total Measurement Time in sec:,  2.669,,
Wavelength (nm),Absorbance (AU),Reference Signal (unitless),Sample Signal (unitless)
901.51,0.040437,108485,98840
905.376,0.047753,121306,108675
909.237,0.048724,131909,117910
913.095,0.048972,143299,128018
916.948,0.049461,156982,140084
922.079,0.048025,179937,161100
925.923,0.048562,200504,179292
929.762,0.049422,222660,198710
933.597,0.050522,244426,217583
937.427,0.050303,263972,235101
941.254,0.051515,281845,250320
945.076,0.051172,297271,264229
950.165,0.051752,315605,280151
953.978,0.051159,328029,291577
957.786,0.051744,340470,302228
961.59,0.053013,352317,311832
965.389,0.052991,363056,321353
969.185,0.053133,373162,330190
972.976,0.053836,382632,338022
976.763,0.054698,391202,344908
981.806,0.054725,400190,352810
985.583,0.056007,406088,356955
989.355,0.056433,410162,360182
993.124,0.056935,412868,362140
996.888,0.057567,414263,362835
1000.65,0.058391,415476,363208
1004.4,0.059917,415479,361936
1009.41,0.060815,414358,360214
1013.15,0.061261,412923,358598
1016.89,0.062206,411526,356608
1020.63,0.061812,409066,354798
1024.36,0.062186,406777,352509
1028.09,0.061549,404427,350987
1031.82,0.061204,401911,349081
1036.78,0.060305,398410,346757
1040.49,0.059477,396204,345495
1044.2,0.059713,394236,343592
1047.91,0.059407,392042,341921
1051.61,0.058429,389823,340752
1055.31,0.057467,388234,340116
1059,0.056600,387599,340238
1063.92,0.055412,386688,340368
1067.61,0.054731,386598,340823
1071.29,0.054038,387377,342055
1074.96,0.053004,388536,343896
1078.63,0.052768,389855,345251
1082.3,0.051243,391215,347674
1085.96,0.050302,393215,350210
1090.84,0.050102,396270,353093
1094.49,0.050041,398760,355362
1098.14,0.049127,400987,358099
1101.79,0.049461,403477,360046
1105.43,0.049371,406116,362476
1109.06,0.048877,407701,364305
1112.7,0.048691,409859,366390
1117.53,0.048889,412494,368577
1121.15,0.049017,414909,370626
1124.77,0.050636,416559,370715
1128.38,0.052182,418532,371148
1131.99,0.053153,419956,371579
1135.6,0.055484,421946,371341
1139.2,0.057387,423881,371413
1143.99,0.060603,426786,371199
1147.58,0.062057,428617,371546
1151.17,0.063338,431169,372657
1154.75,0.064623,433579,373633
1158.33,0.067010,436264,373886
1161.91,0.069322,439132,374346
1165.48,0.072152,442389,374673
1169.04,0.074792,446101,375527
1173.79,0.078874,451929,376874
1177.34,0.081945,456026,377611
1180.9,0.084323,461306,379897
1184.44,0.086370,467657,383316
1187.99,0.086810,473969,388097
1191.52,0.087203,479856,392562
1195.06,0.085772,487372,400026
1199.76,0.084243,497347,409653
1203.29,0.083497,504311,416104
1206.81,0.082560,511507,422952
1210.33,0.080901,519078,430855
1213.84,0.079633,527163,438846
1217.35,0.078880,534208,445482
1220.85,0.077682,540472,451951
1225.51,0.076747,549929,460850
1229.01,0.075942,556888,467548
1232.5,0.075010,562180,473005
1235.98,0.074276,567975,478689
1239.46,0.072562,574815,486369
1242.94,0.071481,582782,494339
1246.41,0.071146,591476,502101
1251.03,0.070555,604016,513445
1254.5,0.070557,612289,520474
1257.96,0.070901,619125,525869
1261.41,0.071488,624551,529761
1264.86,0.072045,629900,533613
1268.31,0.072672,634345,536603
1271.75,0.073446,638574,539219
1276.33,0.073816,642499,542071
1279.76,0.073777,645905,544994
1283.19,0.073074,648307,547907
1286.61,0.072661,650446,550237
1290.03,0.072688,652132,551630
1293.44,0.071944,653907,554079
1296.85,0.071812,655963,555991
1301.39,0.071698,657349,557311
1304.8,0.071947,657558,557169
1308.19,0.071838,658515,558120
1311.58,0.072155,658804,557958
1314.97,0.072730,659011,557395
1318.36,0.073375,658272,555943
1321.73,0.074025,658022,554901
1326.23,0.075212,657870,553259
1329.6,0.075907,656482,551209
1332.97,0.077363,654926,548061
1336.33,0.078675,653727,545408
1339.69,0.080646,652497,541917
1343.04,0.082872,649913,537011
1346.39,0.085144,647671,532366
1349.73,0.087799,645338,527216
1354.18,0.090972,641175,520002
1357.52,0.093557,638376,514659
1360.85,0.095808,635805,509936
1364.17,0.098449,633413,504938
1367.49,0.101127,631026,499943
1370.81,0.103455,628050,494925
1374.12,0.106494,625034,489114
1378.54,0.110625,620272,480792
1381.84,0.114723,616892,473681
1385.14,0.119336,613613,466185
1388.43,0.124367,611526,459249
1391.72,0.130622,610663,452043
1395.01,0.136452,610634,445994
1398.29,0.142758,611700,440332
1402.66,0.151527,614051,433189
1405.93,0.158730,616268,427602
1409.2,0.165462,617795,422068
1412.46,0.171674,618872,416799
1415.72,0.177282,619795,412065
1418.98,0.182432,620495,407668
1422.23,0.186580,621087,404178
1426.56,0.191753,621375,399577
1429.8,0.194622,621616,397100
1433.04,0.197982,622129,394365
1436.27,0.200429,621526,391769
1439.5,0.202195,621113,389920
1442.72,0.204859,620921,387416
1445.94,0.207599,620270,384576
1450.23,0.211296,618860,380449
1453.44,0.214454,617697,376983
1456.64,0.217654,616264,373347
1459.85,0.220113,614413,370124
1463.04,0.222130,612307,367146
1466.24,0.225531,610032,362929
1469.43,0.228213,607345,359106
1473.67,0.232890,603789,353179
1476.85,0.238056,601175,347492
1480.02,0.243163,597737,341466
1483.19,0.249380,594479,334778
1486.36,0.255090,591232,328600
1489.52,0.259499,587853,323422
1492.68,0.263562,583875,318242
1496.89,0.266320,578062,313079
1500.03,0.267487,574159,310131
1503.18,0.267154,570285,308275
1506.32,0.267797,565444,305206
1509.45,0.266123,560571,303744
1512.58,0.264504,555821,302295
1515.71,0.261737,550344,301229
1519.87,0.259338,543983,299397
1522.99,0.256648,538764,298367
1526.1,0.254029,533692,297346
1529.21,0.250860,527902,296274
1532.32,0.247683,521886,295048
1535.42,0.243783,515888,294288
1538.51,0.240752,509987,292959
1541.6,0.237787,503936,291466
1545.72,0.232547,494694,289594
1548.8,0.229445,488378,287946
1551.88,0.226879,481832,285770
1554.95,0.224776,474989,283079
1558.02,0.222235,467818,280441
1561.08,0.221113,460730,276907
1564.15,0.220201,454170,273538
1568.22,0.218983,444181,268273
1571.27,0.217731,436947,264666
1574.32,0.217195,429598,260536
1577.36,0.216179,422039,256551
1580.4,0.213183,414375,253636
1583.43,0.211646,406354,249608
1586.46,0.209425,398475,246023
1590.49,0.206441,388982,241818
1593.51,0.205016,380708,237452
1596.53,0.201746,372727,234231
1599.54,0.200051,365060,230310
1602.55,0.197390,357543,226954
1605.55,0.195493,349495,222817
1608.55,0.193608,341154,218445
1612.54,0.190837,330877,213221
1615.53,0.187730,322904,209577
1618.51,0.187253,315116,204747
1621.49,0.185392,307217,200472
1624.47,0.183241,299481,196394
1627.44,0.181737,292112,192226
1630.41,0.181445,284245,187175
1634.36,0.178736,274079,181610
1637.32,0.178100,266916,177123
1640.27,0.176693,259612,172835
1643.22,0.175167,251804,168227
1646.16,0.174983,244348,163315
1649.1,0.174276,236703,158463
1652.04,0.173737,228171,152941
1655.95,0.172523,215408,144790
1658.88,0.169315,204937,138773
1661.8,0.170010,193395,130748
1664.72,0.167623,179728,122178
1667.63,0.163995,163642,112176
1670.54,0.159756,146312,101280
1673.44,0.157390,128451,89402
1677.31,0.153393,105080,73812
1680.21,0.154729,88906,62259
1683.1,0.157956,75033,52155
1685.99,0.162350,63520,43708
1688.87,0.163697,53714,36846
1691.75,0.168556,45653,30968
1694.62,0.168409,39137,26557
1697.49,0.177024,33776,22469
1701.31,0.162085,28175,19399