File: samples/wool/wool-000811/Column 1_050543_20150331_115643.csv
Method:,Column 1,,
Host Date-Time:,31/3/15 @ 11:56:43,,
Header Version:,1,,
System Temp (C):,32.72,,
Detector Temp (C):,31.11,,
Humidity (%):,2.74,,
Lamp PD:,3824,,
Shift Vector Coefficients:,-10.5391,0.0761263,-0.000134223,,
Pixel to Wavelength Coefficients:,1775.68,-0.916766,-0.000235065,,
Serial Number:,5510004,,
Scan Config Name:,Column 1,,
Scan Config Type:,Slew,,
Section 1,,
Start wavelength (nm):,900,,
End wavelength (nm):,1700,,
Pattern Pixel Width (nm):,   7.03,,,,
Exposure (ms):,  0.635,,,,
Digital Resolution:,228,,
Num Repeats:,6,,
PGA Gain:,64,,
Total Measurement Time in sec:,  2.720,,
Wavelength (nm),Absorbance (AU),Reference Signal (unitless),Sample Signal (unitless)
901.51,0.044042,108485,98023
905.376,0.049964,121306,108123
909.237,0.051525,131909,117152
913.095,0.051848,143299,127173
916.948,0.052601,156982,139075
922.079,0.052493,179937,159451
925.923,0.052062,200504,177853
929.762,0.053385,222660,196905
933.597,0.054696,244426,215502
937.427,0.053626,263972,233309
941.254,0.054502,281845,248604
945.076,0.053426,297271,262861
950.165,0.054250,315605,278544
953.978,0.053929,328029,289723
957.786,0.054214,340470,300514
961.59,0.054894,352317,310484
965.389,0.055007,363056,319865
969.185,0.054655,373162,329035
972.976,0.056156,382632,336221
976.763,0.056510,391202,343472
981.806,0.056655,400190,351246
985.583,0.057796,406088,355487
989.355,0.058095,410162,358807
993.124,0.058908,412868,360498
996.888,0.059569,414263,361166
1000.65,0.060200,415476,361698
1004.4,0.061782,415479,360385
1009.41,0.062814,414358,358560
1013.15,0.063179,412923,357018
1016.89,0.063783,411526,355316
1020.63,0.063860,409066,353129
1024.36,0.063388,406777,351535
1028.09,0.062991,404427,349824
1031.82,0.062597,401911,347963
1036.78,0.062452,398410,345047
1040.49,0.061600,396204,343810
1044.2,0.061191,394236,342425
1047.91,0.060194,392042,341302
1051.61,0.059790,389823,339686
1055.31,0.059203,388234,338759
1059,0.058294,387599,338913
1063.92,0.057299,386688,338892
1067.61,0.056282,386598,339608
1071.29,0.056093,387377,340440
1074.96,0.054677,388536,342574
1078.63,0.054254,389855,344072
1082.3,0.053245,391215,346075
1085.96,0.052650,393215,348321
1090.84,0.051519,396270,351943
1094.49,0.050830,398760,354717
1098.14,0.051335,400987,356283
1101.79,0.050539,403477,359153
1105.43,0.051451,406116,360744
1109.06,0.050740,407701,362745
1112.7,0.050788,409859,364625
1117.53,0.049958,412494,367671
1121.15,0.051733,414909,368315
1124.77,0.051919,416559,369622
1128.38,0.053163,418532,370310
1131.99,0.054983,419956,370016
1135.6,0.056877,421946,370152
1139.2,0.058975,423881,370057
1143.99,0.061653,426786,370303
1147.58,0.062731,428617,370970
1151.17,0.064415,431169,371734
1154.75,0.065552,433579,372835
1158.33,0.067651,436264,373335
1161.91,0.070182,439132,373605
1165.48,0.072963,442389,373974
1169.04,0.075407,446101,374996
1173.79,0.080178,451929,375744
1177.34,0.082479,456026,377147
1180.9,0.085226,461306,379108
1184.44,0.087500,467657,382320
1187.99,0.088045,473969,386995
1191.52,0.088101,479856,391751
1195.06,0.087059,487372,398843
1199.76,0.086076,497347,407928
1203.29,0.083829,504311,415786
1206.81,0.083243,511507,422288
1210.33,0.082029,519078,429738
1213.84,0.080928,527163,437539
1217.35,0.079911,534208,444426
1220.85,0.079005,540472,450576
1225.51,0.077201,549929,460369
1229.01,0.076751,556888,466677
1232.5,0.075556,562180,472410
1235.98,0.075084,567975,477799
1239.46,0.073564,574815,485248
1242.94,0.072244,582782,493471
1246.41,0.071730,591476,501426
1251.03,0.071796,604016,511979
1254.5,0.071825,612289,518957
1257.96,0.071847,619125,524725
1261.41,0.072895,624551,528048
1264.86,0.073228,629900,532162
1268.31,0.073650,634345,535397
1271.75,0.074422,638574,538009
1276.33,0.074843,642499,540791
1279.76,0.074717,645905,543815
1283.19,0.073979,648307,546766
1286.61,0.073661,650446,548972
1290.03,0.073410,652132,550713
1293.44,0.072999,653907,552735
1296.85,0.072591,655963,554994
1301.39,0.072046,657349,556865
1304.8,0.072138,657558,556924
1308.19,0.072509,658515,557259
1311.58,0.072861,658804,557051
1314.97,0.073851,659011,555958
1318.36,0.074443,658272,554578
1321.73,0.074633,658022,554125
1326.23,0.075767,657870,552552
1329.6,0.076726,656482,550170
1332.97,0.077640,654926,547712
1336.33,0.079185,653727,544768
1339.69,0.080807,652497,541716
1343.04,0.082642,649913,537295
1346.39,0.085156,647671,532351
1349.73,0.087825,645338,527184
1354.18,0.091306,641175,519602
1357.52,0.093509,638376,514716
1360.85,0.096359,635805,509290
1364.17,0.098526,633413,504848
1367.49,0.101273,631026,499775
1370.81,0.103756,628050,494582
1374.12,0.106215,625034,489428
1378.54,0.110762,620272,480640
1381.84,0.114863,616892,473528
1385.14,0.118731,613613,466835
1388.43,0.123946,611526,459694
1391.72,0.129961,610663,452731
1395.01,0.135419,610634,447056
1398.29,0.141513,611700,441596
1402.66,0.150507,614051,434208
1405.93,0.157168,616268,429143
1409.2,0.163207,617795,424265
1412.46,0.169063,618872,419313
1415.72,0.173994,619795,415197
1418.98,0.178801,620495,411090
1422.23,0.182538,621087,407957
1426.56,0.187664,621375,403357
1429.8,0.190868,621616,400548
1433.04,0.193361,622129,398584
1436.27,0.196271,621526,395538
1439.5,0.198268,621113,393462
1442.72,0.201445,620921,390473
1445.94,0.203279,620270,388420
1450.23,0.207300,618860,383966
1453.44,0.209726,617697,381109
1456.64,0.212928,616264,377432
1459.85,0.215893,614413,373738
1463.04,0.218077,612307,370589
1466.24,0.221547,610032,366274
1469.43,0.225109,607345,361682
1473.67,0.230213,603789,355363
1476.85,0.235274,601175,349725
1480.02,0.241238,597737,342983
1483.19,0.247363,594479,336336
1486.36,0.253863,591232,329530
1489.52,0.258375,587853,324260
1492.68,0.261992,583875,319395
1496.89,0.264940,578062,314076
1500.03,0.266007,574159,311190
1503.18,0.266628,570285,308648
1506.32,0.265982,565444,306484
1509.45,0.264865,560571,304625
1512.58,0.263031,555821,303322
1515.71,0.261294,550344,301537
1519.87,0.257531,543983,300645
1522.99,0.254625,538764,299760
1526.1,0.252101,533692,298669
1529.21,0.248831,527902,297661
1532.32,0.245840,521886,296303
1535.42,0.242351,515888,295260
1538.51,0.239518,509987,293793
1541.6,0.236652,503936,292229
1545.72,0.231537,494694,290268
1548.8,0.227963,488378,288930
1551.88,0.225220,481832,286864
1554.95,0.223313,474989,284034
1558.02,0.220084,467818,281834
1561.08,0.219842,460730,277718
1564.15,0.218075,454170,274880
1568.22,0.217851,444181,268973
1571.27,0.216593,436947,265360
1574.32,0.215983,429598,261264
1577.36,0.214623,422039,257472
1580.4,0.212539,414375,254012
1583.43,0.210841,406354,250071
1586.46,0.208852,398475,246348
1590.49,0.206824,388982,241605
1593.51,0.204342,380708,237821
1596.53,0.201126,372727,234566
1599.54,0.199081,365060,230825
1602.55,0.196261,357543,227545
1605.55,0.194508,349495,223323
1608.55,0.191332,341154,219593
1612.54,0.189702,330877,213779
1615.53,0.186780,322904,210036
1618.51,0.185754,315116,205455
1621.49,0.183763,307217,201225
1624.47,0.182437,299481,196758
1627.44,0.182124,292112,192055
1630.41,0.178995,284245,188234
1634.36,0.178184,274079,181841
1637.32,0.177208,266916,177487
1640.27,0.175912,259612,173146
1643.22,0.173235,251804,168977
1646.16,0.173279,244348,163957
1649.1,0.172523,236703,159104
1652.04,0.172079,228171,153526
1655.95,0.169889,215408,145671
1658.88,0.167021,204937,139508
1661.8,0.165188,193395,132208
1664.72,0.162046,179728,123757
1667.63,0.156099,163642,114234
1670.54,0.150247,146312,103522
1673.44,0.145327,128451,91920
1677.31,0.137541,105080,76556
1680.21,0.134997,88906,65153
1683.1,0.136210,75033,54833
1685.99,0.141524,63520,45855
1688.87,0.147581,53714,38239
1691.75,0.153397,45653,32068
1694.62,0.147638,39137,27858
1697.49,0.151156,33776,23848
1701.31,0.156015,28175,19672