File: samples/wool/wool-000811/Column 1_050626_20150331_123608.csv
Method:,Column 1,,
Host Date-Time:,31/3/15 @ 12:36:8,,
Header Version:,1,,
System Temp (C):,34.16,,
Detector Temp (C):,35.05,,
Humidity (%):,1.56,,
Lamp PD:,3817,,
Shift Vector Coefficients:,-10.5391,0.0761263,-0.000134223,,
Pixel to Wavelength Coefficients:,1775.68,-0.916766,-0.000235065,,
Serial Number:,5510004,,
Scan Config Name:,Column 1,,
Scan Config Type:,Slew,,
Section 1,,
Start wavelength (nm):,900,,
End wavelength (nm):,1700,,
Pattern Pixel Width (nm):,   7.03,,,,
Exposure (ms):,  0.635,,,,
Digital Resolution:,228,,
Num Repeats:,6,,
PGA Gain:,64,,
Total Measurement Time in sec:,  2.673,,
Wavelength (nm),Absorbance (AU),Reference Signal (unitless),Sample Signal (unitless)
901.51,0.069284,108485,92488
905.376,0.076361,121306,101747
909.237,0.077746,131909,110288
913.095,0.077330,143299,119926
916.948,0.078287,156982,131088
922.079,0.080976,179937,149329
925.923,0.080844,200504,166448
929.762,0.083179,222660,183850
933.597,0.082392,244426,202188
937.427,0.081215,263972,218949
941.254,0.081407,281845,233670
945.076,0.079049,297271,247801
950.165,0.078502,315605,263416
953.978,0.077335,328029,274522
957.786,0.077579,340470,284774
961.59,0.078003,352317,294395
965.389,0.078114,363056,303291
969.185,0.077629,373162,312082
972.976,0.078569,382632,319310
976.763,0.078211,391202,326731
981.806,0.078682,400190,333875
985.583,0.079603,406088,338078
989.355,0.080030,410162,341134
993.124,0.079958,412868,343442
996.888,0.080826,414263,343914
1000.65,0.081693,415476,344233
1004.4,0.082361,415479,343707
1009.41,0.083263,414358,342068
1013.15,0.084471,412923,339937
1016.89,0.084686,411526,338619
1020.63,0.084349,409066,336856
1024.36,0.084624,406777,334759
1028.09,0.084130,404427,333204
1031.82,0.084234,401911,331052
1036.78,0.084129,398410,328247
1040.49,0.084025,396204,326508
1044.2,0.083811,394236,325046
1047.91,0.083323,392042,323601
1051.61,0.083334,389823,321761
1055.31,0.083163,388234,320576
1059,0.082346,387599,320654
1063.92,0.081180,386688,320760
1067.61,0.081075,386598,320763
1071.29,0.080753,387377,321648
1074.96,0.079976,388536,323188
1078.63,0.078811,389855,325156
1082.3,0.078082,391215,326839
1085.96,0.076883,393215,329418
1090.84,0.076619,396270,332179
1094.49,0.075841,398760,334866
1098.14,0.075089,400987,337319
1101.79,0.074661,403477,339749
1105.43,0.074121,406116,342396
1109.06,0.073657,407701,344100
1112.7,0.074161,409859,345520
1117.53,0.072747,412494,348876
1121.15,0.073607,414909,350224
1124.77,0.073694,416559,351546
1128.38,0.074333,418532,352692
1131.99,0.075749,419956,352740
1135.6,0.077049,421946,353352
1139.2,0.078381,423881,353886
1143.99,0.080361,426786,354690
1147.58,0.081174,428617,355546
1151.17,0.081967,431169,357010
1154.75,0.082825,433579,358297
1158.33,0.084370,436264,359236
1161.91,0.085718,439132,360477
1165.48,0.087844,442389,361377
1169.04,0.090101,446101,362520
1173.79,0.093290,451929,364569
1177.34,0.095429,456026,366067
1180.9,0.097600,461306,368459
1184.44,0.099805,467657,371640
1187.99,0.100648,473969,375926
1191.52,0.100547,479856,380683
1195.06,0.100232,487372,386927
1199.76,0.100010,497347,395048
1203.29,0.098962,504311,401547
1206.81,0.098687,511507,407535
1210.33,0.098053,519078,414171
1213.84,0.096813,527163,421825
1217.35,0.096738,534208,427536
1220.85,0.096465,540472,432821
1225.51,0.095415,549929,441460
1229.01,0.094984,556888,447491
1232.5,0.094211,562180,452548
1235.98,0.093842,567975,457601
1239.46,0.093158,574815,463842
1242.94,0.091740,582782,471809
1246.41,0.090975,591476,479692
1251.03,0.091055,604016,489771
1254.5,0.091341,612289,496153
1257.96,0.091859,619125,501094
1261.41,0.092361,624551,504902
1264.86,0.092530,629900,509028
1268.31,0.093156,634345,511882
1271.75,0.093564,638574,514810
1276.33,0.093908,642499,517564
1279.76,0.093937,645905,520274
1283.19,0.093395,648307,522860
1286.61,0.092703,650446,525422
1290.03,0.092671,652132,526823
1293.44,0.092265,653907,528751
1296.85,0.092031,655963,530699
1301.39,0.091502,657349,532469
1304.8,0.091536,657558,532596
1308.19,0.091764,658515,533092
1311.58,0.091974,658804,533068
1314.97,0.092158,659011,533009
1318.36,0.092319,658272,532214
1321.73,0.092618,658022,531646
1326.23,0.093791,657870,530089
1329.6,0.094064,656482,528638
1332.97,0.095208,654926,525998
1336.33,0.096296,653727,523721
1339.69,0.097535,652497,521247
1343.04,0.098915,649913,517535
1346.39,0.101262,647671,512970
1349.73,0.102859,645338,509247
1354.18,0.105556,641175,502829
1357.52,0.107188,638376,498757
1360.85,0.109630,635805,493963
1364.17,0.111314,633413,490200
1367.49,0.113741,631026,485631
1370.81,0.115913,628050,480929
1374.12,0.118041,625034,476280
1378.54,0.120749,620272,469714
1381.84,0.123161,616892,464567
1385.14,0.126391,613613,458673
1388.43,0.129745,611526,453597
1391.72,0.133740,610663,448809
1395.01,0.137354,610634,445069
1398.29,0.141912,611700,441191
1402.66,0.147024,614051,437704
1405.93,0.151985,616268,434295
1409.2,0.156586,617795,430783
1412.46,0.160770,618872,427396
1415.72,0.164763,619795,424116
1418.98,0.167788,620495,421648
1422.23,0.171169,621087,418778
1426.56,0.174957,621375,415333
1429.8,0.177213,621616,413342
1433.04,0.180316,622129,410738
1436.27,0.181759,621526,408978
1439.5,0.184109,621113,406501
1442.72,0.185994,620921,404615
1445.94,0.188337,620270,402016
1450.23,0.192555,618860,397226
1453.44,0.194712,617697,394515
1456.64,0.198165,616264,390483
1459.85,0.200850,614413,386910
1463.04,0.203804,612307,382970
1466.24,0.207610,610032,378218
1469.43,0.211444,607345,373243
1473.67,0.217605,603789,365831
1476.85,0.224335,601175,358646
1480.02,0.229895,597737,352059
1483.19,0.236676,594479,344715
1486.36,0.242878,591232,337971
1489.52,0.247835,587853,332226
1492.68,0.251392,583875,327286
1496.89,0.253567,578062,322409
1500.03,0.254013,574159,319904
1503.18,0.254575,570285,317334
1506.32,0.253136,565444,315685
1509.45,0.251855,560571,313889
1512.58,0.250743,555821,312027
1515.71,0.247652,550344,311159
1519.87,0.245022,543983,309431
1522.99,0.241728,538764,308795
1526.1,0.240079,533692,307052
1529.21,0.237359,527902,305629
1532.32,0.234001,521886,304491
1535.42,0.230775,515888,303236
1538.51,0.228783,509987,301145
1541.6,0.225490,503936,299837
1545.72,0.220958,494694,297426
1548.8,0.218322,488378,295416
1551.88,0.216602,481832,292613
1554.95,0.213590,474989,290465
1558.02,0.212714,467818,286657
1561.08,0.211519,460730,283092
1564.15,0.210914,454170,279450
1568.22,0.210016,444181,273870
1571.27,0.209266,436947,269875
1574.32,0.209019,429598,265487
1577.36,0.207683,422039,261619
1580.4,0.206927,414375,257316
1583.43,0.205643,406354,253082
1586.46,0.203649,398475,249317
1590.49,0.201555,388982,244554
1593.51,0.199244,380708,240629
1596.53,0.197528,372727,236517
1599.54,0.195618,365060,232673
1602.55,0.193271,357543,229117
1605.55,0.191820,349495,224709
1608.55,0.190332,341154,220099
1612.54,0.187735,330877,214749
1615.53,0.185906,322904,210459
1618.51,0.185471,315116,205589
1621.49,0.184550,307217,200861
1624.47,0.183347,299481,196346
1627.44,0.182217,292112,192014
1630.41,0.181768,284245,187036
1634.36,0.180908,274079,180704
1637.32,0.179746,266916,176453
1640.27,0.180316,259612,171399
1643.22,0.177863,251804,167186
1646.16,0.177155,244348,162500
1649.1,0.177580,236703,157262
1652.04,0.174578,228171,152645
1655.95,0.171876,215408,145006
1658.88,0.167545,204937,139340
1661.8,0.162930,193395,132897
1664.72,0.154728,179728,125860
1667.63,0.141774,163642,118065
1670.54,0.128256,146312,108899
1673.44,0.111491,128451,99368
1677.31,0.090088,105080,85395
1680.21,0.079125,88906,74098
1683.1,0.073698,75033,63322
1685.99,0.071338,63520,53898
1688.87,0.076740,53714,45014
1691.75,0.081163,45653,37871
1694.62,0.088838,39137,31897
1697.49,0.092143,33776,27319
1701.31,0.097488,28175,22510