File: samples/wool/wool-000811/Column 1_050566_20150331_120721.csv
Method:,Column 1,,
Host Date-Time:,31/3/15 @ 12:7:21,,
Header Version:,1,,
System Temp (C):,33.9,,
Detector Temp (C):,33.74,,
Humidity (%):,1.86,,
Lamp PD:,3819,,
Shift Vector Coefficients:,-10.5391,0.0761263,-0.000134223,,
Pixel to Wavelength Coefficients:,1775.68,-0.916766,-0.000235065,,
Serial Number:,5510004,,
Scan Config Name:,Column 1,,
Scan Config Type:,Slew,,
Section 1,,
Start wavelength (nm):,900,,
End wavelength (nm):,1700,,
Pattern Pixel Width (nm):,   7.03,,,,
Exposure (ms):,  0.635,,,,
Digital Resolution:,228,,
Num Repeats:,6,,
PGA Gain:,64,,
Total Measurement Time in sec:,  2.726,,
Wavelength (nm),Absorbance (AU),Reference Signal (unitless),Sample Signal (unitless)
901.51,0.035265,108485,100024
905.376,0.040327,121306,110549
909.237,0.043470,131909,119345
913.095,0.043963,143299,129503
916.948,0.044419,156982,141720
922.079,0.047866,179937,161159
925.923,0.048080,200504,179491
929.762,0.048719,222660,199032
933.597,0.049185,244426,218254
937.427,0.048024,263972,236338
941.254,0.048114,281845,252288
945.076,0.047102,297271,266717
950.165,0.046988,315605,283241
953.978,0.046523,328029,294706
957.786,0.046382,340470,305983
961.59,0.047020,352317,316165
965.389,0.047336,363056,325565
969.185,0.046987,373162,334896
972.976,0.047492,382632,342996
976.763,0.048376,391202,349965
981.806,0.048970,400190,357517
985.583,0.049300,406088,362510
989.355,0.049909,410162,365634
993.124,0.050925,412868,367186
996.888,0.050741,414263,368583
1000.65,0.051872,415476,368701
1004.4,0.053190,415479,367586
1009.41,0.054648,414358,365366
1013.15,0.054923,412923,363870
1016.89,0.055770,411526,361932
1020.63,0.055945,409066,359624
1024.36,0.054975,406777,358411
1028.09,0.055027,404427,356298
1031.82,0.054614,401911,354418
1036.78,0.054439,398410,351472
1040.49,0.053663,396204,350151
1044.2,0.054004,394236,348139
1047.91,0.053416,392042,346670
1051.61,0.053071,389823,344982
1055.31,0.052560,388234,343980
1059,0.051533,387599,344231
1063.92,0.050677,386688,344099
1067.61,0.049923,386598,344617
1071.29,0.049543,387377,345614
1074.96,0.049136,388536,346973
1078.63,0.048593,389855,348586
1082.3,0.047757,391215,350476
1085.96,0.046894,393215,352969
1090.84,0.046144,396270,356326
1094.49,0.046713,398760,358095
1098.14,0.045051,400987,361476
1101.79,0.045136,403477,363649
1105.43,0.044986,406116,366154
1109.06,0.044435,407701,368050
1112.7,0.044917,409859,369588
1117.53,0.045044,412494,371855
1121.15,0.045602,414909,373552
1124.77,0.045483,416559,375140
1128.38,0.047505,418532,375166
1131.99,0.048263,419956,375786
1135.6,0.050559,421946,375576
1139.2,0.051743,423881,376271
1143.99,0.054599,426786,376367
1147.58,0.055423,428617,377265
1151.17,0.056766,431169,378339
1154.75,0.057790,433579,379558
1158.33,0.059543,436264,380370
1161.91,0.062220,439132,380518
1165.48,0.064107,442389,381678
1169.04,0.066113,446101,383107
1173.79,0.070882,451929,383874
1177.34,0.072900,456026,385558
1180.9,0.075295,461306,387877
1184.44,0.077347,467657,391364
1187.99,0.077973,473969,396075
1191.52,0.077686,479856,401259
1195.06,0.077522,487372,407698
1199.76,0.076407,497347,417112
1203.29,0.075130,504311,424198
1206.81,0.074844,511507,430534
1210.33,0.074094,519078,437662
1213.84,0.073763,527163,444818
1217.35,0.072386,534208,452194
1220.85,0.071985,540472,457918
1225.51,0.070808,549929,467195
1229.01,0.070444,556888,473504
1232.5,0.069402,562180,479152
1235.98,0.069174,567975,484346
1239.46,0.067790,574815,491743
1242.94,0.067008,582782,499457
1246.41,0.066180,591476,507875
1251.03,0.066089,604016,518751
1254.5,0.066026,612289,525933
1257.96,0.066847,619125,530801
1261.41,0.067301,624551,534893
1264.86,0.067610,629900,539091
1268.31,0.068342,634345,541980
1271.75,0.069301,638574,544390
1276.33,0.069764,642499,547152
1279.76,0.069390,645905,550527
1283.19,0.068819,648307,553301
1286.61,0.068424,650446,555632
1290.03,0.068139,652132,557438
1293.44,0.067644,653907,559592
1296.85,0.067318,655963,561774
1301.39,0.067357,657349,562910
1304.8,0.067078,657558,563451
1308.19,0.067674,658515,563497
1311.58,0.067359,658804,564154
1314.97,0.068040,659011,563447
1318.36,0.068819,658272,561806
1321.73,0.068854,658022,561547
1326.23,0.069948,657870,560005
1329.6,0.070894,656482,557608
1332.97,0.071899,654926,555000
1336.33,0.073081,653727,552478
1339.69,0.074808,652497,549250
1343.04,0.076581,649913,544847
1346.39,0.078650,647671,540387
1349.73,0.081093,645338,535420
1354.18,0.084168,641175,528212
1357.52,0.086191,638376,523462
1360.85,0.088608,635805,518461
1364.17,0.090809,633413,513899
1367.49,0.093283,631026,509054
1370.81,0.096272,628050,503179
1374.12,0.098347,625034,498375
1378.54,0.101433,620272,491076
1381.84,0.104819,616892,484607
1385.14,0.108728,613613,477712
1388.43,0.113035,611526,471389
1391.72,0.117697,610663,465698
1395.01,0.122573,610634,460477
1398.29,0.127895,611700,455663
1402.66,0.135501,614051,449473
1405.93,0.141005,616268,445415
1409.2,0.146849,617795,440550
1412.46,0.151434,618872,436684
1415.72,0.156067,619795,432694
1418.98,0.160044,620495,429234
1422.23,0.164219,621087,425533
1426.56,0.168393,621375,421658
1429.8,0.170803,621616,419488
1433.04,0.173702,622129,417041
1436.27,0.176089,621526,414353
1439.5,0.178524,621113,411762
1442.72,0.180969,620921,409324
1445.94,0.183901,620270,406144
1450.23,0.187114,618860,402234
1453.44,0.190364,617697,398485
1456.64,0.192976,616264,395176
1459.85,0.196030,614413,391228
1463.04,0.198587,612307,387599
1466.24,0.202082,610032,383063
1469.43,0.205636,607345,378268
1473.67,0.212132,603789,370470
1476.85,0.217731,601175,364141
1480.02,0.223653,597737,357155
1483.19,0.230347,594479,349776
1486.36,0.236799,591232,342735
1489.52,0.241221,587853,337324
1492.68,0.245323,583875,331892
1496.89,0.247039,578062,327292
1500.03,0.248621,574159,323900
1503.18,0.248607,570285,321725
1506.32,0.247546,565444,319774
1509.45,0.245843,560571,318264
1512.58,0.244351,555821,316653
1515.71,0.241812,550344,315371
1519.87,0.238777,543983,313912
1522.99,0.236532,538764,312512
1526.1,0.233777,533692,311540
1529.21,0.230905,527902,310205
1532.32,0.227776,521886,308887
1535.42,0.224575,515888,307596
1538.51,0.221062,509987,306547
1541.6,0.218350,503936,304807
1545.72,0.213004,494694,302923
1548.8,0.210946,488378,300476
1551.88,0.207460,481832,298838
1554.95,0.205370,474989,296015
1558.02,0.204116,467818,292389
1561.08,0.203174,460730,288584
1564.15,0.201316,454170,285695
1568.22,0.201077,444181,279565
1571.27,0.200284,436947,275515
1574.32,0.198966,429598,271704
1577.36,0.197341,422039,267924
1580.4,0.195004,414375,264478
1583.43,0.195404,406354,259120
1586.46,0.192952,398475,255534
1590.49,0.190936,388982,250607
1593.51,0.188287,380708,246777
1596.53,0.186239,372727,242746
1599.54,0.184041,365060,238959
1602.55,0.181915,357543,235187
1605.55,0.179848,349495,230990
1608.55,0.176967,341154,226978
1612.54,0.175323,330877,220975
1615.53,0.172604,322904,217005
1618.51,0.172460,315116,211841
1621.49,0.171171,307217,207145
1624.47,0.169946,299481,202499
1627.44,0.169299,292112,197811
1630.41,0.167133,284245,193446
1634.36,0.165825,274079,187090
1637.32,0.164986,266916,182553
1640.27,0.163871,259612,178014
1643.22,0.163926,251804,172638
1646.16,0.163318,244348,167761
1649.1,0.161380,236703,163239
1652.04,0.160253,228171,157764
1655.95,0.157243,215408,149975
1658.88,0.153161,204937,144032
1661.8,0.150594,193395,136726
1664.72,0.143841,179728,129055
1667.63,0.133766,163642,120262
1670.54,0.120795,146312,110786
1673.44,0.108516,128451,100051
1677.31,0.094201,105080,84590
1680.21,0.083975,88906,73275
1683.1,0.084102,75033,61823
1685.99,0.087919,63520,51879
1688.87,0.088901,53714,43771
1691.75,0.093999,45653,36768
1694.62,0.101240,39137,30999
1697.49,0.106560,33776,26427
1701.31,0.107836,28175,21980