File: samples/wool/wool-000811/Column 1_050612_20150331_122932.csv
Method:,Column 1,,
Host Date-Time:,31/3/15 @ 12:29:32,,
Header Version:,1,,
System Temp (C):,34.11,,
Detector Temp (C):,34.9,,
Humidity (%):,1.66,,
Lamp PD:,3818,,
Shift Vector Coefficients:,-10.5391,0.0761263,-0.000134223,,
Pixel to Wavelength Coefficients:,1775.68,-0.916766,-0.000235065,,
Serial Number:,5510004,,
Scan Config Name:,Column 1,,
Scan Config Type:,Slew,,
Section 1,,
Start wavelength (nm):,900,,
End wavelength (nm):,1700,,
Pattern Pixel Width (nm):,   7.03,,,,
Exposure (ms):,  0.635,,,,
Digital Resolution:,228,,
Num Repeats:,6,,
PGA Gain:,64,,
Total Measurement Time in sec:,  2.665,,
Wavelength (nm),Absorbance (AU),Reference Signal (unitless),Sample Signal (unitless)
901.51,0.069195,108485,92507
905.376,0.074912,121306,102087
909.237,0.076991,131909,110480
913.095,0.078748,143299,119535
916.948,0.078774,156982,130941
922.079,0.081000,179937,149321
925.923,0.082078,200504,165976
929.762,0.082662,222660,184069
933.597,0.082392,244426,202188
937.427,0.081058,263972,219028
941.254,0.079880,281845,234493
945.076,0.078951,297271,247857
950.165,0.078592,315605,263361
953.978,0.077175,328029,274623
957.786,0.077540,340470,284799
961.59,0.077362,352317,294830
965.389,0.077480,363056,303734
969.185,0.077750,373162,311995
972.976,0.077650,382632,319986
976.763,0.078463,391202,326541
981.806,0.078472,400190,334037
985.583,0.079651,406088,338041
989.355,0.079675,410162,341413
993.124,0.080149,412868,343291
996.888,0.080512,414263,344163
1000.65,0.081460,415476,344418
1004.4,0.082651,415479,343477
1009.41,0.083761,414358,341676
1013.15,0.084024,412923,340287
1016.89,0.084410,411526,338834
1020.63,0.084824,409066,336488
1024.36,0.084820,406777,334608
1028.09,0.084127,404427,333206
1031.82,0.085050,401911,330430
1036.78,0.084013,398410,328335
1040.49,0.083341,396204,327023
1044.2,0.083476,394236,325297
1047.91,0.083430,392042,323521
1051.61,0.082803,389823,322155
1055.31,0.082601,388234,320991
1059,0.082477,387599,320557
1063.92,0.080849,386688,321005
1067.61,0.080715,386598,321029
1071.29,0.079929,387377,322259
1074.96,0.080090,388536,323103
1078.63,0.079199,389855,324866
1082.3,0.078313,391215,326665
1085.96,0.077739,393215,328769
1090.84,0.076765,396270,332067
1094.49,0.075891,398760,334827
1098.14,0.075637,400987,336894
1101.79,0.075200,403477,339327
1105.43,0.075425,406116,341370
1109.06,0.074064,407701,343778
1112.7,0.074090,409859,345577
1117.53,0.073049,412494,348633
1121.15,0.073761,414909,350100
1124.77,0.073789,416559,351469
1128.38,0.074651,418532,352434
1131.99,0.075785,419956,352711
1135.6,0.077683,421946,352837
1139.2,0.078812,423881,353535
1143.99,0.080935,426786,354222
1147.58,0.081354,428617,355398
1151.17,0.082225,431169,356798
1154.75,0.083188,433579,357998
1158.33,0.084482,436264,359143
1161.91,0.085955,439132,360280
1165.48,0.088136,442389,361134
1169.04,0.090835,446101,361908
1173.79,0.094215,451929,363794
1177.34,0.096440,456026,365216
1180.9,0.098500,461306,367696
1184.44,0.099978,467657,371492
1187.99,0.100924,473969,375687
1191.52,0.100913,479856,380363
1195.06,0.101370,487372,385914
1199.76,0.100815,497347,394316
1203.29,0.099902,504311,400679
1206.81,0.099130,511507,407119
1210.33,0.098629,519078,413622
1213.84,0.097695,527163,420969
1217.35,0.097605,534208,426683
1220.85,0.097140,540472,432149
1225.51,0.095714,549929,441156
1229.01,0.094810,556888,447670
1232.5,0.094993,562180,451734
1235.98,0.094650,567975,456751
1239.46,0.093050,574815,463957
1242.94,0.092170,582782,471342
1246.41,0.091634,591476,478964
1251.03,0.091305,604016,489490
1254.5,0.091197,612289,496317
1257.96,0.092151,619125,500757
1261.41,0.092617,624551,504604
1264.86,0.093172,629900,508276
1268.31,0.093439,634345,511548
1271.75,0.094006,638574,514287
1276.33,0.094622,642499,516714
1279.76,0.094417,645905,519699
1283.19,0.094105,648307,522006
1286.61,0.093369,650446,524617
1290.03,0.093289,652132,526074
1293.44,0.093102,653907,527733
1296.85,0.092411,655963,530235
1301.39,0.091862,657349,532028
1304.8,0.092111,657558,531892
1308.19,0.092267,658515,532474
1311.58,0.092553,658804,532357
1314.97,0.092378,659011,532739
1318.36,0.092637,658272,531824
1321.73,0.092952,658022,531237
1326.23,0.094432,657870,529308
1329.6,0.094684,656482,527885
1332.97,0.095829,654926,525246
1336.33,0.097100,653727,522753
1339.69,0.098296,652497,520334
1343.04,0.099812,649913,516468
1346.39,0.101506,647671,512682
1349.73,0.103702,645338,508259
1354.18,0.106376,641175,501881
1357.52,0.108417,638376,497347
1360.85,0.110408,635805,493078
1364.17,0.112309,633413,489078
1367.49,0.114942,631026,484290
1370.81,0.116558,628050,480215
1374.12,0.118541,625034,475732
1378.54,0.121500,620272,468902
1381.84,0.124054,616892,463613
1385.14,0.127493,613613,457511
1388.43,0.131143,611526,452139
1391.72,0.135315,610663,447184
1395.01,0.138781,610634,443609
1398.29,0.143508,611700,439572
1402.66,0.149406,614051,435310
1405.93,0.154513,616268,431774
1409.2,0.159198,617795,428200
1412.46,0.163046,618872,425162
1415.72,0.167461,619795,421490
1418.98,0.170988,620495,418553
1422.23,0.174750,621087,415339
1426.56,0.177675,621375,412742
1429.8,0.180271,621616,410441
1433.04,0.182877,622129,408323
1436.27,0.184490,621526,406415
1439.5,0.186833,621113,403959
1442.72,0.188953,620921,401868
1445.94,0.191422,620270,399171
1450.23,0.195338,618860,394688
1453.44,0.197793,617697,391726
1456.64,0.200824,616264,388099
1459.85,0.203586,614413,384481
1463.04,0.205998,612307,381041
1466.24,0.210122,610032,376037
1469.43,0.213867,607345,371166
1473.67,0.220135,603789,363706
1476.85,0.225863,601175,357386
1480.02,0.231724,597737,350579
1483.19,0.238214,594479,343497
1486.36,0.244430,591232,336766
1489.52,0.249059,587853,331291
1492.68,0.252357,583875,326560
1496.89,0.254482,578062,321731
1500.03,0.255660,574159,318693
1503.18,0.255001,570285,317023
1506.32,0.253980,565444,315072
1509.45,0.252864,560571,313160
1512.58,0.251201,555821,311698
1515.71,0.249312,550344,309972
1519.87,0.245662,543983,308975
1522.99,0.243346,538764,307647
1526.1,0.241564,533692,306004
1529.21,0.238335,527902,304943
1532.32,0.235395,521886,303515
1535.42,0.232711,515888,301887
1538.51,0.229491,509987,300655
1541.6,0.226926,503936,298847
1545.72,0.222947,494694,296067
1548.8,0.220019,488378,294264
1551.88,0.217303,481832,292141
1554.95,0.215909,474989,288918
1558.02,0.213676,467818,286023
1561.08,0.212419,460730,282506
1564.15,0.212158,454170,278651
1568.22,0.211531,444181,272916
1571.27,0.211603,436947,268427
1574.32,0.209821,429598,264997
1577.36,0.207986,422039,261437
1580.4,0.207665,414375,256879
1583.43,0.206026,406354,252859
1586.46,0.203991,398475,249121
1590.49,0.202641,388982,243943
1593.51,0.200842,380708,239745
1596.53,0.198571,372727,235950
1599.54,0.197489,365060,231673
1602.55,0.194720,357543,228354
1605.55,0.192554,349495,224330
1608.55,0.190441,341154,220044
1612.54,0.190136,330877,213565
1615.53,0.187641,322904,209620
1618.51,0.186695,315116,205010
1621.49,0.186176,307217,200110
1624.47,0.184739,299481,195718
1627.44,0.183816,292112,191308
1630.41,0.183137,284245,186447
1634.36,0.180305,274079,180955
1637.32,0.180260,266916,176244
1640.27,0.180119,259612,171477
1643.22,0.178177,251804,167065
1646.16,0.178939,244348,161834
1649.1,0.176758,236703,157560
1652.04,0.175686,228171,152256
1655.95,0.173791,215408,144368
1658.88,0.169704,204937,138649
1661.8,0.163614,193395,132688
1664.72,0.157761,179728,124984
1667.63,0.142676,163642,117820
1670.54,0.130371,146312,108370
1673.44,0.113151,128451,98989
1677.31,0.092699,105080,84883
1680.21,0.080116,88906,73929
1683.1,0.074034,75033,63273
1685.99,0.074898,63520,53458
1688.87,0.078296,53714,44853
1691.75,0.082299,45653,37772
1694.62,0.092777,39137,31609
1697.49,0.092128,33776,27320
1701.31,0.095736,28175,22601