File: samples/wool/wool-000811/Column 1_050619_20150331_123243.csv
Method:,Column 1,,
Host Date-Time:,31/3/15 @ 12:32:43,,
Header Version:,1,,
System Temp (C):,34.13,,
Detector Temp (C):,35,,
Humidity (%):,1.66,,
Lamp PD:,3818,,
Shift Vector Coefficients:,-10.5391,0.0761263,-0.000134223,,
Pixel to Wavelength Coefficients:,1775.68,-0.916766,-0.000235065,,
Serial Number:,5510004,,
Scan Config Name:,Column 1,,
Scan Config Type:,Slew,,
Section 1,,
Start wavelength (nm):,900,,
End wavelength (nm):,1700,,
Pattern Pixel Width (nm):,   7.03,,,,
Exposure (ms):,  0.635,,,,
Digital Resolution:,228,,
Num Repeats:,6,,
PGA Gain:,64,,
Total Measurement Time in sec:,  2.722,,
Wavelength (nm),Absorbance (AU),Reference Signal (unitless),Sample Signal (unitless)
901.51,0.067606,108485,92846
905.376,0.073688,121306,102375
909.237,0.077046,131909,110466
913.095,0.077964,143299,119751
916.948,0.078125,156982,131137
922.079,0.079325,179937,149898
925.923,0.080286,200504,166662
929.762,0.082525,222660,184127
933.597,0.082545,244426,202117
937.427,0.081034,263972,219040
941.254,0.079875,281845,234496
945.076,0.079149,297271,247744
950.165,0.077861,315605,263805
953.978,0.076954,328029,274763
957.786,0.076607,340470,285412
961.59,0.077213,352317,294931
965.389,0.077413,363056,303781
969.185,0.077246,373162,312357
972.976,0.077505,382632,320093
976.763,0.077804,391202,327037
981.806,0.077948,400190,334440
985.583,0.078823,406088,338686
989.355,0.079379,410162,341646
993.124,0.080091,412868,343337
996.888,0.080448,414263,344214
1000.65,0.081136,415476,344675
1004.4,0.082815,415479,343348
1009.41,0.083876,414358,341586
1013.15,0.084356,412923,340027
1016.89,0.084521,411526,338748
1020.63,0.084517,409066,336726
1024.36,0.084235,406777,335059
1028.09,0.084076,404427,333245
1031.82,0.084400,401911,330925
1036.78,0.083825,398410,328477
1040.49,0.083488,396204,326912
1044.2,0.083301,394236,325428
1047.91,0.082461,392042,324244
1051.61,0.082873,389823,322103
1055.31,0.082313,388234,321204
1059,0.081979,387599,320925
1063.92,0.081301,386688,320671
1067.61,0.080312,386598,321327
1071.29,0.080885,387377,321550
1074.96,0.079525,388536,323524
1078.63,0.078644,389855,325281
1082.3,0.077696,391215,327129
1085.96,0.076136,393215,329985
1090.84,0.076150,396270,332538
1094.49,0.075760,398760,334928
1098.14,0.075350,400987,337117
1101.79,0.074410,403477,339945
1105.43,0.074594,406116,342024
1109.06,0.074227,407701,343649
1112.7,0.074179,409859,345506
1117.53,0.073057,412494,348627
1121.15,0.073609,414909,350222
1124.77,0.073513,416559,351693
1128.38,0.074406,418532,352633
1131.99,0.075332,419956,353079
1135.6,0.077326,421946,353127
1139.2,0.078786,423881,353556
1143.99,0.080339,426786,354708
1147.58,0.080673,428617,355956
1151.17,0.082310,431169,356728
1154.75,0.082664,433579,358430
1158.33,0.083790,436264,359716
1161.91,0.085730,439132,360467
1165.48,0.087595,442389,361584
1169.04,0.089980,446101,362621
1173.79,0.093473,451929,364416
1177.34,0.095700,456026,365839
1180.9,0.098146,461306,367996
1184.44,0.099354,467657,372026
1187.99,0.100621,473969,375949
1191.52,0.100248,479856,380946
1195.06,0.100661,487372,386545
1199.76,0.099841,497347,395201
1203.29,0.098919,504311,401587
1206.81,0.099113,511507,407135
1210.33,0.097931,519078,414287
1213.84,0.097823,527163,420845
1217.35,0.096718,534208,427555
1220.85,0.096385,540472,432901
1225.51,0.095815,549929,441054
1229.01,0.095121,556888,447349
1232.5,0.094367,562180,452385
1235.98,0.093835,567975,457609
1239.46,0.092768,574815,464259
1242.94,0.091598,582782,471963
1246.41,0.091306,591476,479326
1251.03,0.091196,604016,489613
1254.5,0.091238,612289,496271
1257.96,0.091544,619125,501458
1261.41,0.092077,624551,505232
1264.86,0.092777,629900,508739
1268.31,0.093069,634345,511984
1271.75,0.093811,638574,514518
1276.33,0.094226,642499,517186
1279.76,0.093809,645905,520427
1283.19,0.093453,648307,522791
1286.61,0.093150,650446,524882
1290.03,0.092941,652132,526495
1293.44,0.092415,653907,528568
1296.85,0.091737,655963,531058
1301.39,0.091392,657349,532604
1304.8,0.091819,657558,532249
1308.19,0.092134,658515,532638
1311.58,0.091993,658804,533044
1314.97,0.092701,659011,532343
1318.36,0.092630,658272,531833
1321.73,0.092808,658022,531413
1326.23,0.093514,657870,530427
1329.6,0.094443,656482,528178
1332.97,0.095200,654926,526008
1336.33,0.095988,653727,524093
1339.69,0.097973,652497,520721
1343.04,0.099211,649913,517183
1346.39,0.100974,647671,513311
1349.73,0.102751,645338,509373
1354.18,0.105922,641175,502406
1357.52,0.107984,638376,497843
1360.85,0.110018,635805,493521
1364.17,0.111986,633413,489442
1367.49,0.113701,631026,485676
1370.81,0.115753,628050,481106
1374.12,0.117689,625034,476666
1378.54,0.120592,620272,469884
1381.84,0.123754,616892,463933
1385.14,0.126636,613613,458415
1388.43,0.130157,611526,453167
1391.72,0.134151,610663,448384
1395.01,0.137825,610634,444586
1398.29,0.142449,611700,440646
1402.66,0.148045,614051,436676
1405.93,0.152765,616268,433515
1409.2,0.157288,617795,430087
1412.46,0.161872,618872,426313
1415.72,0.165331,619795,423562
1418.98,0.169204,620495,420276
1422.23,0.172771,621087,417236
1426.56,0.175949,621375,414386
1429.8,0.177958,621616,412633
1433.04,0.181155,622129,409945
1436.27,0.183216,621526,407609
1439.5,0.184752,621113,405900
1442.72,0.187587,620921,403134
1445.94,0.189676,620270,400779
1450.23,0.194049,618860,395862
1453.44,0.196806,617697,392617
1456.64,0.199102,616264,389641
1459.85,0.201833,614413,386036
1463.04,0.205113,612307,381818
1466.24,0.208455,610032,377483
1469.43,0.212194,607345,372599
1473.67,0.218371,603789,365186
1476.85,0.224828,601175,358239
1480.02,0.230839,597737,351294
1483.19,0.237159,594479,344332
1486.36,0.243874,591232,337197
1489.52,0.247859,587853,332208
1492.68,0.252130,583875,326731
1496.89,0.253928,578062,322141
1500.03,0.254275,574159,319711
1503.18,0.253709,570285,317968
1506.32,0.253375,565444,315511
1509.45,0.251659,560571,314030
1512.58,0.250467,555821,312225
1515.71,0.248261,550344,310723
1519.87,0.245639,543983,308991
1522.99,0.242386,538764,308328
1526.1,0.240314,533692,306886
1529.21,0.237048,527902,305848
1532.32,0.234376,521886,304228
1535.42,0.231786,515888,302531
1538.51,0.228770,509987,301154
1541.6,0.225764,503936,299648
1545.72,0.222004,494694,296710
1548.8,0.218654,488378,295190
1551.88,0.216642,481832,292586
1554.95,0.214719,474989,289711
1558.02,0.213324,467818,286255
1561.08,0.212147,460730,282683
1564.15,0.211571,454170,279028
1568.22,0.209974,444181,273896
1571.27,0.209725,436947,269590
1574.32,0.208187,429598,265996
1577.36,0.207308,422039,261845
1580.4,0.206900,414375,257332
1583.43,0.205314,406354,253274
1586.46,0.203165,398475,249595
1590.49,0.201580,388982,244540
1593.51,0.200066,380708,240174
1596.53,0.197641,372727,236456
1599.54,0.195420,365060,232779
1602.55,0.193548,357543,228971
1605.55,0.192078,349495,224576
1608.55,0.190636,341154,219945
1612.54,0.188379,330877,214431
1615.53,0.186065,322904,210382
1618.51,0.185555,315116,205549
1621.49,0.185647,307217,200354
1624.47,0.183635,299481,196216
1627.44,0.181514,292112,192325
1630.41,0.181308,284245,187234
1634.36,0.179638,274079,181233
1637.32,0.179792,266916,176434
1640.27,0.178390,259612,172161
1643.22,0.178292,251804,167021
1646.16,0.177468,244348,162383
1649.1,0.176554,236703,157634
1652.04,0.174311,228171,152739
1655.95,0.171134,215408,145254
1658.88,0.168159,204937,139143
1661.8,0.163394,193395,132755
1664.72,0.154959,179728,125793
1667.63,0.142061,163642,117987
1670.54,0.126298,146312,109391
1673.44,0.111963,128451,99260
1677.31,0.090077,105080,85397
1680.21,0.077434,88906,74387
1683.1,0.073485,75033,63353
1685.99,0.068711,63520,54225
1688.87,0.076393,53714,45050
1691.75,0.078647,45653,38091
1694.62,0.091748,39137,31684
1697.49,0.088613,33776,27542
1701.31,0.094010,28175,22691