File: samples/wool/wool-000811/Column 1_050573_20150331_121052.csv
Method:,Column 1,,
Host Date-Time:,31/3/15 @ 12:10:52,,
Header Version:,1,,
System Temp (C):,34.16,,
Detector Temp (C):,34.3,,
Humidity (%):,1.76,,
Lamp PD:,3818,,
Shift Vector Coefficients:,-10.5391,0.0761263,-0.000134223,,
Pixel to Wavelength Coefficients:,1775.68,-0.916766,-0.000235065,,
Serial Number:,5510004,,
Scan Config Name:,Column 1,,
Scan Config Type:,Slew,,
Section 1,,
Start wavelength (nm):,900,,
End wavelength (nm):,1700,,
Pattern Pixel Width (nm):,   7.03,,,,
Exposure (ms):,  0.635,,,,
Digital Resolution:,228,,
Num Repeats:,6,,
PGA Gain:,64,,
Total Measurement Time in sec:,  2.666,,
Wavelength (nm),Absorbance (AU),Reference Signal (unitless),Sample Signal (unitless)
901.51,0.033506,108485,100430
905.376,0.039727,121306,110702
909.237,0.041568,131909,119869
913.095,0.043725,143299,129574
916.948,0.043770,156982,141932
922.079,0.046722,179937,161584
925.923,0.048037,200504,179509
929.762,0.048948,222660,198927
933.597,0.049605,244426,218043
937.427,0.048765,263972,235935
941.254,0.048121,281845,252284
945.076,0.046682,297271,266975
950.165,0.047222,315605,283088
953.978,0.046076,328029,295010
957.786,0.046042,340470,306222
961.59,0.046915,352317,316241
965.389,0.047024,363056,325799
969.185,0.046908,373162,334957
972.976,0.047281,382632,343163
976.763,0.047825,391202,350410
981.806,0.048247,400190,358112
985.583,0.048974,406088,362782
989.355,0.049395,410162,366067
993.124,0.049889,412868,368063
996.888,0.050546,414263,368748
1000.65,0.051425,415476,369080
1004.4,0.052049,415479,368553
1009.41,0.053993,414358,365917
1013.15,0.054589,412923,364150
1016.89,0.054803,411526,362739
1020.63,0.054819,409066,360557
1024.36,0.055122,406777,358290
1028.09,0.055251,404427,356114
1031.82,0.053984,401911,354933
1036.78,0.053946,398410,351872
1040.49,0.053041,396204,350653
1044.2,0.053444,394236,348588
1047.91,0.052512,392042,347393
1051.61,0.052673,389823,345298
1055.31,0.051516,388234,344808
1059,0.051085,387599,344586
1063.92,0.049899,386688,344716
1067.61,0.049379,386598,345049
1071.29,0.048991,387377,346053
1074.96,0.048265,388536,347669
1078.63,0.047475,389855,349485
1082.3,0.047193,391215,350932
1085.96,0.045972,393215,353719
1090.84,0.045727,396270,356668
1094.49,0.045350,398760,359221
1098.14,0.045080,400987,361452
1101.79,0.045091,403477,363687
1105.43,0.044244,406116,366780
1109.06,0.043962,407701,368451
1112.7,0.044107,409859,370278
1117.53,0.043888,412494,372846
1121.15,0.044688,414909,374339
1124.77,0.045374,416559,375234
1128.38,0.046804,418532,375772
1131.99,0.047682,419956,376289
1135.6,0.050148,421946,375932
1139.2,0.051079,423881,376847
1143.99,0.053971,426786,376911
1147.58,0.054689,428617,377903
1151.17,0.056155,431169,378872
1154.75,0.057675,433579,379659
1158.33,0.059132,436264,380730
1161.91,0.060915,439132,381663
1165.48,0.063644,442389,382085
1169.04,0.066267,446101,382971
1173.79,0.069550,451929,385053
1177.34,0.072040,456026,386322
1180.9,0.074033,461306,389006
1184.44,0.076136,467657,392456
1187.99,0.077302,473969,396687
1191.52,0.076740,479856,402134
1195.06,0.076580,487372,408583
1199.76,0.075837,497347,417660
1203.29,0.074678,504311,424640
1206.81,0.074178,511507,431195
1210.33,0.073321,519078,438441
1213.84,0.072682,527163,445926
1217.35,0.072178,534208,452410
1220.85,0.071084,540472,458870
1225.51,0.070541,549929,467483
1229.01,0.069422,556888,474620
1232.5,0.069048,562180,479543
1235.98,0.067971,567975,485689
1239.46,0.067296,574815,492303
1242.94,0.066027,582782,500586
1246.41,0.065524,591476,508643
1251.03,0.065751,604016,519156
1254.5,0.065623,612289,526421
1257.96,0.066332,619125,531430
1261.41,0.067003,624551,535260
1264.86,0.067159,629900,539651
1268.31,0.068182,634345,542180
1271.75,0.068646,638574,545212
1276.33,0.068942,642499,548189
1279.76,0.068909,645905,551137
1283.19,0.068464,648307,553754
1286.61,0.067821,650446,556404
1290.03,0.067332,652132,558475
1293.44,0.066947,653907,560492
1296.85,0.066883,655963,562336
1301.39,0.066675,657349,563795
1304.8,0.066412,657558,564315
1308.19,0.067302,658515,563980
1311.58,0.067116,658804,564469
1314.97,0.067286,659011,564426
1318.36,0.067971,658272,562904
1321.73,0.068029,658022,562615
1326.23,0.068875,657870,561391
1329.6,0.070088,656482,558643
1332.97,0.070784,654926,556427
1336.33,0.071836,653727,554065
1339.69,0.073686,652497,550671
1343.04,0.075324,649913,546426
1346.39,0.077250,647671,542131
1349.73,0.079722,645338,537112
1354.18,0.082908,641175,529747
1357.52,0.085390,638376,524429
1360.85,0.087408,635805,519895
1364.17,0.089444,633413,515517
1367.49,0.091986,631026,510577
1370.81,0.094514,628050,505220
1374.12,0.096703,625034,500266
1378.54,0.100127,620272,492556
1381.84,0.103022,616892,486617
1385.14,0.107196,613613,479401
1388.43,0.111366,611526,473205
1391.72,0.115897,610663,467632
1395.01,0.120726,610634,462440
1398.29,0.125627,611700,458049
1402.66,0.132538,614051,452550
1405.93,0.138170,616268,448332
1409.2,0.143386,617795,444077
1412.46,0.148734,618872,439407
1415.72,0.152726,619795,436036
1418.98,0.156579,620495,432672
1422.23,0.160619,621087,429075
1426.56,0.164437,621375,425517
1429.8,0.167467,621616,422722
1433.04,0.170606,622129,420024
1436.27,0.172395,621526,417892
1439.5,0.174125,621113,415954
1442.72,0.176897,620921,413180
1445.94,0.179722,620270,410071
1450.23,0.183554,618860,405544
1453.44,0.186335,617697,402199
1456.64,0.189487,616264,398364
1459.85,0.192388,614413,394523
1463.04,0.195320,612307,390525
1466.24,0.198974,610032,385815
1469.43,0.202418,607345,381081
1473.67,0.208764,603789,373354
1476.85,0.214556,601175,366813
1480.02,0.220907,597737,359421
1483.19,0.227878,594479,351770
1486.36,0.234116,591232,344859
1489.52,0.239668,587853,338533
1492.68,0.243223,583875,333501
1496.89,0.246279,578062,327865
1500.03,0.246302,574159,325634
1503.18,0.246145,570285,323554
1506.32,0.245845,565444,321029
1509.45,0.244576,560571,319194
1512.58,0.242537,555821,317979
1515.71,0.240317,550344,316459
1519.87,0.237196,543983,315057
1522.99,0.234416,538764,314038
1526.1,0.231823,533692,312945
1529.21,0.228219,527902,312129
1532.32,0.226147,521886,310048
1535.42,0.222764,515888,308881
1538.51,0.219214,509987,307854
1541.6,0.216939,503936,305799
1545.72,0.211230,494694,304163
1548.8,0.208335,488378,302288
1551.88,0.206005,481832,299841
1554.95,0.204148,474989,296849
1558.02,0.201982,467818,293829
1561.08,0.200084,460730,290645
1564.15,0.199686,454170,286769
1568.22,0.199318,444181,280700
1571.27,0.198024,436947,276952
1574.32,0.197383,429598,272696
1577.36,0.195723,422039,268924
1580.4,0.194339,414375,264883
1583.43,0.192922,406354,260605
1586.46,0.190855,398475,256771
1590.49,0.188574,388982,251974
1593.51,0.186652,380708,247708
1596.53,0.184370,372727,243793
1599.54,0.182301,365060,239918
1602.55,0.180140,357543,236150
1605.55,0.178206,349495,231865
1608.55,0.174958,341154,228030
1612.54,0.173546,330877,221881
1615.53,0.170446,322904,218086
1618.51,0.169938,315116,213075
1621.49,0.169244,307217,208066
1624.47,0.167809,299481,203498
1627.44,0.166138,292112,199256
1630.41,0.166200,284245,193862
1634.36,0.164569,274079,187632
1637.32,0.162807,266916,183471
1640.27,0.162633,259612,178522
1643.22,0.161005,251804,173803
1646.16,0.160212,244348,168965
1649.1,0.158963,236703,164150
1652.04,0.158434,228171,158426
1655.95,0.154708,215408,150853
1658.88,0.151146,204937,144702
1661.8,0.148136,193395,137502
1664.72,0.139615,179728,130317
1667.63,0.129737,163642,121383
1670.54,0.115589,146312,112122
1673.44,0.102122,128451,101535
1677.31,0.086335,105080,86136
1680.21,0.074293,88906,74927
1683.1,0.069881,75033,63881
1685.99,0.073219,63520,53665
1688.87,0.073443,53714,45357
1691.75,0.079629,45653,38005
1694.62,0.086245,39137,32088
1697.49,0.088818,33776,27529
1701.31,0.097122,28175,22529