File: samples/wool/wool-000811/Column 1_050558_20150331_120345.csv
Method:,Column 1,,
Host Date-Time:,31/3/15 @ 12:3:45,,
Header Version:,1,,
System Temp (C):,33.62,,
Detector Temp (C):,32.98,,
Humidity (%):,2.25,,
Lamp PD:,3819,,
Shift Vector Coefficients:,-10.5391,0.0761263,-0.000134223,,
Pixel to Wavelength Coefficients:,1775.68,-0.916766,-0.000235065,,
Serial Number:,5510004,,
Scan Config Name:,Column 1,,
Scan Config Type:,Slew,,
Section 1,,
Start wavelength (nm):,900,,
End wavelength (nm):,1700,,
Pattern Pixel Width (nm):,   7.03,,,,
Exposure (ms):,  0.635,,,,
Digital Resolution:,228,,
Num Repeats:,6,,
PGA Gain:,64,,
Total Measurement Time in sec:,  2.664,,
Wavelength (nm),Absorbance (AU),Reference Signal (unitless),Sample Signal (unitless)
901.51,0.033939,108485,100330
905.376,0.039060,121306,110872
909.237,0.042816,131909,119525
913.095,0.042437,143299,129959
916.948,0.041718,156982,142604
922.079,0.045091,179937,162192
925.923,0.045964,200504,180368
929.762,0.046488,222660,200057
933.597,0.047335,244426,219186
937.427,0.047923,263972,236393
941.254,0.046399,281845,253286
945.076,0.045553,297271,267670
950.165,0.045952,315605,283917
953.978,0.045421,328029,295455
957.786,0.046225,340470,306093
961.59,0.046169,352317,316785
965.389,0.046137,363056,326465
969.185,0.046647,373162,335159
972.976,0.046977,382632,343403
976.763,0.047254,391202,350871
981.806,0.047985,400190,358328
985.583,0.049166,406088,362622
989.355,0.048905,410162,366480
993.124,0.049773,412868,368161
996.888,0.050596,414263,368706
1000.65,0.051165,415476,369301
1004.4,0.052508,415479,368164
1009.41,0.053789,414358,366089
1013.15,0.054487,412923,364235
1016.89,0.055122,411526,362473
1020.63,0.054521,409066,360805
1024.36,0.054729,406777,358614
1028.09,0.054230,404427,356952
1031.82,0.054563,401911,354460
1036.78,0.053800,398410,351990
1040.49,0.053227,396204,350503
1044.2,0.053284,394236,348716
1047.91,0.052865,392042,347110
1051.61,0.052487,389823,345446
1055.31,0.051902,388234,344502
1059,0.051129,387599,344551
1063.92,0.049403,386688,345110
1067.61,0.049245,386598,345155
1071.29,0.049212,387377,345877
1074.96,0.048731,388536,347296
1078.63,0.047943,389855,349108
1082.3,0.046574,391215,351432
1085.96,0.046541,393215,353256
1090.84,0.045249,396270,357061
1094.49,0.045311,398760,359253
1098.14,0.045308,400987,361262
1101.79,0.044592,403477,364105
1105.43,0.044633,406116,366452
1109.06,0.044068,407701,368361
1112.7,0.044082,409859,370299
1117.53,0.044083,412494,372679
1121.15,0.045341,414909,373776
1124.77,0.045404,416559,375208
1128.38,0.046882,418532,375705
1131.99,0.048107,419956,375921
1135.6,0.050352,421946,375755
1139.2,0.051330,423881,376629
1143.99,0.054526,426786,376430
1147.58,0.054941,428617,377684
1151.17,0.056483,431169,378586
1154.75,0.057771,433579,379575
1158.33,0.059513,436264,380396
1161.91,0.061668,439132,381002
1165.48,0.064497,442389,381336
1169.04,0.067003,446101,382323
1173.79,0.070721,451929,384016
1177.34,0.072581,456026,385841
1180.9,0.074827,461306,388295
1184.44,0.076483,467657,392143
1187.99,0.078163,473969,395901
1191.52,0.077790,479856,401163
1195.06,0.077400,487372,407813
1199.76,0.076492,497347,417030
1203.29,0.075060,504311,424266
1206.81,0.074652,511507,430725
1210.33,0.073994,519078,437763
1213.84,0.073234,527163,445360
1217.35,0.072714,534208,451852
1220.85,0.071371,540472,458566
1225.51,0.070814,549929,467189
1229.01,0.069837,556888,474167
1232.5,0.069341,562180,479219
1235.98,0.068934,567975,484613
1239.46,0.067705,574815,491839
1242.94,0.067082,582782,499372
1246.41,0.066053,591476,508024
1251.03,0.065827,604016,519065
1254.5,0.065863,612289,526131
1257.96,0.066474,619125,531257
1261.41,0.067015,624551,535245
1264.86,0.068118,629900,538460
1268.31,0.068130,634345,542245
1271.75,0.069363,638574,544313
1276.33,0.069621,642499,547333
1279.76,0.069605,645905,550255
1283.19,0.068884,648307,553218
1286.61,0.068183,650446,555941
1290.03,0.068180,652132,557385
1293.44,0.067637,653907,559602
1296.85,0.067284,655963,561817
1301.39,0.067234,657349,563070
1304.8,0.067256,657558,563220
1308.19,0.067745,658515,563405
1311.58,0.067749,658804,563647
1314.97,0.068434,659011,562936
1318.36,0.068459,658272,562272
1321.73,0.068953,658022,561420
1326.23,0.070235,657870,559635
1329.6,0.070800,656482,557729
1332.97,0.071938,654926,554950
1336.33,0.073574,653727,551852
1339.69,0.075317,652497,548607
1343.04,0.076858,649913,544499
1346.39,0.078881,647671,540099
1349.73,0.081281,645338,535188
1354.18,0.084719,641175,527543
1357.52,0.086783,638376,522749
1360.85,0.089122,635805,517848
1364.17,0.091196,633413,513441
1367.49,0.093924,631026,508304
1370.81,0.096380,628050,503053
1374.12,0.098760,625034,497902
1378.54,0.102457,620272,489920
1381.84,0.105969,616892,483326
1385.14,0.110102,613613,476203
1388.43,0.114672,611526,469616
1391.72,0.119074,610663,464224
1395.01,0.124866,610634,458052
1398.29,0.130028,611700,453430
1402.66,0.137631,614051,447274
1405.93,0.143588,616268,442774
1409.2,0.149685,617795,437683
1412.46,0.154863,618872,433249
1415.72,0.159829,619795,428962
1418.98,0.164129,620495,425216
1422.23,0.167830,621087,422010
1426.56,0.172187,621375,417991
1429.8,0.175552,621616,414926
1433.04,0.177864,622129,413063
1436.27,0.180548,621526,410120
1439.5,0.182721,621113,407802
1442.72,0.185102,620921,405447
1445.94,0.187853,620270,402465
1450.23,0.191255,618860,398417
1453.44,0.194216,617697,394966
1456.64,0.196763,616264,391745
1459.85,0.199987,614413,387680
1463.04,0.203210,612307,383495
1466.24,0.206542,610032,379150
1469.43,0.209280,607345,375107
1473.67,0.215459,603789,367643
1476.85,0.220002,601175,362242
1480.02,0.226237,597737,355037
1483.19,0.232733,594479,347859
1486.36,0.238168,591232,341657
1489.52,0.243443,587853,335603
1492.68,0.246954,583875,330648
1496.89,0.249275,578062,325611
1500.03,0.249999,574159,322874
1503.18,0.249787,570285,320852
1506.32,0.249234,565444,318534
1509.45,0.247704,560571,316903
1512.58,0.246449,555821,315127
1515.71,0.243380,550344,314235
1519.87,0.240780,543983,312468
1522.99,0.238203,538764,311312
1526.1,0.235397,533692,310380
1529.21,0.232086,527902,309362
1532.32,0.229565,521886,307617
1535.42,0.226180,515888,306461
1538.51,0.223012,509987,305174
1541.6,0.220072,503936,303601
1545.72,0.215323,494694,301310
1548.8,0.211904,488378,299814
1551.88,0.209727,481832,297282
1554.95,0.208109,474989,294154
1558.02,0.205878,467818,291205
1561.08,0.204034,460730,288013
1564.15,0.204045,454170,283905
1568.22,0.202591,444181,278592
1571.27,0.202078,436947,274379
1574.32,0.201327,429598,270231
1577.36,0.199657,422039,266499
1580.4,0.198337,414375,262456
1583.43,0.196192,406354,258650
1586.46,0.194515,398475,254616
1590.49,0.192452,388982,249734
1593.51,0.190003,380708,245804
1596.53,0.187150,372727,242237
1599.54,0.185610,365060,238097
1602.55,0.184103,357543,234005
1605.55,0.181211,349495,230266
1608.55,0.179203,341154,225812
1612.54,0.176089,330877,220586
1615.53,0.174320,322904,216149
1618.51,0.172782,315116,211684
1621.49,0.171937,307217,206780
1624.47,0.171237,299481,201898
1627.44,0.170698,292112,197175
1630.41,0.168244,284245,192952
1634.36,0.166764,274079,186686
1637.32,0.165950,266916,182148
1640.27,0.165704,259612,177264
1643.22,0.164309,251804,172486
1646.16,0.164663,244348,167242
1649.1,0.163599,236703,162407
1652.04,0.162037,228171,157117
1655.95,0.157869,215408,149759
1658.88,0.155371,204937,143301
1661.8,0.152188,193395,136225
1664.72,0.147358,179728,128014
1667.63,0.138078,163642,119074
1670.54,0.126533,146312,109332
1673.44,0.116069,128451,98326
1677.31,0.103348,105080,82827
1680.21,0.095050,88906,71430
1683.1,0.094215,75033,60400
1685.99,0.099507,63520,50513
1688.87,0.100423,53714,42625
1691.75,0.107593,45653,35635
1694.62,0.109814,39137,30393
1697.49,0.111186,33776,26147
1701.31,0.116235,28175,21559