File: samples/wool/wool-000811/Column 1_050601_20150331_122358.csv
Method:,Column 1,,
Host Date-Time:,31/3/15 @ 12:23:58,,
Header Version:,1,,
System Temp (C):,34,,
Detector Temp (C):,34.82,,
Humidity (%):,1.76,,
Lamp PD:,3818,,
Shift Vector Coefficients:,-10.5391,0.0761263,-0.000134223,,
Pixel to Wavelength Coefficients:,1775.68,-0.916766,-0.000235065,,
Serial Number:,5510004,,
Scan Config Name:,Column 1,,
Scan Config Type:,Slew,,
Section 1,,
Start wavelength (nm):,900,,
End wavelength (nm):,1700,,
Pattern Pixel Width (nm):,   7.03,,,,
Exposure (ms):,  0.635,,,,
Digital Resolution:,228,,
Num Repeats:,6,,
PGA Gain:,64,,
Total Measurement Time in sec:,  2.711,,
Wavelength (nm),Absorbance (AU),Reference Signal (unitless),Sample Signal (unitless)
901.51,0.070502,108485,92229
905.376,0.077172,121306,101557
909.237,0.076802,131909,110528
913.095,0.079239,143299,119400
916.948,0.079272,156982,130791
922.079,0.080044,179937,149650
925.923,0.081406,200504,166233
929.762,0.082780,222660,184019
933.597,0.081806,244426,202461
937.427,0.081296,263972,218908
941.254,0.080726,281845,234037
945.076,0.079725,297271,247416
950.165,0.078962,315605,263137
953.978,0.077458,328029,274444
957.786,0.077885,340470,284573
961.59,0.079024,352317,293704
965.389,0.078027,363056,303352
969.185,0.078676,373162,311330
972.976,0.079264,382632,318799
976.763,0.079175,391202,326006
981.806,0.079568,400190,333195
985.583,0.080308,406088,337530
989.355,0.081056,410162,340329
993.124,0.080865,412868,342725
996.888,0.081716,414263,343210
1000.65,0.082899,415476,343279
1004.4,0.082963,415479,343231
1009.41,0.084255,414358,341288
1013.15,0.084651,412923,339796
1016.89,0.085824,411526,337733
1020.63,0.085391,409066,336049
1024.36,0.085649,406777,333970
1028.09,0.085028,404427,332516
1031.82,0.084891,401911,330551
1036.78,0.084586,398410,327902
1040.49,0.084340,396204,326271
1044.2,0.085064,394236,324110
1047.91,0.083855,392042,323205
1051.61,0.083891,389823,321349
1055.31,0.083024,388234,320678
1059,0.082609,387599,320460
1063.92,0.081994,386688,320160
1067.61,0.081676,386598,320320
1071.29,0.081379,387377,321185
1074.96,0.080585,388536,322735
1078.63,0.080224,389855,324100
1082.3,0.079065,391215,326100
1085.96,0.078420,393215,328254
1090.84,0.077409,396270,331575
1094.49,0.077068,398760,333921
1098.14,0.076985,400987,335850
1101.79,0.075888,403477,338790
1105.43,0.076158,406116,340794
1109.06,0.075124,407701,342940
1112.7,0.074574,409859,345192
1117.53,0.075247,412494,346873
1121.15,0.074961,414909,349134
1124.77,0.074442,416559,350941
1128.38,0.075881,418532,351437
1131.99,0.076717,419956,351955
1135.6,0.078101,421946,352497
1139.2,0.079664,423881,352842
1143.99,0.081514,426786,353750
1147.58,0.082269,428617,354650
1151.17,0.083884,431169,355438
1154.75,0.084574,433579,356857
1158.33,0.086046,436264,357852
1161.91,0.087718,439132,358820
1165.48,0.089334,442389,360139
1169.04,0.091777,446101,361124
1173.79,0.095490,451929,362727
1177.34,0.097043,456026,364709
1180.9,0.099512,461306,366840
1184.44,0.100983,467657,370633
1187.99,0.102120,473969,374654
1191.52,0.102152,479856,379279
1195.06,0.102156,487372,385216
1199.76,0.101884,497347,393347
1203.29,0.100714,504311,399930
1206.81,0.100360,511507,405968
1210.33,0.099789,519078,412519
1213.84,0.099116,527163,419594
1217.35,0.098432,534208,425871
1220.85,0.097327,540472,431963
1225.51,0.097214,549929,439635
1229.01,0.096362,556888,446073
1232.5,0.095924,562180,450766
1235.98,0.095692,567975,455656
1239.46,0.094203,574815,462727
1242.94,0.093041,582782,470398
1246.41,0.092509,591476,478000
1251.03,0.092671,604016,487952
1254.5,0.092775,612289,494517
1257.96,0.093212,619125,499535
1261.41,0.093547,624551,503525
1264.86,0.094433,629900,506802
1268.31,0.094586,634345,510199
1271.75,0.095293,638574,512765
1276.33,0.095509,642499,515660
1279.76,0.095535,645905,518362
1283.19,0.094717,648307,521271
1286.61,0.094745,650446,522957
1290.03,0.094775,652132,524277
1293.44,0.093717,653907,526986
1296.85,0.093881,655963,528443
1301.39,0.093192,657349,530400
1304.8,0.093527,657558,530160
1308.19,0.093617,658515,530822
1311.58,0.093651,658804,531013
1314.97,0.094011,659011,530740
1318.36,0.094678,658272,529331
1321.73,0.094504,658022,529342
1326.23,0.095820,657870,527618
1329.6,0.096449,656482,525743
1332.97,0.097198,654926,523594
1336.33,0.098311,653727,521297
1339.69,0.099847,652497,518480
1343.04,0.101707,649913,514219
1346.39,0.103315,647671,510551
1349.73,0.105684,645338,505945
1354.18,0.108198,641175,499780
1357.52,0.110076,638376,495451
1360.85,0.111823,635805,491474
1364.17,0.113748,633413,487460
1367.49,0.116507,631026,482548
1370.81,0.118426,628050,478154
1374.12,0.120629,625034,473451
1378.54,0.123655,620272,466581
1381.84,0.126539,616892,460967
1385.14,0.129589,613613,455308
1388.43,0.133759,611526,449424
1391.72,0.137320,610663,445125
1395.01,0.141676,610634,440661
1398.29,0.146654,611700,436400
1402.66,0.152725,614051,431996
1405.93,0.157630,616268,428686
1409.2,0.162808,617795,424655
1412.46,0.167072,618872,421239
1415.72,0.170546,619795,418506
1418.98,0.174163,620495,415504
1422.23,0.178363,621087,411898
1426.56,0.182206,621375,408458
1429.8,0.184368,621616,406588
1433.04,0.186871,622129,404585
1436.27,0.189025,621526,402193
1439.5,0.191154,621113,399960
1442.72,0.193975,620921,397248
1445.94,0.195899,620270,395077
1450.23,0.199538,618860,390890
1453.44,0.202080,617697,387878
1456.64,0.204819,616264,384546
1459.85,0.208268,614413,380358
1463.04,0.210940,612307,376729
1466.24,0.214074,610032,372631
1469.43,0.217755,607345,367858
1473.67,0.223917,603789,360552
1476.85,0.229223,601175,354632
1480.02,0.235076,597737,347884
1483.19,0.241497,594479,340910
1486.36,0.246686,591232,335021
1489.52,0.252007,587853,329050
1492.68,0.254908,583875,324647
1496.89,0.257066,578062,319822
1500.03,0.257485,574159,317356
1503.18,0.257737,570285,315032
1506.32,0.256408,565444,313315
1509.45,0.255085,560571,311563
1512.58,0.253855,555821,309799
1515.71,0.251119,550344,308685
1519.87,0.248450,543983,306998
1522.99,0.245698,538764,305985
1526.1,0.243847,533692,304399
1529.21,0.240840,527902,303189
1532.32,0.237492,521886,302053
1535.42,0.234603,515888,300575
1538.51,0.232206,509987,298781
1541.6,0.229278,503936,297233
1545.72,0.225052,494694,294635
1548.8,0.222072,488378,292876
1551.88,0.219998,481832,290334
1554.95,0.217789,474989,287670
1558.02,0.216427,467818,284217
1561.08,0.214991,460730,280838
1564.15,0.214438,454170,277192
1568.22,0.213488,444181,271689
1571.27,0.212644,436947,267784
1574.32,0.211906,429598,263728
1577.36,0.210628,422039,259851
1580.4,0.209732,414375,255659
1583.43,0.208187,406354,251604
1586.46,0.206938,398475,247436
1590.49,0.204466,388982,242920
1593.51,0.202923,380708,238599
1596.53,0.200611,372727,234844
1599.54,0.199509,365060,230598
1602.55,0.197126,357543,227092
1605.55,0.196000,349495,222557
1608.55,0.193257,341154,218622
1612.54,0.191744,330877,212776
1615.53,0.189532,322904,208709
1618.51,0.188385,315116,204214
1621.49,0.187559,307217,199474
1624.47,0.185994,299481,195153
1627.44,0.185857,292112,190411
1630.41,0.184084,284245,186041
1634.36,0.183246,274079,179734
1637.32,0.182967,266916,175149
1640.27,0.182697,259612,170462
1643.22,0.181098,251804,165945
1646.16,0.180129,244348,161391
1649.1,0.179154,236703,156693
1652.04,0.179548,228171,150908
1655.95,0.174752,215408,144049
1658.88,0.171053,204937,138219
1661.8,0.166398,193395,131840
1664.72,0.158053,179728,124900
1667.63,0.144963,163642,117201
1670.54,0.130463,146312,108347
1673.44,0.114394,128451,98706
1677.31,0.096017,105080,84237
1680.21,0.084313,88906,73218
1683.1,0.078103,75033,62683
1685.99,0.079529,63520,52891
1688.87,0.083949,53714,44273
1691.75,0.084178,45653,37609
1694.62,0.094884,39137,31456
1697.49,0.101057,33776,26764
1701.31,0.106475,28175,22049