File: samples/wool/wool-000811/Column 1_050534_20150331_115213.csv
Method:,Column 1,,
Host Date-Time:,31/3/15 @ 11:52:13,,
Header Version:,1,,
System Temp (C):,31.02,,
Detector Temp (C):,30.41,,
Humidity (%):,4.19,,
Lamp PD:,3828,,
Shift Vector Coefficients:,-10.5391,0.0761263,-0.000134223,,
Pixel to Wavelength Coefficients:,1775.68,-0.916766,-0.000235065,,
Serial Number:,5510004,,
Scan Config Name:,Column 1,,
Scan Config Type:,Slew,,
Section 1,,
Start wavelength (nm):,900,,
End wavelength (nm):,1700,,
Pattern Pixel Width (nm):,   7.03,,,,
Exposure (ms):,  0.635,,,,
Digital Resolution:,228,,
Num Repeats:,6,,
PGA Gain:,64,,
Total Measurement Time in sec:,  2.689,,
Wavelength (nm),Absorbance (AU),Reference Signal (unitless),Sample Signal (unitless)
901.51,0.043860,108485,98064
905.376,0.049828,121306,108157
909.237,0.050155,131909,117522
913.095,0.051292,143299,127336
916.948,0.051157,156982,139538
922.079,0.050591,179937,160151
925.923,0.051286,200504,178171
929.762,0.051767,222660,197640
933.597,0.051736,244426,216976
937.427,0.052175,263972,234090
941.254,0.052519,281845,249742
945.076,0.052791,297271,263246
950.165,0.052625,315605,279588
953.978,0.053365,328029,290100
957.786,0.054435,340470,300361
961.59,0.054279,352317,310924
965.389,0.054322,363056,320370
969.185,0.055096,373162,328701
972.976,0.055182,382632,336976
976.763,0.056042,391202,343842
981.806,0.056864,400190,351077
985.583,0.057588,406088,355658
989.355,0.058706,410162,358302
993.124,0.058542,412868,360802
996.888,0.059546,414263,361185
1000.65,0.059854,415476,361986
1004.4,0.061523,415479,360600
1009.41,0.062479,414358,358837
1013.15,0.063218,412923,356986
1016.89,0.063699,411526,355384
1020.63,0.063309,409066,353577
1024.36,0.063573,406777,351385
1028.09,0.063290,404427,349583
1031.82,0.062447,401911,348083
1036.78,0.062036,398410,345378
1040.49,0.061362,396204,343999
1044.2,0.061353,394236,342297
1047.91,0.060661,392042,340935
1051.61,0.060304,389823,339284
1055.31,0.058948,388234,338958
1059,0.058567,387599,338700
1063.92,0.056622,386688,339421
1067.61,0.056648,386598,339322
1071.29,0.055868,387377,340617
1074.96,0.055089,388536,342249
1078.63,0.053926,389855,344332
1082.3,0.053832,391215,345608
1085.96,0.052754,393215,348238
1090.84,0.052475,396270,351169
1094.49,0.051642,398760,354054
1098.14,0.051712,400987,355974
1101.79,0.050631,403477,359077
1105.43,0.050579,406116,361469
1109.06,0.050914,407701,362600
1112.7,0.050370,409859,364976
1117.53,0.050373,412494,367320
1121.15,0.051052,414909,368893
1124.77,0.052267,416559,369326
1128.38,0.053306,418532,370188
1131.99,0.054810,419956,370164
1135.6,0.057312,421946,369781
1139.2,0.059072,423881,369975
1143.99,0.062378,426786,369685
1147.58,0.063337,428617,370452
1151.17,0.065161,431169,371096
1154.75,0.065834,433579,372593
1158.33,0.068508,436264,372599
1161.91,0.071207,439132,372725
1165.48,0.073594,442389,373431
1169.04,0.076904,446101,373705
1173.79,0.081108,451929,374940
1177.34,0.083716,456026,376074
1180.9,0.086278,461306,378191
1184.44,0.087673,467657,382168
1187.99,0.088329,473969,386742
1191.52,0.088100,479856,391752
1195.06,0.087698,487372,398256
1199.76,0.086121,497347,407886
1203.29,0.084783,504311,414873
1206.81,0.083830,511507,421717
1210.33,0.082433,519078,429338
1213.84,0.081360,527163,437104
1217.35,0.080364,534208,443963
1220.85,0.078944,540472,450639
1225.51,0.077970,549929,459554
1229.01,0.077004,556888,466406
1232.5,0.076013,562180,471914
1235.98,0.075381,567975,477472
1239.46,0.074493,574815,484212
1242.94,0.073494,582782,492053
1246.41,0.072412,591476,500640
1251.03,0.071867,604016,511896
1254.5,0.071929,612289,518833
1257.96,0.072198,619125,524301
1261.41,0.073028,624551,527886
1264.86,0.073497,629900,531832
1268.31,0.074003,634345,534962
1271.75,0.074683,638574,537685
1276.33,0.075466,642499,540016
1279.76,0.075079,645905,543363
1283.19,0.074586,648307,546003
1286.61,0.074074,650446,548450
1290.03,0.073937,652132,550045
1293.44,0.072972,653907,552770
1296.85,0.073178,655963,554244
1301.39,0.073133,657349,555473
1304.8,0.072595,657558,556339
1308.19,0.072977,658515,556658
1311.58,0.073339,658804,556439
1314.97,0.074266,659011,555427
1318.36,0.074504,658272,554500
1321.73,0.074954,658022,553715
1326.23,0.076109,657870,552117
1329.6,0.077284,656482,549463
1332.97,0.078553,654926,546562
1336.33,0.079828,653727,543962
1339.69,0.081953,652497,540288
1343.04,0.084230,649913,535334
1346.39,0.086527,647671,530673
1349.73,0.089069,645338,525676
1354.18,0.092485,641175,518193
1357.52,0.095417,638376,512459
1360.85,0.097389,635805,508083
1364.17,0.099935,633413,503213
1367.49,0.102426,631026,498450
1370.81,0.105280,628050,492849
1374.12,0.107724,625034,487730
1378.54,0.112259,620272,478986
1381.84,0.116395,616892,471861
1385.14,0.121003,613613,464399
1388.43,0.126285,611526,457225
1391.72,0.132461,610663,450133
1395.01,0.138319,610634,444081
1398.29,0.144895,611700,438171
1402.66,0.153753,614051,430974
1405.93,0.161008,616268,425365
1409.2,0.167911,617795,419695
1412.46,0.174124,618872,414454
1415.72,0.179685,619795,409792
1418.98,0.185209,620495,405069
1422.23,0.189852,621087,401144
1426.56,0.194866,621375,396723
1429.8,0.197931,621616,394086
1433.04,0.200724,622129,391883
1436.27,0.203781,621526,388757
1439.5,0.205615,621113,386862
1442.72,0.208255,620921,384398
1445.94,0.210920,620270,381646
1450.23,0.214474,618860,377675
1453.44,0.217791,617697,374097
1456.64,0.220524,616264,370888
1459.85,0.222675,614413,367947
1463.04,0.225704,612307,364137
1466.24,0.228488,610032,360466
1469.43,0.231738,607345,356203
1473.67,0.236270,603789,350441
1476.85,0.241270,601175,344930
1480.02,0.245779,597737,339415
1483.19,0.252428,594479,332436
1486.36,0.257209,591232,327001
1489.52,0.262413,587853,321259
1492.68,0.266258,583875,316273
1496.89,0.268709,578062,311362
1500.03,0.269552,574159,308660
1503.18,0.270412,570285,305971
1506.32,0.269463,565444,304037
1509.45,0.268609,560571,302010
1512.58,0.267060,555821,300521
1515.71,0.264758,550344,299141
1519.87,0.261799,543983,297705
1522.99,0.259431,538764,296461
1526.1,0.256281,533692,295808
1529.21,0.252658,527902,295050
1532.32,0.249882,521886,293558
1535.42,0.247055,515888,292079
1538.51,0.243281,509987,291258
1541.6,0.239775,503936,290135
1545.72,0.235104,494694,287894
1548.8,0.232003,488378,286255
1551.88,0.229183,481832,284258
1554.95,0.225965,474989,282305
1558.02,0.224463,467818,279006
1561.08,0.223778,460730,275213
1564.15,0.223329,454170,271575
1568.22,0.221799,444181,266539
1571.27,0.220453,436947,263012
1574.32,0.219493,429598,259161
1577.36,0.217712,422039,255647
1580.4,0.215976,414375,252010
1583.43,0.213979,406354,248271
1586.46,0.212268,398475,244418
1590.49,0.209628,388982,240050
1593.51,0.207733,380708,235971
1596.53,0.205806,372727,232052
1599.54,0.202804,365060,228855
1602.55,0.199516,357543,225846
1605.55,0.197542,349495,221768
1608.55,0.196039,341154,217226
1612.54,0.193728,330877,211806
1615.53,0.190224,322904,208377
1618.51,0.189175,315116,203843
1621.49,0.187757,307217,199383
1624.47,0.185634,299481,195315
1627.44,0.184837,292112,190859
1630.41,0.183597,284245,186250
1634.36,0.180846,274079,180730
1637.32,0.179760,266916,176447
1640.27,0.179443,259612,171744
1643.22,0.178674,251804,166874
1646.16,0.176354,244348,162800
1649.1,0.177133,236703,157424
1652.04,0.176448,228171,151989
1655.95,0.174107,215408,144263
1658.88,0.174459,204937,137139
1661.8,0.173388,193395,129735
1664.72,0.172779,179728,120736
1667.63,0.168271,163642,111077
1670.54,0.165771,146312,99887
1673.44,0.161657,128451,88528
1677.31,0.159424,105080,72794
1680.21,0.163324,88906,61039
1683.1,0.165677,75033,51236
1685.99,0.172035,63520,42744
1688.87,0.182608,53714,35276
1691.75,0.180153,45653,30152
1694.62,0.183500,39137,25650
1697.49,0.188998,33776,21858
1701.31,0.191826,28175,18115