File: samples/wool/wool-000811/Column 1_050603_20150331_122501.csv
Method:,Column 1,,
Host Date-Time:,31/3/15 @ 12:25:1,,
Header Version:,1,,
System Temp (C):,34.02,,
Detector Temp (C):,34.8,,
Humidity (%):,1.66,,
Lamp PD:,3818,,
Shift Vector Coefficients:,-10.5391,0.0761263,-0.000134223,,
Pixel to Wavelength Coefficients:,1775.68,-0.916766,-0.000235065,,
Serial Number:,5510004,,
Scan Config Name:,Column 1,,
Scan Config Type:,Slew,,
Section 1,,
Start wavelength (nm):,900,,
End wavelength (nm):,1700,,
Pattern Pixel Width (nm):,   7.03,,,,
Exposure (ms):,  0.635,,,,
Digital Resolution:,228,,
Num Repeats:,6,,
PGA Gain:,64,,
Total Measurement Time in sec:,  2.672,,
Wavelength (nm),Absorbance (AU),Reference Signal (unitless),Sample Signal (unitless)
901.51,0.068820,108485,92587
905.376,0.075994,121306,101833
909.237,0.076995,131909,110479
913.095,0.077333,143299,119925
916.948,0.078880,156982,130909
922.079,0.081026,179937,149312
925.923,0.081166,200504,166325
929.762,0.082638,222660,184079
933.597,0.082549,244426,202115
937.427,0.080753,263972,219182
941.254,0.080429,281845,234197
945.076,0.079448,297271,247574
950.165,0.078205,315605,263596
953.978,0.077726,328029,274275
957.786,0.077585,340470,284770
961.59,0.078422,352317,294111
965.389,0.077798,363056,303512
969.185,0.078211,373162,311664
972.976,0.078665,382632,319239
976.763,0.079054,391202,326097
981.806,0.078950,400190,333669
985.583,0.080395,406088,337462
989.355,0.080288,410162,340932
993.124,0.080773,412868,342798
996.888,0.081060,414263,343729
1000.65,0.082387,415476,343684
1004.4,0.083221,415479,343027
1009.41,0.084404,414358,341171
1013.15,0.084775,412923,339699
1016.89,0.085239,411526,338188
1020.63,0.084681,409066,336599
1024.36,0.085258,406777,334271
1028.09,0.084923,404427,332596
1031.82,0.084672,401911,330718
1036.78,0.085059,398410,327545
1040.49,0.084391,396204,326233
1044.2,0.085046,394236,324123
1047.91,0.084099,392042,323023
1051.61,0.083735,389823,321464
1055.31,0.083588,388234,320262
1059,0.082576,387599,320484
1063.92,0.081987,386688,320165
1067.61,0.081426,386598,320504
1071.29,0.080590,387377,321769
1074.96,0.080585,388536,322735
1078.63,0.079908,389855,324336
1082.3,0.078926,391215,326204
1085.96,0.078597,393215,328120
1090.84,0.077140,396270,331781
1094.49,0.076807,398760,334122
1098.14,0.075963,400987,336641
1101.79,0.075341,403477,339217
1105.43,0.075528,406116,341289
1109.06,0.074416,407701,343499
1112.7,0.074477,409859,345269
1117.53,0.073992,412494,347877
1121.15,0.074342,414909,349632
1124.77,0.074748,416559,350694
1128.38,0.076342,418532,351064
1131.99,0.076239,419956,352342
1135.6,0.078004,421946,352576
1139.2,0.079356,423881,353092
1143.99,0.081433,426786,353816
1147.58,0.081640,428617,355164
1151.17,0.082995,431169,356166
1154.75,0.083953,433579,357368
1158.33,0.085095,436264,358636
1161.91,0.087380,439132,359100
1165.48,0.088940,442389,360466
1169.04,0.090969,446101,361796
1173.79,0.094487,451929,363566
1177.34,0.096882,456026,364844
1180.9,0.099193,461306,367110
1184.44,0.100829,467657,370765
1187.99,0.101540,473969,375154
1191.52,0.101234,479856,380082
1195.06,0.101650,487372,385665
1199.76,0.101353,497347,393828
1203.29,0.100543,504311,400088
1206.81,0.099926,511507,406374
1210.33,0.099547,519078,412749
1213.84,0.098630,527163,420063
1217.35,0.097900,534208,426393
1220.85,0.097701,540472,431591
1225.51,0.096528,549929,440330
1229.01,0.096017,556888,446427
1232.5,0.095258,562180,451458
1235.98,0.094669,567975,456731
1239.46,0.093744,574815,463217
1242.94,0.092934,582782,470514
1246.41,0.092576,591476,477926
1251.03,0.092508,604016,488136
1254.5,0.092584,612289,494735
1257.96,0.092977,619125,499806
1261.41,0.093149,624551,503987
1264.86,0.093768,629900,507579
1268.31,0.094337,634345,510491
1271.75,0.095026,638574,513080
1276.33,0.095286,642499,515925
1279.76,0.095328,645905,518610
1283.19,0.094408,648307,521642
1286.61,0.094196,650446,523619
1290.03,0.094022,652132,525187
1293.44,0.093122,653907,527708
1296.85,0.093617,655963,528765
1301.39,0.093070,657349,530550
1304.8,0.092988,657558,530819
1308.19,0.093277,658515,531238
1311.58,0.093353,658804,531378
1314.97,0.093834,659011,530956
1318.36,0.094249,658272,529854
1321.73,0.094139,658022,529787
1326.23,0.095086,657870,528511
1329.6,0.096046,656482,526232
1332.97,0.096665,654926,524237
1336.33,0.097530,653727,522235
1339.69,0.098987,652497,519507
1343.04,0.100855,649913,515229
1346.39,0.102943,647671,510989
1349.73,0.104927,645338,506828
1354.18,0.107623,641175,500442
1357.52,0.109060,638376,496611
1360.85,0.111372,635805,491985
1364.17,0.113511,633413,487726
1367.49,0.115704,631026,483441
1370.81,0.117691,628050,478964
1374.12,0.119924,625034,474220
1378.54,0.122957,620272,467332
1381.84,0.125944,616892,461599
1385.14,0.128780,613613,456157
1388.43,0.132932,611526,450280
1391.72,0.136821,610663,445636
1395.01,0.141239,610634,441105
1398.29,0.145499,611700,437562
1402.66,0.151842,614051,432875
1405.93,0.157138,616268,429172
1409.2,0.161747,617795,425694
1412.46,0.166158,618872,422127
1415.72,0.169880,619795,419149
1418.98,0.173671,620495,415975
1422.23,0.177305,621087,412902
1426.56,0.180960,621375,409632
1429.8,0.183543,621616,407361
1433.04,0.185868,622129,405520
1436.27,0.188127,621526,403025
1439.5,0.189832,621113,401179
1442.72,0.192612,620921,398496
1445.94,0.194784,620270,396093
1450.23,0.198399,618860,391916
1453.44,0.201814,617697,388116
1456.64,0.204076,616264,385204
1459.85,0.206950,614413,381514
1463.04,0.209956,612307,377584
1466.24,0.212797,610032,373728
1469.43,0.216880,607345,368600
1473.67,0.222698,603789,361566
1476.85,0.228777,601175,354996
1480.02,0.234108,597737,348660
1483.19,0.240396,594479,341775
1486.36,0.246181,591232,335411
1489.52,0.250794,587853,329970
1492.68,0.254020,583875,325312
1496.89,0.256613,578062,320156
1500.03,0.256932,574159,317761
1503.18,0.256970,570285,315589
1506.32,0.255904,565444,313679
1509.45,0.254803,560571,311765
1512.58,0.252992,555821,310415
1515.71,0.251043,550344,308739
1519.87,0.248003,543983,307314
1522.99,0.245240,538764,306308
1526.1,0.243024,533692,304977
1529.21,0.240004,527902,303773
1532.32,0.237033,521886,302373
1535.42,0.234084,515888,300934
1538.51,0.231425,509987,299319
1541.6,0.228713,503936,297620
1545.72,0.224775,494694,294823
1548.8,0.221706,488378,293123
1551.88,0.219182,481832,290880
1554.95,0.217369,474989,287948
1558.02,0.216237,467818,284341
1561.08,0.215100,460730,280767
1564.15,0.214316,454170,277270
1568.22,0.212989,444181,272001
1571.27,0.213129,436947,267485
1574.32,0.211784,429598,263802
1577.36,0.210496,422039,259930
1580.4,0.209428,414375,255838
1583.43,0.207551,406354,251973
1586.46,0.205851,398475,248056
1590.49,0.203920,388982,243226
1593.51,0.202421,380708,238875
1596.53,0.199675,372727,235351
1599.54,0.198284,365060,231249
1602.55,0.196444,357543,227449
1605.55,0.194543,349495,223305
1608.55,0.193034,341154,218734
1612.54,0.190370,330877,213450
1615.53,0.189181,322904,208878
1618.51,0.189134,315116,203862
1621.49,0.187354,307217,199568
1624.47,0.185509,299481,195371
1627.44,0.184962,292112,190804
1630.41,0.183743,284245,186187
1634.36,0.182169,274079,180180
1637.32,0.181927,266916,175569
1640.27,0.181865,259612,170789
1643.22,0.180136,251804,166313
1646.16,0.178574,244348,161970
1649.1,0.179215,236703,156671
1652.04,0.178109,228171,151409
1655.95,0.173995,215408,144300
1658.88,0.168727,204937,138961
1661.8,0.164370,193395,132457
1664.72,0.156471,179728,125356
1667.63,0.144856,163642,117230
1670.54,0.130383,146312,108367
1673.44,0.114795,128451,98615
1677.31,0.093801,105080,84668
1680.21,0.081900,88906,73626
1683.1,0.078269,75033,62659
1685.99,0.079956,63520,52839
1688.87,0.082695,53714,44401
1691.75,0.083497,45653,37668
1694.62,0.091748,39137,31684
1697.49,0.097164,33776,27005
1701.31,0.104510,28175,22149