File: samples/wool/wool-000811/Column 1_050563_20150331_120601.csv
Method:,Column 1,,
Host Date-Time:,31/3/15 @ 12:6:1,,
Header Version:,1,,
System Temp (C):,33.79,,
Detector Temp (C):,33.5,,
Humidity (%):,1.95,,
Lamp PD:,3819,,
Shift Vector Coefficients:,-10.5391,0.0761263,-0.000134223,,
Pixel to Wavelength Coefficients:,1775.68,-0.916766,-0.000235065,,
Serial Number:,5510004,,
Scan Config Name:,Column 1,,
Scan Config Type:,Slew,,
Section 1,,
Start wavelength (nm):,900,,
End wavelength (nm):,1700,,
Pattern Pixel Width (nm):,   7.03,,,,
Exposure (ms):,  0.635,,,,
Digital Resolution:,228,,
Num Repeats:,6,,
PGA Gain:,64,,
Total Measurement Time in sec:,  2.721,,
Wavelength (nm),Absorbance (AU),Reference Signal (unitless),Sample Signal (unitless)
901.51,0.034251,108485,100258
905.376,0.039970,121306,110640
909.237,0.041879,131909,119783
913.095,0.044084,143299,129467
916.948,0.042575,156982,142323
922.079,0.045193,179937,162154
925.923,0.045901,200504,180394
929.762,0.047551,222660,199568
933.597,0.048539,244426,218579
937.427,0.046886,263972,236958
941.254,0.046979,281845,252948
945.076,0.046562,297271,267049
950.165,0.045674,315605,284099
953.978,0.045430,328029,295449
957.786,0.045996,340470,306255
961.59,0.046179,352317,316778
965.389,0.046112,363056,326484
969.185,0.046641,373162,335163
972.976,0.047080,382632,343322
976.763,0.047505,391202,350668
981.806,0.047899,400190,358399
985.583,0.049216,406088,362580
989.355,0.048990,410162,366408
993.124,0.049388,412868,368488
996.888,0.050430,414263,368847
1000.65,0.051220,415476,369255
1004.4,0.052023,415479,368575
1009.41,0.053111,414358,366661
1013.15,0.054205,412923,364472
1016.89,0.054671,411526,362849
1020.63,0.054228,409066,361048
1024.36,0.054646,406777,358683
1028.09,0.054398,404427,356814
1031.82,0.054315,401911,354662
1036.78,0.053892,398410,351915
1040.49,0.053877,396204,349979
1044.2,0.053227,394236,348762
1047.91,0.052567,392042,347349
1051.61,0.052333,389823,345569
1055.31,0.051594,388234,344746
1059,0.050922,387599,344715
1063.92,0.050092,386688,344563
1067.61,0.049262,386598,345142
1071.29,0.049295,387377,345811
1074.96,0.048067,388536,347828
1078.63,0.048028,389855,349040
1082.3,0.046805,391215,351245
1085.96,0.045962,393215,353727
1090.84,0.045605,396270,356768
1094.49,0.045088,398760,359438
1098.14,0.044135,400987,362239
1101.79,0.044689,403477,364024
1105.43,0.045085,406116,366071
1109.06,0.044172,407701,368273
1112.7,0.043770,409859,370565
1117.53,0.043642,412494,373057
1121.15,0.044792,414909,374249
1124.77,0.045570,416559,375065
1128.38,0.046362,418532,376155
1131.99,0.048586,419956,375507
1135.6,0.049815,421946,376220
1139.2,0.051224,423881,376721
1143.99,0.054135,426786,376769
1147.58,0.054882,428617,377735
1151.17,0.056358,431169,378695
1154.75,0.057678,433579,379656
1158.33,0.059279,436264,380601
1161.91,0.060987,439132,381600
1165.48,0.064106,442389,381679
1169.04,0.066410,446101,382845
1173.79,0.070037,451929,384621
1177.34,0.071957,456026,386396
1180.9,0.075048,461306,388098
1184.44,0.076528,467657,392102
1187.99,0.077220,473969,396762
1191.52,0.077435,479856,401491
1195.06,0.076785,487372,408390
1199.76,0.076058,497347,417447
1203.29,0.074207,504311,425100
1206.81,0.074346,511507,431028
1210.33,0.073289,519078,438474
1213.84,0.072659,527163,445950
1217.35,0.071916,534208,452683
1220.85,0.071296,540472,458646
1225.51,0.070240,549929,467807
1229.01,0.070058,556888,473925
1232.5,0.069196,562180,479379
1235.98,0.068411,567975,485197
1239.46,0.067279,574815,492322
1242.94,0.066411,582782,500144
1246.41,0.065818,591476,508299
1251.03,0.065691,604016,519227
1254.5,0.065874,612289,526117
1257.96,0.066251,619125,531530
1261.41,0.067109,624551,535130
1264.86,0.067510,629900,539214
1268.31,0.068031,634345,542369
1271.75,0.068749,638574,545083
1276.33,0.069331,642499,547698
1279.76,0.069351,645905,550577
1283.19,0.068490,648307,553721
1286.61,0.068497,650446,555538
1290.03,0.067662,652132,558051
1293.44,0.067365,653907,559952
1296.85,0.067063,655963,562103
1301.39,0.066894,657349,563510
1304.8,0.066948,657558,563620
1308.19,0.067173,658515,564148
1311.58,0.067292,658804,564241
1314.97,0.067979,659011,563526
1318.36,0.068492,658272,562229
1321.73,0.068457,658022,562061
1326.23,0.069895,657870,560074
1329.6,0.070551,656482,558048
1332.97,0.071729,654926,555217
1336.33,0.072941,653727,552657
1339.69,0.074408,652497,549757
1343.04,0.076311,649913,545185
1346.39,0.078663,647671,540370
1349.73,0.080863,645338,535703
1354.18,0.083780,641175,528685
1357.52,0.086211,638376,523438
1360.85,0.088697,635805,518355
1364.17,0.090573,633413,514178
1367.49,0.093283,631026,509054
1370.81,0.095934,628050,503570
1374.12,0.098058,625034,498707
1378.54,0.101298,620272,491229
1381.84,0.104854,616892,484569
1385.14,0.109288,613613,477097
1388.43,0.113088,611526,471332
1391.72,0.118167,610663,465195
1395.01,0.123151,610634,459865
1398.29,0.128448,611700,455083
1402.66,0.135850,614051,449112
1405.93,0.141555,616268,444851
1409.2,0.147187,617795,440207
1412.46,0.151996,618872,436119
1415.72,0.156770,619795,431994
1418.98,0.160731,620495,428556
1422.23,0.165100,621087,424671
1426.56,0.169044,621375,421027
1429.8,0.172208,621616,418133
1433.04,0.175038,622129,415760
1436.27,0.177162,621526,413330
1439.5,0.179412,621113,410921
1442.72,0.182310,620921,408062
1445.94,0.184164,620270,405898
1450.23,0.188534,618860,400921
1453.44,0.190978,617697,397922
1456.64,0.193572,616264,394634
1459.85,0.197044,614413,390316
1463.04,0.199568,612307,386724
1466.24,0.203222,610032,382059
1469.43,0.206562,607345,377462
1473.67,0.212565,603789,370101
1476.85,0.218000,601175,363916
1480.02,0.224089,597737,356797
1483.19,0.231277,594479,349027
1486.36,0.236958,591232,342610
1489.52,0.242449,587853,336372
1492.68,0.245612,583875,331671
1496.89,0.248045,578062,326535
1500.03,0.248416,574159,324053
1503.18,0.249237,570285,321259
1506.32,0.247708,565444,319655
1509.45,0.246425,560571,317838
1512.58,0.245132,555821,316084
1515.71,0.242110,550344,315155
1519.87,0.238798,543983,313897
1522.99,0.236298,538764,312680
1526.1,0.233872,533692,311472
1529.21,0.231207,527902,309989
1532.32,0.227434,521886,309130
1535.42,0.224880,515888,307380
1538.51,0.221493,509987,306243
1541.6,0.218892,503936,304427
1545.72,0.214402,494694,301950
1548.8,0.211152,488378,300334
1551.88,0.208238,481832,298303
1554.95,0.206585,474989,295188
1558.02,0.204187,467818,292341
1561.08,0.202909,460730,288760
1564.15,0.203067,454170,284545
1568.22,0.201164,444181,279509
1571.27,0.200022,436947,275681
1574.32,0.198977,429598,271697
1577.36,0.197485,422039,267835
1580.4,0.196674,414375,263463
1583.43,0.194200,406354,259839
1586.46,0.192591,398475,255747
1590.49,0.191429,388982,250323
1593.51,0.188627,380708,246584
1596.53,0.186674,372727,242503
1599.54,0.184426,365060,238747
1602.55,0.181952,357543,235167
1605.55,0.179812,349495,231009
1608.55,0.177101,341154,226908
1612.54,0.174960,330877,221160
1615.53,0.173110,322904,216752
1618.51,0.171735,315116,212195
1621.49,0.171253,307217,207106
1624.47,0.170577,299481,202205
1627.44,0.168718,292112,198076
1630.41,0.166469,284245,193742
1634.36,0.165023,274079,187436
1637.32,0.166010,266916,182123
1640.27,0.164598,259612,177716
1643.22,0.161771,251804,173497
1646.16,0.162881,244348,167930
1649.1,0.162528,236703,162808
1652.04,0.159150,228171,158165
1655.95,0.158171,215408,149655
1658.88,0.154185,204937,143693
1661.8,0.151265,193395,136515
1664.72,0.144231,179728,128939
1667.63,0.135039,163642,119910
1670.54,0.123733,146312,110039
1673.44,0.112340,128451,99174
1677.31,0.096192,105080,84203
1680.21,0.087301,88906,72716
1683.1,0.084201,75033,61809
1685.99,0.091314,63520,51475
1688.87,0.092748,53714,43385
1691.75,0.102950,45653,36018
1694.62,0.109457,39137,30418
1697.49,0.112684,33776,26057
1701.31,0.119511,28175,21397