File: samples/wool/wool-000811/Column 1_050607_20150331_122649.csv
Method:,Column 1,,
Host Date-Time:,31/3/15 @ 12:26:49,,
Header Version:,1,,
System Temp (C):,34.01,,
Detector Temp (C):,34.84,,
Humidity (%):,1.66,,
Lamp PD:,3818,,
Shift Vector Coefficients:,-10.5391,0.0761263,-0.000134223,,
Pixel to Wavelength Coefficients:,1775.68,-0.916766,-0.000235065,,
Serial Number:,5510004,,
Scan Config Name:,Column 1,,
Scan Config Type:,Slew,,
Section 1,,
Start wavelength (nm):,900,,
End wavelength (nm):,1700,,
Pattern Pixel Width (nm):,   7.03,,,,
Exposure (ms):,  0.635,,,,
Digital Resolution:,228,,
Num Repeats:,6,,
PGA Gain:,64,,
Total Measurement Time in sec:,  2.672,,
Wavelength (nm),Absorbance (AU),Reference Signal (unitless),Sample Signal (unitless)
901.51,0.068098,108485,92741
905.376,0.076493,121306,101716
909.237,0.075535,131909,110851
913.095,0.077000,143299,120017
916.948,0.078837,156982,130922
922.079,0.079783,179937,149740
925.923,0.081158,200504,166328
929.762,0.082025,222660,184339
933.597,0.081373,244426,202663
937.427,0.080256,263972,219433
941.254,0.079782,281845,234546
945.076,0.078603,297271,248056
950.165,0.077637,315605,263941
953.978,0.077813,328029,274220
957.786,0.077225,340470,285006
961.59,0.078103,352317,294327
965.389,0.077998,363056,303372
969.185,0.077099,373162,312463
972.976,0.077718,382632,319936
976.763,0.078521,391202,326498
981.806,0.078828,400190,333763
985.583,0.079411,406088,338228
989.355,0.079815,410162,341303
993.124,0.080080,412868,343345
996.888,0.080643,414263,344059
1000.65,0.081932,415476,344044
1004.4,0.082471,415479,343620
1009.41,0.083900,414358,341567
1013.15,0.084602,412923,339834
1016.89,0.084094,411526,339081
1020.63,0.084290,409066,336902
1024.36,0.083944,406777,335284
1028.09,0.084663,404427,332795
1031.82,0.084230,401911,331055
1036.78,0.084137,398410,328241
1040.49,0.083815,396204,326666
1044.2,0.083806,394236,325050
1047.91,0.083266,392042,323643
1051.61,0.083402,389823,321711
1055.31,0.082907,388234,320765
1059,0.081855,387599,321017
1063.92,0.081304,386688,320669
1067.61,0.080769,386598,320989
1071.29,0.080034,387377,322181
1074.96,0.079885,388536,323256
1078.63,0.079091,389855,324947
1082.3,0.078032,391215,326876
1085.96,0.077528,393215,328929
1090.84,0.076678,396270,332134
1094.49,0.076236,398760,334561
1098.14,0.075082,400987,337325
1101.79,0.075158,403477,339360
1105.43,0.074533,406116,342072
1109.06,0.074222,407701,343653
1112.7,0.073663,409859,345917
1117.53,0.073759,412494,348064
1121.15,0.073683,414909,350163
1124.77,0.074170,416559,351161
1128.38,0.074880,418532,352248
1131.99,0.076069,419956,352480
1135.6,0.077487,421946,352996
1139.2,0.078717,423881,353612
1143.99,0.080970,426786,354193
1147.58,0.081891,428617,354959
1151.17,0.082108,431169,356894
1154.75,0.083843,433579,357458
1158.33,0.084390,436264,359219
1161.91,0.086825,439132,359559
1165.48,0.088901,442389,360498
1169.04,0.090713,446101,362010
1173.79,0.094118,451929,363875
1177.34,0.096422,456026,365231
1180.9,0.098157,461306,367987
1184.44,0.099783,467657,371659
1187.99,0.100973,473969,375644
1191.52,0.100752,479856,380504
1195.06,0.100954,487372,386284
1199.76,0.100278,497347,394804
1203.29,0.099662,504311,400900
1206.81,0.099142,511507,407108
1210.33,0.098297,519078,413938
1213.84,0.097675,527163,420988
1217.35,0.097521,534208,426766
1220.85,0.096535,540472,432751
1225.51,0.095994,549929,440872
1229.01,0.095175,556888,447294
1232.5,0.094841,562180,451892
1235.98,0.094642,567975,456759
1239.46,0.093166,574815,463834
1242.94,0.092486,582782,470999
1246.41,0.091665,591476,478930
1251.03,0.091601,604016,489156
1254.5,0.091531,612289,495936
1257.96,0.092377,619125,500497
1261.41,0.092694,624551,504515
1264.86,0.093423,629900,507982
1268.31,0.093551,634345,511416
1271.75,0.094321,638574,513914
1276.33,0.094763,642499,516547
1279.76,0.094835,645905,519199
1283.19,0.093873,648307,522285
1286.61,0.093369,650446,524617
1290.03,0.093465,652132,525861
1293.44,0.092804,653907,528095
1296.85,0.092815,655963,529742
1301.39,0.092101,657349,531735
1304.8,0.092607,657558,531284
1308.19,0.092431,658515,532273
1311.58,0.092756,658804,532108
1314.97,0.093241,659011,531682
1318.36,0.093515,658272,530751
1321.73,0.093908,658022,530069
1326.23,0.094611,657870,529089
1329.6,0.095051,656482,527439
1332.97,0.096351,654926,524616
1336.33,0.096939,653727,522947
1339.69,0.098401,652497,520208
1343.04,0.100262,649913,515933
1346.39,0.101946,647671,512163
1349.73,0.103716,645338,508243
1354.18,0.106849,641175,501335
1357.52,0.108836,638376,496868
1360.85,0.110550,635805,492917
1364.17,0.112649,633413,488695
1367.49,0.115155,631026,484052
1370.81,0.117473,628050,479205
1374.12,0.119671,625034,474496
1378.54,0.121919,620272,468450
1381.84,0.124759,616892,462860
1385.14,0.128469,613613,456484
1388.43,0.131774,611526,451482
1391.72,0.135825,610663,446660
1395.01,0.140120,610634,442243
1398.29,0.143941,611700,439134
1402.66,0.150904,614051,433811
1405.93,0.155594,616268,430701
1409.2,0.160531,617795,426887
1412.46,0.164727,618872,423520
1415.72,0.168355,619795,420623
1418.98,0.171992,620495,417586
1422.23,0.175513,621087,414610
1426.56,0.179317,621375,411185
1429.8,0.181710,621616,409084
1433.04,0.184449,622129,406847
1436.27,0.186370,621526,404659
1439.5,0.188376,621113,402527
1442.72,0.190861,620921,400106
1445.94,0.193549,620270,397221
1450.23,0.197019,618860,393164
1453.44,0.200148,617697,389608
1456.64,0.202768,616264,386366
1459.85,0.204832,614413,383379
1463.04,0.207928,612307,379351
1466.24,0.211281,610032,375035
1469.43,0.215121,607345,370096
1473.67,0.221245,603789,362777
1476.85,0.227238,601175,356257
1480.02,0.233079,597737,349487
1483.19,0.239679,594479,342340
1486.36,0.245796,591232,335708
1489.52,0.250164,587853,330449
1492.68,0.253196,583875,325930
1496.89,0.255518,578062,320964
1500.03,0.256186,574159,318307
1503.18,0.255869,570285,316390
1506.32,0.255406,565444,314039
1509.45,0.254281,560571,312140
1512.58,0.252295,555821,310914
1515.71,0.249735,550344,309670
1519.87,0.246915,543983,308085
1522.99,0.244910,538764,306541
1526.1,0.241545,533692,306017
1529.21,0.238889,527902,304554
1532.32,0.235743,521886,303272
1535.42,0.233481,515888,301352
1538.51,0.229342,509987,300758
1541.6,0.227834,503936,298223
1545.72,0.223579,494694,295636
1548.8,0.220780,488378,293749
1551.88,0.218463,481832,291362
1554.95,0.216124,474989,288775
1558.02,0.214367,467818,285568
1561.08,0.213837,460730,281585
1564.15,0.212977,454170,278126
1568.22,0.211638,444181,272849
1571.27,0.211061,436947,268762
1574.32,0.211291,429598,264102
1577.36,0.209533,422039,260507
1580.4,0.208818,414375,256198
1583.43,0.206487,406354,252591
1586.46,0.205110,398475,248480
1590.49,0.203295,388982,243576
1593.51,0.201488,380708,239389
1596.53,0.199367,372727,235518
1599.54,0.197721,365060,231549
1602.55,0.195712,357543,227833
1605.55,0.193981,349495,223594
1608.55,0.190790,341154,219867
1612.54,0.190250,330877,213509
1615.53,0.187411,322904,209731
1618.51,0.186943,315116,204893
1621.49,0.187067,307217,199700
1624.47,0.185385,299481,195427
1627.44,0.183188,292112,191585
1630.41,0.183249,284245,186399
1634.36,0.181752,274079,180353
1637.32,0.181531,266916,175729
1640.27,0.180740,259612,171232
1643.22,0.178221,251804,167048
1646.16,0.178507,244348,161995
1649.1,0.178398,236703,156966
1652.04,0.175951,228171,152163
1655.95,0.174023,215408,144291
1658.88,0.168787,204937,138942
1661.8,0.163934,193395,132590
1664.72,0.157254,179728,125130
1667.63,0.144001,163642,117461
1670.54,0.129074,146312,108694
1673.44,0.113787,128451,98844
1677.31,0.091968,105080,85026
1680.21,0.083413,88906,73370
1683.1,0.075312,75033,63087
1685.99,0.078684,63520,52994
1688.87,0.080714,53714,44604
1691.75,0.087924,45653,37286
1694.62,0.086489,39137,32070
1697.49,0.089939,33776,27458
1701.31,0.099073,28175,22428