File: samples/wool/wool-000811/Column 1_050547_20150331_115817.csv
Method:,Column 1,,
Host Date-Time:,31/3/15 @ 11:58:17,,
Header Version:,1,,
System Temp (C):,33.02,,
Detector Temp (C):,31.65,,
Humidity (%):,2.44,,
Lamp PD:,3823,,
Shift Vector Coefficients:,-10.5391,0.0761263,-0.000134223,,
Pixel to Wavelength Coefficients:,1775.68,-0.916766,-0.000235065,,
Serial Number:,5510004,,
Scan Config Name:,Column 1,,
Scan Config Type:,Slew,,
Section 1,,
Start wavelength (nm):,900,,
End wavelength (nm):,1700,,
Pattern Pixel Width (nm):,   7.03,,,,
Exposure (ms):,  0.635,,,,
Digital Resolution:,228,,
Num Repeats:,6,,
PGA Gain:,64,,
Total Measurement Time in sec:,  2.671,,
Wavelength (nm),Absorbance (AU),Reference Signal (unitless),Sample Signal (unitless)
901.51,0.047753,108485,97189
905.376,0.054048,121306,107111
909.237,0.055918,131909,115973
913.095,0.055824,143299,126014
916.948,0.056333,156982,137885
922.079,0.055716,179937,158272
925.923,0.056640,200504,175988
929.762,0.056778,222660,195373
933.597,0.058164,244426,213788
937.427,0.056761,263972,231631
941.254,0.057465,281845,246914
945.076,0.056913,297271,260759
950.165,0.056868,315605,276870
953.978,0.056443,328029,288051
957.786,0.057164,340470,298480
961.59,0.057484,352317,308638
965.389,0.057026,363056,318381
969.185,0.057712,373162,326727
972.976,0.058470,382632,334435
976.763,0.059085,391202,341441
981.806,0.059380,400190,349049
985.583,0.059972,406088,353711
989.355,0.060501,410162,356824
993.124,0.060872,412868,358872
996.888,0.061879,414263,359250
1000.65,0.062993,415476,359379
1004.4,0.063534,415479,358934
1009.41,0.065186,414358,356607
1013.15,0.065538,412923,355084
1016.89,0.066058,411526,353459
1020.63,0.065951,409066,351433
1024.36,0.065417,406777,349896
1028.09,0.065449,404427,347849
1031.82,0.065256,401911,345839
1036.78,0.063837,398410,343948
1040.49,0.063655,396204,342187
1044.2,0.063462,394236,340639
1047.91,0.062956,392042,339138
1051.61,0.061474,389823,338371
1055.31,0.061323,388234,337109
1059,0.060722,387599,337024
1063.92,0.059827,386688,336925
1067.61,0.058031,386598,338243
1071.29,0.057765,387377,339132
1074.96,0.057082,388536,340682
1078.63,0.056396,389855,342379
1082.3,0.055572,391215,344226
1085.96,0.054952,393215,346480
1090.84,0.054099,396270,349858
1094.49,0.053742,398760,352346
1098.14,0.052743,400987,355130
1101.79,0.052919,403477,357190
1105.43,0.052753,406116,359664
1109.06,0.052104,407701,361608
1112.7,0.052440,409859,363241
1117.53,0.051984,412494,365960
1121.15,0.052814,414909,367400
1124.77,0.053168,416559,368560
1128.38,0.054997,418532,368750
1131.99,0.056440,419956,368777
1135.6,0.058646,421946,368647
1139.2,0.060606,423881,368670
1143.99,0.063239,426786,368953
1147.58,0.064396,428617,369550
1151.17,0.065924,431169,370445
1154.75,0.067039,433579,371560
1158.33,0.069042,436264,372141
1161.91,0.071463,439132,372505
1165.48,0.074749,442389,372439
1169.04,0.077432,446101,373251
1173.79,0.081574,451929,374538
1177.34,0.084639,456026,375276
1180.9,0.086732,461306,377796
1184.44,0.088274,467657,381640
1187.99,0.089586,473969,385624
1191.52,0.089102,479856,390849
1195.06,0.088899,487372,397156
1199.76,0.087073,497347,406993
1203.29,0.085785,504311,413917
1206.81,0.084815,511507,420762
1210.33,0.083692,519078,428095
1213.84,0.082357,527163,436102
1217.35,0.081310,534208,442997
1220.85,0.080131,540472,449409
1225.51,0.078624,549929,458863
1229.01,0.078226,556888,465095
1232.5,0.077759,562180,470020
1235.98,0.076275,567975,476491
1239.46,0.075108,574815,483526
1242.94,0.074223,582782,491228
1246.41,0.073412,591476,499488
1251.03,0.072843,604016,510747
1254.5,0.072872,612289,517707
1257.96,0.073621,619125,522586
1261.41,0.073890,624551,526839
1264.86,0.074589,629900,530497
1268.31,0.074993,634345,533744
1271.75,0.075404,638574,536794
1276.33,0.076285,642499,538998
1279.76,0.076290,645905,541849
1283.19,0.075406,648307,544973
1286.61,0.075117,650446,547135
1290.03,0.074626,652132,549174
1293.44,0.074136,653907,551290
1296.85,0.074046,655963,553138
1301.39,0.073240,657349,555336
1304.8,0.073499,657558,555182
1308.19,0.074070,658515,555259
1311.58,0.073678,658804,556004
1314.97,0.074668,659011,554913
1318.36,0.075345,658272,553427
1321.73,0.075284,658022,553295
1326.23,0.076550,657870,551557
1329.6,0.077870,656482,548722
1332.97,0.078771,654926,546287
1336.33,0.079695,653727,544128
1339.69,0.081764,652497,540524
1343.04,0.083828,649913,535830
1346.39,0.086250,647671,531012
1349.73,0.088695,645338,526129
1354.18,0.092426,641175,518263
1357.52,0.094507,638376,513535
1360.85,0.097113,635805,508406
1364.17,0.099164,633413,504107
1367.49,0.101919,631026,499032
1370.81,0.104990,628050,493179
1374.12,0.107584,625034,487887
1378.54,0.111064,620272,480306
1381.84,0.115079,616892,473293
1385.14,0.119465,613613,466047
1388.43,0.125192,611526,458377
1391.72,0.130331,610663,452346
1395.01,0.135776,610634,446689
1398.29,0.142084,611700,441016
1402.66,0.150088,614051,434627
1405.93,0.156928,616268,429380
1409.2,0.163129,617795,424341
1412.46,0.168679,618872,419683
1415.72,0.173695,619795,415483
1418.98,0.178243,620495,411619
1422.23,0.182419,621087,408069
1426.56,0.186693,621375,404260
1429.8,0.189935,621616,401409
1433.04,0.193426,622129,398524
1436.27,0.195341,621526,396386
1439.5,0.197903,621113,393793
1442.72,0.200468,620921,391353
1445.94,0.202866,620270,388790
1450.23,0.206893,618860,384326
1453.44,0.209420,617697,381378
1456.64,0.212753,616264,377584
1459.85,0.215387,614413,374174
1463.04,0.218356,612307,370351
1466.24,0.221076,610032,366671
1469.43,0.224666,607345,362051
1473.67,0.230244,603789,355338
1476.85,0.235328,601175,349682
1480.02,0.241108,597737,343085
1483.19,0.248044,594479,335809
1486.36,0.254169,591232,329298
1489.52,0.259178,587853,323661
1492.68,0.262426,583875,319076
1496.89,0.266692,578062,312811
1500.03,0.267312,574159,310256
1503.18,0.267182,570285,308255
1506.32,0.266624,565444,306031
1509.45,0.264718,560571,304728
1512.58,0.263872,555821,302735
1515.71,0.261642,550344,301295
1519.87,0.258344,543983,300083
1522.99,0.256332,538764,298584
1526.1,0.253187,533692,297923
1529.21,0.249838,527902,296972
1532.32,0.246871,521886,295600
1535.42,0.243108,515888,294746
1538.51,0.240414,509987,293187
1541.6,0.236682,503936,292209
1545.72,0.231846,494694,290062
1548.8,0.228708,488378,288435
1551.88,0.226094,481832,286287
1554.95,0.223520,474989,283899
1558.02,0.221794,467818,280726
1561.08,0.220741,460730,277144
1564.15,0.219734,454170,273832
1568.22,0.218726,444181,268432
1571.27,0.217827,436947,264607
1574.32,0.216428,429598,260996
1577.36,0.215369,422039,257030
1580.4,0.213570,414375,253410
1583.43,0.211335,406354,249787
1586.46,0.209706,398475,245864
1590.49,0.207696,388982,241120
1593.51,0.205543,380708,237164
1596.53,0.202970,372727,233572
1599.54,0.200869,365060,229877
1602.55,0.198438,357543,226407
1605.55,0.196144,349495,222483
1608.55,0.192318,341154,219095
1612.54,0.190908,330877,213186
1615.53,0.188611,322904,209152
1618.51,0.186403,315116,205148
1621.49,0.186383,307217,200015
1624.47,0.183969,299481,196065
1627.44,0.183249,292112,191558
1630.41,0.180868,284245,187424
1634.36,0.179466,274079,181305
1637.32,0.177923,266916,177195
1640.27,0.178390,259612,172161
1643.22,0.176418,251804,167743
1646.16,0.176429,244348,162772
1649.1,0.174791,236703,158275
1652.04,0.173930,228171,152873
1655.95,0.171921,215408,144991
1658.88,0.169679,204937,138657
1661.8,0.167913,193395,131381
1664.72,0.163949,179728,123216
1667.63,0.156579,163642,114108
1670.54,0.148919,146312,103839
1673.44,0.142047,128451,92617
1677.31,0.133447,105080,77281
1680.21,0.129427,88906,65994
1683.1,0.131844,75033,55387
1685.99,0.133612,63520,46698
1688.87,0.140898,53714,38832
1691.75,0.151789,45653,32187
1694.62,0.154742,39137,27406
1697.49,0.152433,33776,23778
1701.31,0.161615,28175,19420