File: samples/wool/wool-000811/Column 1_050585_20150331_121622.csv
Method:,Column 1,,
Host Date-Time:,31/3/15 @ 12:16:22,,
Header Version:,1,,
System Temp (C):,33.77,,
Detector Temp (C):,34.51,,
Humidity (%):,1.86,,
Lamp PD:,3819,,
Shift Vector Coefficients:,-10.5391,0.0761263,-0.000134223,,
Pixel to Wavelength Coefficients:,1775.68,-0.916766,-0.000235065,,
Serial Number:,5510004,,
Scan Config Name:,Column 1,,
Scan Config Type:,Slew,,
Section 1,,
Start wavelength (nm):,900,,
End wavelength (nm):,1700,,
Pattern Pixel Width (nm):,   7.03,,,,
Exposure (ms):,  0.635,,,,
Digital Resolution:,228,,
Num Repeats:,6,,
PGA Gain:,64,,
Total Measurement Time in sec:,  2.677,,
Wavelength (nm),Absorbance (AU),Reference Signal (unitless),Sample Signal (unitless)
901.51,0.069933,108485,92350
905.376,0.075555,121306,101936
909.237,0.080500,131909,109591
913.095,0.079453,143299,119341
916.948,0.080426,156982,130444
922.079,0.083160,179937,148580
925.923,0.082670,200504,165750
929.762,0.083812,222660,183582
933.597,0.083476,244426,201684
937.427,0.081860,263972,218624
941.254,0.081285,281845,233736
945.076,0.081316,297271,246511
950.165,0.079996,315605,262511
953.978,0.078926,328029,273518
957.786,0.079613,340470,283443
961.59,0.080625,352317,292623
965.389,0.079807,363056,302111
969.185,0.080069,373162,310333
972.976,0.080215,382632,318102
976.763,0.080812,391202,324780
981.806,0.081234,400190,331919
985.583,0.081715,406088,336438
989.355,0.082269,410162,339380
993.124,0.082847,412868,341165
996.888,0.083532,414263,341778
1000.65,0.083942,415476,342455
1004.4,0.085350,415479,341349
1009.41,0.086459,414358,339560
1013.15,0.086543,412923,338319
1016.89,0.087478,411526,336449
1020.63,0.086580,409066,335130
1024.36,0.087108,406777,332850
1028.09,0.086735,404427,331211
1031.82,0.086745,401911,329143
1036.78,0.086664,398410,326337
1040.49,0.086467,396204,324677
1044.2,0.086380,394236,323129
1047.91,0.085799,392042,321761
1051.61,0.085388,389823,320243
1055.31,0.085031,388234,319200
1059,0.084806,387599,318843
1063.92,0.083849,386688,318795
1067.61,0.082980,386598,319359
1071.29,0.083046,387377,319954
1074.96,0.082677,388536,321184
1078.63,0.081941,389855,322821
1082.3,0.081056,391215,324608
1085.96,0.080129,393215,326965
1090.84,0.079959,396270,329634
1094.49,0.078364,398760,332926
1098.14,0.078433,400987,334732
1101.79,0.078063,403477,337098
1105.43,0.077514,406116,339732
1109.06,0.076826,407701,341598
1112.7,0.076254,409859,343859
1117.53,0.076241,412494,346080
1121.15,0.076746,414909,347702
1124.77,0.077610,416559,348391
1128.38,0.077613,418532,350038
1131.99,0.078966,419956,350137
1135.6,0.080542,421946,350522
1139.2,0.082231,423881,350762
1143.99,0.083607,426786,352049
1147.58,0.084770,428617,352614
1151.17,0.085783,431169,353887
1154.75,0.087105,433579,354783
1158.33,0.088521,436264,355818
1161.91,0.090486,439132,356541
1165.48,0.092210,442389,357762
1169.04,0.094188,446101,359125
1173.79,0.097207,451929,361296
1177.34,0.099203,456026,362900
1180.9,0.101532,461306,365138
1184.44,0.103378,467657,368595
1187.99,0.104331,473969,372751
1191.52,0.104538,479856,377201
1195.06,0.104318,487372,383303
1199.76,0.103218,497347,392140
1203.29,0.103045,504311,397790
1206.81,0.102528,511507,403946
1210.33,0.102170,519078,410263
1213.84,0.101377,527163,417415
1217.35,0.100816,534208,423540
1220.85,0.100048,540472,429265
1225.51,0.099330,549929,437499
1229.01,0.098640,556888,443739
1232.5,0.098345,562180,448260
1235.98,0.097828,567975,453421
1239.46,0.096369,574815,460425
1242.94,0.095339,582782,467915
1246.41,0.095189,591476,475060
1251.03,0.095118,604016,485211
1254.5,0.095254,612289,491703
1257.96,0.095642,619125,496748
1261.41,0.095708,624551,501026
1264.86,0.096348,629900,504573
1268.31,0.097058,634345,507303
1271.75,0.098105,638574,509455
1276.33,0.098169,642499,512511
1279.76,0.097873,645905,515580
1283.19,0.097719,648307,517680
1286.61,0.097054,650446,520184
1290.03,0.096706,652132,521951
1293.44,0.096283,653907,523882
1296.85,0.095937,655963,525948
1301.39,0.095665,657349,527389
1304.8,0.095866,657558,527313
1308.19,0.096221,658515,527649
1311.58,0.095689,658804,528527
1314.97,0.096626,659011,527554
1318.36,0.097024,658272,526479
1321.73,0.097510,658022,525691
1326.23,0.098821,657870,523985
1329.6,0.099291,656482,522314
1332.97,0.100186,654926,520004
1336.33,0.101653,653727,517301
1339.69,0.102936,652497,514805
1343.04,0.104487,649913,510938
1346.39,0.106573,647671,506736
1349.73,0.108688,645338,502457
1354.18,0.111688,641175,495780
1357.52,0.114045,638376,490944
1360.85,0.115643,635805,487170
1364.17,0.117315,633413,483473
1367.49,0.119609,631026,479113
1370.81,0.121805,628050,474449
1374.12,0.124200,625034,469574
1378.54,0.127188,620272,462801
1381.84,0.130521,616892,456760
1385.14,0.134340,613613,450355
1388.43,0.138273,611526,444777
1391.72,0.143224,610663,439114
1395.01,0.147866,610634,434425
1398.29,0.152150,611700,430912
1402.66,0.160155,614051,424668
1405.93,0.165612,616268,420879
1409.2,0.170556,617795,417146
1412.46,0.175871,618872,412791
1415.72,0.180758,619795,408780
1418.98,0.184469,620495,405760
1422.23,0.187493,621087,403329
1426.56,0.191792,621375,399541
1429.8,0.194576,621616,397142
1433.04,0.197173,622129,395100
1436.27,0.199301,621526,392788
1439.5,0.201265,621113,390756
1442.72,0.203821,620921,388343
1445.94,0.206247,620270,385775
1450.23,0.209423,618860,382093
1453.44,0.212812,617697,378411
1456.64,0.214766,616264,375838
1459.85,0.217308,614413,372522
1463.04,0.219924,612307,369016
1466.24,0.222898,610032,365136
1469.43,0.226834,607345,360248
1473.67,0.231460,603789,354344
1476.85,0.236416,601175,348807
1480.02,0.241649,597737,342658
1483.19,0.248207,594479,335683
1486.36,0.253119,591232,330095
1489.52,0.257534,587853,324889
1492.68,0.260379,583875,320583
1496.89,0.261962,578062,316237
1500.03,0.262944,574159,313392
1503.18,0.262769,570285,311403
1506.32,0.261799,565444,309450
1509.45,0.260685,560571,307571
1512.58,0.258764,555821,306317
1515.71,0.257144,550344,304432
1519.87,0.253654,543983,303341
1522.99,0.251472,538764,301944
1526.1,0.248553,533692,301119
1529.21,0.245896,527902,299680
1532.32,0.243631,521886,297814
1535.42,0.240499,515888,296522
1538.51,0.237449,509987,295196
1541.6,0.235072,503936,293294
1545.72,0.231066,494694,290583
1548.8,0.228467,488378,288595
1551.88,0.226332,481832,286130
1554.95,0.223824,474989,283700
1558.02,0.221740,467818,280761
1561.08,0.221045,460730,276950
1564.15,0.219936,454170,273705
1568.22,0.218943,444181,268298
1571.27,0.218483,436947,264208
1574.32,0.216585,429598,260902
1577.36,0.216309,422039,256474
1580.4,0.214852,414375,252663
1583.43,0.213468,406354,248563
1586.46,0.210912,398475,245182
1590.49,0.209745,388982,239985
1593.51,0.207570,380708,236060
1596.53,0.205776,372727,232068
1599.54,0.203396,365060,228543
1602.55,0.201067,357543,225041
1605.55,0.199891,349495,220572
1608.55,0.198515,341154,215991
1612.54,0.196293,330877,210559
1615.53,0.194021,322904,206563
1618.51,0.192807,315116,202145
1621.49,0.191096,307217,197856
1624.47,0.190801,299481,193005
1627.44,0.189398,292112,188865
1630.41,0.189106,284245,183902
1634.36,0.188135,274079,177722
1637.32,0.187228,266916,173439
1640.27,0.186374,259612,169025
1643.22,0.185248,251804,164367
1646.16,0.184356,244348,159828
1649.1,0.183430,236703,155158
1652.04,0.181703,228171,150161
1655.95,0.180097,215408,142287
1658.88,0.175890,204937,136688
1661.8,0.168611,193395,131170
1664.72,0.162545,179728,123615
1667.63,0.150802,163642,115636
1670.54,0.138098,146312,106459
1673.44,0.121979,128451,96997
1677.31,0.102934,105080,82906
1680.21,0.090990,88906,72101
1683.1,0.087190,75033,61385
1685.99,0.088044,63520,51864
1688.87,0.095177,53714,43143
1691.75,0.092949,45653,36857
1694.62,0.100023,39137,31086
1697.49,0.101414,33776,26742
1701.31,0.120670,28175,21340