File: samples/wool/wool-000811/Column 1_050580_20150331_121420.csv
Method:,Column 1,,
Host Date-Time:,31/3/15 @ 12:14:20,,
Header Version:,1,,
System Temp (C):,33.73,,
Detector Temp (C):,34.54,,
Humidity (%):,1.95,,
Lamp PD:,3819,,
Shift Vector Coefficients:,-10.5391,0.0761263,-0.000134223,,
Pixel to Wavelength Coefficients:,1775.68,-0.916766,-0.000235065,,
Serial Number:,5510004,,
Scan Config Name:,Column 1,,
Scan Config Type:,Slew,,
Section 1,,
Start wavelength (nm):,900,,
End wavelength (nm):,1700,,
Pattern Pixel Width (nm):,   7.03,,,,
Exposure (ms):,  0.635,,,,
Digital Resolution:,228,,
Num Repeats:,6,,
PGA Gain:,64,,
Total Measurement Time in sec:,  2.671,,
Wavelength (nm),Absorbance (AU),Reference Signal (unitless),Sample Signal (unitless)
901.51,0.071790,108485,91956
905.376,0.078041,121306,101354
909.237,0.078329,131909,110140
913.095,0.080076,143299,119170
916.948,0.080902,156982,130301
922.079,0.083245,179937,148551
925.923,0.082628,200504,165766
929.762,0.084994,222660,183083
933.597,0.083592,244426,201630
937.427,0.082912,263972,218095
941.254,0.083143,281845,232738
945.076,0.081508,297271,246402
950.165,0.081083,315605,261855
953.978,0.080111,328029,272773
957.786,0.080440,340470,282904
961.59,0.080897,352317,292440
965.389,0.080879,363056,301366
969.185,0.081247,373162,309493
972.976,0.080744,382632,317715
976.763,0.081529,391202,324244
981.806,0.081508,400190,331710
985.583,0.083074,406088,335387
989.355,0.082975,410162,338829
993.124,0.083592,412868,340580
996.888,0.084092,414263,341338
1000.65,0.084965,415476,341650
1004.4,0.085914,415479,340906
1009.41,0.086974,414358,339158
1013.15,0.087413,412923,337642
1016.89,0.088666,411526,335530
1020.63,0.087818,409066,334176
1024.36,0.087650,406777,332435
1028.09,0.088072,404427,330193
1031.82,0.087436,401911,328620
1036.78,0.087484,398410,325721
1040.49,0.087015,396204,324268
1044.2,0.086937,394236,322715
1047.91,0.086864,392042,320973
1051.61,0.086486,389823,319434
1055.31,0.085767,388234,318659
1059,0.085442,387599,318376
1063.92,0.084845,386688,318065
1067.61,0.084431,386598,318294
1071.29,0.084290,387377,319039
1074.96,0.083912,388536,320272
1078.63,0.082709,389855,322251
1082.3,0.081821,391215,324037
1085.96,0.080323,393215,326819
1090.84,0.080919,396270,328906
1094.49,0.079597,398760,331982
1098.14,0.079237,400987,334113
1101.79,0.078761,403477,336556
1105.43,0.078703,406116,338803
1109.06,0.078155,407701,340555
1112.7,0.077056,409859,343225
1117.53,0.077512,412494,345069
1121.15,0.077652,414909,346977
1124.77,0.077258,416559,348673
1128.38,0.078977,418532,348941
1131.99,0.080227,419956,349122
1135.6,0.081499,421946,349750
1139.2,0.083450,423881,349779
1143.99,0.084635,426786,351217
1147.58,0.085540,428617,351989
1151.17,0.086719,431169,353125
1154.75,0.088237,433579,353860
1158.33,0.089327,436264,355159
1161.91,0.090740,439132,356332
1165.48,0.093146,442389,356992
1169.04,0.095047,446101,358415
1173.79,0.098758,451929,360008
1177.34,0.100341,456026,361950
1180.9,0.103034,461306,363877
1184.44,0.105277,467657,366987
1187.99,0.105360,473969,371869
1191.52,0.105499,479856,376367
1195.06,0.105417,487372,382335
1199.76,0.104708,497347,390797
1203.29,0.103807,504311,397092
1206.81,0.103636,511507,402917
1210.33,0.102750,519078,409716
1213.84,0.102342,527163,416488
1217.35,0.101382,534208,422988
1220.85,0.101217,540472,428111
1225.51,0.100253,549929,436570
1229.01,0.099806,556888,442549
1232.5,0.099162,562180,447418
1235.98,0.098843,567975,452362
1239.46,0.097591,574815,459131
1242.94,0.096942,582782,466191
1246.41,0.095967,591476,474209
1251.03,0.096023,604016,484201
1254.5,0.096391,612289,490417
1257.96,0.096566,619125,495692
1261.41,0.097144,624551,499372
1264.86,0.097818,629900,502868
1268.31,0.098090,634345,506099
1271.75,0.098809,638574,508630
1276.33,0.099151,642499,511354
1279.76,0.099204,645905,514002
1283.19,0.098488,648307,516765
1286.61,0.098459,650446,518504
1290.03,0.098061,652132,520325
1293.44,0.096971,653907,523052
1296.85,0.097245,655963,524366
1301.39,0.096542,657349,526325
1304.8,0.096552,657558,526480
1308.19,0.097360,658515,526266
1311.58,0.097162,658804,526737
1314.97,0.098124,659011,525737
1318.36,0.098215,658272,525038
1321.73,0.098455,658022,524548
1326.23,0.100038,657870,522519
1329.6,0.100485,656482,520880
1332.97,0.101992,654926,517846
1336.33,0.102718,653727,516034
1339.69,0.104699,652497,512719
1343.04,0.105813,649913,509380
1346.39,0.108245,647671,504789
1349.73,0.109953,645338,500996
1354.18,0.113055,641175,494222
1357.52,0.115104,638376,489748
1360.85,0.117505,635805,485086
1364.17,0.119360,633413,481201
1367.49,0.121216,631026,477344
1370.81,0.123585,628050,472508
1374.12,0.125881,625034,467760
1378.54,0.129062,620272,460808
1381.84,0.132621,616892,454557
1385.14,0.136912,613613,447695
1388.43,0.140758,611526,442239
1391.72,0.145601,610663,436718
1395.01,0.150619,610634,431680
1398.29,0.155921,611700,427186
1402.66,0.163338,614051,421567
1405.93,0.169134,616268,417480
1409.2,0.174463,617795,413410
1412.46,0.179641,618872,409223
1415.72,0.184226,619795,405529
1418.98,0.187845,620495,402618
1422.23,0.192526,621087,398682
1426.56,0.196606,621375,395137
1429.8,0.199370,621616,392783
1433.04,0.202265,622129,390495
1436.27,0.204406,621526,388198
1439.5,0.206406,621113,386158
1442.72,0.208584,620921,384107
1445.94,0.210803,620270,381749
1450.23,0.213990,618860,378096
1453.44,0.216407,617697,375291
1456.64,0.219391,616264,371857
1459.85,0.222010,614413,368511
1463.04,0.224371,612307,365257
1466.24,0.227487,610032,361298
1469.43,0.230612,607345,357128
1473.67,0.235654,603789,350939
1476.85,0.240207,601175,345775
1480.02,0.244563,597737,340367
1483.19,0.251481,594479,333162
1486.36,0.256225,591232,327743
1489.52,0.260576,587853,322621
1492.68,0.262503,583875,319019
1496.89,0.264759,578062,314207
1500.03,0.266001,574159,311194
1503.18,0.265555,570285,309412
1506.32,0.264319,565444,307660
1509.45,0.262745,560571,306116
1512.58,0.261483,555821,304405
1515.71,0.259757,550344,302606
1519.87,0.256036,543983,301682
1522.99,0.253835,538764,300306
1526.1,0.251354,533692,299183
1529.21,0.248845,527902,297652
1532.32,0.246448,521886,295888
1535.42,0.243447,515888,294516
1538.51,0.240333,509987,293242
1541.6,0.236878,503936,292077
1545.72,0.233256,494694,289122
1548.8,0.230575,488378,287198
1551.88,0.228191,481832,284908
1554.95,0.226904,474989,281695
1558.02,0.224586,467818,278927
1561.08,0.223221,460730,275566
1564.15,0.222255,454170,272247
1568.22,0.221124,444181,266954
1571.27,0.221496,436947,262381
1574.32,0.219288,429598,259283
1577.36,0.218286,422039,255309
1580.4,0.217863,414375,250917
1583.43,0.215712,406354,247282
1586.46,0.214264,398475,243297
1590.49,0.211964,388982,238762
1593.51,0.210042,380708,234720
1596.53,0.207959,372727,230904
1599.54,0.206206,365060,227069
1602.55,0.204024,357543,223514
1605.55,0.202426,349495,219288
1608.55,0.200326,341154,215092
1612.54,0.199693,330877,208917
1615.53,0.196355,322904,205456
1618.51,0.195086,315116,201087
1621.49,0.193915,307217,196576
1624.47,0.193005,299481,192028
1627.44,0.192303,292112,187606
1630.41,0.191273,284245,182987
1634.36,0.190096,274079,176921
1637.32,0.189994,266916,172338
1640.27,0.187423,259612,168617
1643.22,0.186903,251804,163742
1646.16,0.186470,244348,159052
1649.1,0.185542,236703,154405
1652.04,0.183608,228171,149504
1655.95,0.182061,215408,141645
1658.88,0.177379,204937,136220
1661.8,0.172632,193395,129961
1664.72,0.165432,179728,122796
1667.63,0.152721,163642,115126
1670.54,0.138395,146312,106386
1673.44,0.124327,128451,96474
1677.31,0.105314,105080,82453
1680.21,0.094722,88906,71484
1683.1,0.091506,75033,60778
1685.99,0.093183,63520,51254
1688.87,0.092298,53714,43430
1691.75,0.097391,45653,36482
1694.62,0.102376,39137,30918
1697.49,0.100279,33776,26812
1701.31,0.111627,28175,21789