File: samples/wool/wool-000811/Column 1_050612_20150331_122906.csv
Method:,Column 1,,
Host Date-Time:,31/3/15 @ 12:29:6,,
Header Version:,1,,
System Temp (C):,34.08,,
Detector Temp (C):,34.9,,
Humidity (%):,1.66,,
Lamp PD:,3818,,
Shift Vector Coefficients:,-10.5391,0.0761263,-0.000134223,,
Pixel to Wavelength Coefficients:,1775.68,-0.916766,-0.000235065,,
Serial Number:,5510004,,
Scan Config Name:,Column 1,,
Scan Config Type:,Slew,,
Section 1,,
Start wavelength (nm):,900,,
End wavelength (nm):,1700,,
Pattern Pixel Width (nm):,   7.03,,,,
Exposure (ms):,  0.635,,,,
Digital Resolution:,228,,
Num Repeats:,6,,
PGA Gain:,64,,
Total Measurement Time in sec:,  2.665,,
Wavelength (nm),Absorbance (AU),Reference Signal (unitless),Sample Signal (unitless)
901.51,0.069167,108485,92513
905.376,0.074100,121306,102278
909.237,0.077951,131909,110236
913.095,0.076834,143299,120063
916.948,0.079299,156982,130783
922.079,0.079603,179937,149802
925.923,0.082093,200504,165970
929.762,0.082218,222660,184257
933.597,0.082040,244426,202352
937.427,0.079963,263972,219581
941.254,0.080173,281845,234335
945.076,0.078939,297271,247864
950.165,0.078095,315605,263663
953.978,0.077726,328029,274275
957.786,0.077016,340470,285143
961.59,0.078016,352317,294386
965.389,0.077642,363056,303621
969.185,0.077581,373162,312116
972.976,0.077798,382632,319877
976.763,0.078898,391202,326214
981.806,0.078845,400190,333750
985.583,0.079438,406088,338207
989.355,0.080316,410162,340910
993.124,0.080035,412868,343381
996.888,0.080853,414263,343893
1000.65,0.081339,415476,344514
1004.4,0.082524,415479,343578
1009.41,0.084259,414358,341285
1013.15,0.084342,412923,340038
1016.89,0.085035,411526,338347
1020.63,0.084580,409066,336677
1024.36,0.084363,406777,334960
1028.09,0.084405,404427,332993
1031.82,0.084005,401911,331226
1036.78,0.083997,398410,328347
1040.49,0.083796,396204,326680
1044.2,0.083372,394236,325375
1047.91,0.083336,392042,323591
1051.61,0.082974,389823,322028
1055.31,0.083293,388234,320480
1059,0.082350,387599,320651
1063.92,0.082186,386688,320018
1067.61,0.080794,386598,320971
1071.29,0.079875,387377,322299
1074.96,0.080109,388536,323089
1078.63,0.079425,389855,324697
1082.3,0.078374,391215,326619
1085.96,0.077529,393215,328928
1090.84,0.076449,396270,332309
1094.49,0.076929,398760,334028
1098.14,0.075631,400987,336899
1101.79,0.074898,403477,339563
1105.43,0.075060,406116,341657
1109.06,0.073507,407701,344219
1112.7,0.073821,409859,345791
1117.53,0.073210,412494,348504
1121.15,0.073676,414909,350168
1124.77,0.073886,416559,351391
1128.38,0.074671,418532,352418
1131.99,0.075986,419956,352548
1135.6,0.077267,421946,353175
1139.2,0.078481,423881,353804
1143.99,0.080639,426786,354463
1147.58,0.081852,428617,354991
1151.17,0.083032,431169,356136
1154.75,0.083643,433579,357623
1158.33,0.084320,436264,359277
1161.91,0.086512,439132,359818
1165.48,0.088241,442389,361047
1169.04,0.090681,446101,362036
1173.79,0.094112,451929,363880
1177.34,0.096768,456026,364940
1180.9,0.098348,461306,367825
1184.44,0.100370,467657,371157
1187.99,0.100969,473969,375648
1191.52,0.101038,479856,380253
1195.06,0.100713,487372,386498
1199.76,0.100399,497347,394694
1203.29,0.099752,504311,400817
1206.81,0.099394,511507,406872
1210.33,0.098588,519078,413661
1213.84,0.098382,527163,420303
1217.35,0.097397,534208,426887
1220.85,0.097112,540472,432177
1225.51,0.096091,549929,440774
1229.01,0.095565,556888,446892
1232.5,0.094643,562180,452098
1235.98,0.094043,567975,457390
1239.46,0.093474,574815,463505
1242.94,0.092281,582782,471221
1246.41,0.091570,591476,479035
1251.03,0.091811,604016,488920
1254.5,0.092113,612289,495272
1257.96,0.092215,619125,500683
1261.41,0.093128,624551,504011
1264.86,0.093077,629900,508387
1268.31,0.093409,634345,511583
1271.75,0.094274,638574,513969
1276.33,0.094238,642499,517171
1279.76,0.094867,645905,519160
1283.19,0.093725,648307,522463
1286.61,0.093429,650446,524544
1290.03,0.093084,652132,526322
1293.44,0.092584,653907,528362
1296.85,0.092658,655963,529934
1301.39,0.091970,657349,531895
1304.8,0.092344,657558,531606
1308.19,0.092116,658515,532660
1311.58,0.092203,658804,532787
1314.97,0.092827,659011,532189
1318.36,0.093095,658272,531264
1321.73,0.093664,658022,530367
1326.23,0.094347,657870,529411
1329.6,0.094934,656482,527580
1332.97,0.095819,654926,525259
1336.33,0.096611,653727,523342
1339.69,0.098153,652497,520506
1343.04,0.100265,649913,515929
1346.39,0.101530,647671,512654
1349.73,0.103735,645338,508220
1354.18,0.106414,641175,501837
1357.52,0.108180,638376,497619
1360.85,0.110547,635805,492921
1364.17,0.112262,633413,489131
1367.49,0.114713,631026,484545
1370.81,0.116859,628050,479883
1374.12,0.119045,625034,475181
1378.54,0.121705,620272,468681
1381.84,0.124453,616892,463187
1385.14,0.127859,613613,457126
1388.43,0.131168,611526,452113
1391.72,0.135176,610663,447328
1395.01,0.139315,610634,443064
1398.29,0.143512,611700,439568
1402.66,0.149905,614051,434810
1405.93,0.154988,616268,431302
1409.2,0.159239,617795,428159
1412.46,0.163688,618872,424534
1415.72,0.167728,619795,421231
1418.98,0.170986,620495,418555
1422.23,0.173897,621087,416155
1426.56,0.177970,621375,412462
1429.8,0.180402,621616,410318
1433.04,0.183241,622129,407981
1436.27,0.185146,621526,405801
1439.5,0.187124,621113,403689
1442.72,0.189940,620921,400956
1445.94,0.192195,620270,398461
1450.23,0.195617,618860,394435
1453.44,0.198447,617697,391137
1456.64,0.201038,616264,387908
1459.85,0.203895,614413,384207
1463.04,0.207030,612307,380136
1466.24,0.210314,610032,375871
1469.43,0.214132,607345,370940
1473.67,0.220665,603789,363262
1476.85,0.226302,601175,357025
1480.02,0.232442,597737,350000
1483.19,0.238594,594479,343196
1486.36,0.244692,591232,336563
1489.52,0.249420,587853,331016
1492.68,0.252119,583875,326739
1496.89,0.255198,578062,321201
1500.03,0.255218,574159,319017
1503.18,0.255473,570285,316679
1506.32,0.254483,565444,314707
1509.45,0.252823,560571,313190
1512.58,0.251671,555821,311361
1515.71,0.249629,550344,309746
1519.87,0.246364,543983,308476
1522.99,0.244327,538764,306953
1526.1,0.241508,533692,306043
1529.21,0.238244,527902,305007
1532.32,0.235783,521886,303244
1535.42,0.232676,515888,301911
1538.51,0.230381,509987,300039
1541.6,0.226835,503936,298910
1545.72,0.223416,494694,295747
1548.8,0.219728,488378,294461
1551.88,0.217583,481832,291953
1554.95,0.215640,474989,289097
1558.02,0.214415,467818,285537
1561.08,0.212937,460730,282169
1564.15,0.212559,454170,278394
1568.22,0.211154,444181,273153
1571.27,0.210781,436947,268935
1574.32,0.210863,429598,264362
1577.36,0.209142,422039,260742
1580.4,0.207655,414375,256885
1583.43,0.206203,406354,252756
1586.46,0.204989,398475,248549
1590.49,0.202878,388982,243810
1593.51,0.201238,380708,239527
1596.53,0.199334,372727,235536
1599.54,0.197075,365060,231894
1602.55,0.195395,357543,227999
1605.55,0.193505,349495,223839
1608.55,0.191389,341154,219564
1612.54,0.189050,330877,214100
1615.53,0.187295,322904,209787
1618.51,0.187733,315116,204521
1621.49,0.186370,307217,200021
1624.47,0.184907,299481,195642
1627.44,0.183306,292112,191533
1630.41,0.182765,284245,186607
1634.36,0.180970,274079,180678
1637.32,0.179960,266916,176366
1640.27,0.179964,259612,171538
1643.22,0.178271,251804,167029
1646.16,0.178475,244348,162007
1649.1,0.177848,236703,157165
1652.04,0.177123,228171,151753
1655.95,0.173003,215408,144630
1658.88,0.169857,204937,138600
1661.8,0.163856,193395,132614
1664.72,0.157102,179728,125174
1667.63,0.144726,163642,117265
1670.54,0.129758,146312,108523
1673.44,0.114420,128451,98700
1677.31,0.094329,105080,84565
1680.21,0.081316,88906,73725
1683.1,0.075739,75033,63025
1685.99,0.073025,63520,53689
1688.87,0.081747,53714,44498
1691.75,0.081208,45653,37867
1694.62,0.089165,39137,31873
1697.49,0.092016,33776,27327
1701.31,0.107639,28175,21990