File: samples/wool/wool-000811/Column 1_050601_20150331_122404.csv
Method:,Column 1,,
Host Date-Time:,31/3/15 @ 12:24:4,,
Header Version:,1,,
System Temp (C):,33.97,,
Detector Temp (C):,34.79,,
Humidity (%):,1.76,,
Lamp PD:,3818,,
Shift Vector Coefficients:,-10.5391,0.0761263,-0.000134223,,
Pixel to Wavelength Coefficients:,1775.68,-0.916766,-0.000235065,,
Serial Number:,5510004,,
Scan Config Name:,Column 1,,
Scan Config Type:,Slew,,
Section 1,,
Start wavelength (nm):,900,,
End wavelength (nm):,1700,,
Pattern Pixel Width (nm):,   7.03,,,,
Exposure (ms):,  0.635,,,,
Digital Resolution:,228,,
Num Repeats:,6,,
PGA Gain:,64,,
Total Measurement Time in sec:,  2.680,,
Wavelength (nm),Absorbance (AU),Reference Signal (unitless),Sample Signal (unitless)
901.51,0.068346,108485,92688
905.376,0.074818,121306,102109
909.237,0.078381,131909,110127
913.095,0.076509,143299,120153
916.948,0.078884,156982,130908
922.079,0.080907,179937,149353
925.923,0.081429,200504,166224
929.762,0.081276,222660,184657
933.597,0.082130,244426,202310
937.427,0.081489,263972,218811
941.254,0.080279,281845,234278
945.076,0.079191,297271,247720
950.165,0.078395,315605,263481
953.978,0.077940,328029,274140
957.786,0.078097,340470,284434
961.59,0.077894,352317,294469
965.389,0.077862,363056,303467
969.185,0.077853,373162,311921
972.976,0.078757,382632,319172
976.763,0.078777,391202,326305
981.806,0.079681,400190,333108
985.583,0.080265,406088,337563
989.355,0.080196,410162,341004
993.124,0.081161,412868,342492
996.888,0.081439,414263,343429
1000.65,0.081726,415476,344207
1004.4,0.083287,415479,342975
1009.41,0.083815,414358,341634
1013.15,0.084837,412923,339650
1016.89,0.085720,411526,337814
1020.63,0.084926,409066,336409
1024.36,0.085441,406777,334130
1028.09,0.084489,404427,332929
1031.82,0.084824,401911,330602
1036.78,0.085019,398410,327575
1040.49,0.084358,396204,326258
1044.2,0.084491,394236,324538
1047.91,0.084084,392042,323034
1051.61,0.083915,389823,321331
1055.31,0.083697,388234,320182
1059,0.083188,387599,320033
1063.92,0.081968,386688,320179
1067.61,0.081245,386598,320638
1071.29,0.081266,387377,321268
1074.96,0.080106,388536,323091
1078.63,0.079870,389855,324364
1082.3,0.079098,391215,326075
1085.96,0.078035,393215,328545
1090.84,0.077514,396270,331495
1094.49,0.076644,398760,334247
1098.14,0.076848,400987,335956
1101.79,0.075705,403477,338933
1105.43,0.075884,406116,341009
1109.06,0.074547,407701,343396
1112.7,0.074173,409859,345511
1117.53,0.074485,412494,347482
1121.15,0.074687,414909,349354
1124.77,0.074675,416559,350753
1128.38,0.075550,418532,351705
1131.99,0.076738,419956,351938
1135.6,0.078276,421946,352355
1139.2,0.079403,423881,353054
1143.99,0.081614,426786,353668
1147.58,0.081958,428617,354904
1151.17,0.083176,431169,356018
1154.75,0.084164,433579,357194
1158.33,0.085160,436264,358583
1161.91,0.087047,439132,359375
1165.48,0.089667,442389,359863
1169.04,0.091532,446101,361328
1173.79,0.095302,451929,362884
1177.34,0.096635,456026,365052
1180.9,0.099105,461306,367184
1184.44,0.100790,467657,370798
1187.99,0.102158,473969,374621
1191.52,0.102581,479856,378905
1195.06,0.101944,487372,385404
1199.76,0.101175,497347,393989
1203.29,0.100873,504311,399784
1206.81,0.099637,511507,406644
1210.33,0.099547,519078,412749
1213.84,0.099215,527163,419498
1217.35,0.098279,534208,426021
1220.85,0.097201,540472,432088
1225.51,0.096619,549929,440238
1229.01,0.096270,556888,446167
1232.5,0.095518,562180,451188
1235.98,0.095234,567975,456137
1239.46,0.094077,574815,462862
1242.94,0.093006,582782,470436
1246.41,0.092717,591476,477771
1251.03,0.092012,604016,488693
1254.5,0.092882,612289,494396
1257.96,0.093039,619125,499734
1261.41,0.093564,624551,503505
1264.86,0.094109,629900,507181
1268.31,0.094543,634345,510249
1271.75,0.095088,638574,513007
1276.33,0.095573,642499,515584
1279.76,0.095420,645905,518500
1283.19,0.094822,648307,521145
1286.61,0.094890,650446,522783
1290.03,0.093948,652132,525276
1293.44,0.093639,653907,527080
1296.85,0.094126,655963,528145
1301.39,0.093230,657349,530354
1304.8,0.093065,657558,530725
1308.19,0.093480,658515,530989
1311.58,0.093559,658804,531125
1314.97,0.093953,659011,530811
1318.36,0.094332,658272,529753
1321.73,0.094659,658022,529153
1326.23,0.095543,657870,527955
1329.6,0.096546,656482,525626
1332.97,0.097220,654926,523567
1336.33,0.098145,653727,521497
1339.69,0.099569,652497,518811
1343.04,0.101132,649913,514900
1346.39,0.102900,647671,511040
1349.73,0.105049,645338,506685
1354.18,0.107861,641175,500168
1357.52,0.109856,638376,495702
1360.85,0.112016,635805,491256
1364.17,0.113660,633413,487559
1367.49,0.116237,631026,482848
1370.81,0.118162,628050,478445
1374.12,0.120435,625034,473662
1378.54,0.122867,620272,467428
1381.84,0.125950,616892,461593
1385.14,0.129335,613613,455575
1388.43,0.133052,611526,450156
1391.72,0.137509,610663,444931
1395.01,0.141272,610634,441071
1398.29,0.146065,611700,436992
1402.66,0.152280,614051,432439
1405.93,0.157071,616268,429238
1409.2,0.162413,617795,425042
1412.46,0.167078,618872,421233
1415.72,0.171004,619795,418065
1418.98,0.174771,620495,414923
1422.23,0.177791,621087,412441
1426.56,0.181375,621375,409241
1429.8,0.183988,621616,406944
1433.04,0.186909,622129,404549
1436.27,0.189108,621526,402116
1439.5,0.190628,621113,400445
1442.72,0.193085,620921,398063
1445.94,0.195854,620270,395118
1450.23,0.199293,618860,391110
1453.44,0.201520,617697,388379
1456.64,0.204645,616264,384700
1459.85,0.207265,614413,381237
1463.04,0.210224,612307,377351
1466.24,0.213799,610032,372867
1469.43,0.217079,607345,368431
1473.67,0.222690,603789,361572
1476.85,0.228748,601175,355020
1480.02,0.234618,597737,348251
1483.19,0.241362,594479,341016
1486.36,0.246806,591232,334928
1489.52,0.251247,587853,329626
1492.68,0.254852,583875,324689
1496.89,0.256527,578062,320219
1500.03,0.257469,574159,317368
1503.18,0.257353,570285,315311
1506.32,0.255912,565444,313673
1509.45,0.254489,560571,311991
1512.58,0.253136,555821,310312
1515.71,0.250559,550344,309083
1519.87,0.248269,543983,307126
1522.99,0.244999,538764,306478
1526.1,0.242585,533692,305285
1529.21,0.240160,527902,303664
1532.32,0.237219,521886,302243
1535.42,0.234029,515888,300972
1538.51,0.231100,509987,299543
1541.6,0.228407,503936,297830
1545.72,0.225185,494694,294545
1548.8,0.221737,488378,293102
1551.88,0.219288,481832,290809
1554.95,0.218091,474989,287470
1558.02,0.216045,467818,284467
1561.08,0.214549,460730,281124
1564.15,0.213807,454170,277595
1568.22,0.213531,444181,271662
1571.27,0.212513,436947,267865
1574.32,0.211368,429598,264055
1577.36,0.210558,422039,259893
1580.4,0.209272,414375,255930
1583.43,0.207545,406354,251976
1586.46,0.205244,398475,248403
1590.49,0.204118,388982,243115
1593.51,0.202661,380708,238743
1596.53,0.200166,372727,235085
1599.54,0.198737,365060,231008
1602.55,0.197193,357543,227057
1605.55,0.194548,349495,223302
1608.55,0.192590,341154,218958
1612.54,0.190900,330877,213190
1615.53,0.188823,322904,209050
1618.51,0.188100,315116,204348
1621.49,0.186750,307217,199846
1624.47,0.186517,299481,194918
1627.44,0.184625,292112,190952
1630.41,0.183977,284245,186087
1634.36,0.182830,274079,179906
1637.32,0.180941,266916,175968
1640.27,0.181189,259612,171055
1643.22,0.180439,251804,166197
1646.16,0.180463,244348,161267
1649.1,0.178036,236703,157097
1652.04,0.175963,228171,152159
1655.95,0.174700,215408,144066
1658.88,0.169729,204937,138641
1661.8,0.164948,193395,132281
1664.72,0.156828,179728,125253
1667.63,0.145312,163642,117107
1670.54,0.130784,146312,108267
1673.44,0.115151,128451,98534
1677.31,0.093857,105080,84657
1680.21,0.082922,88906,73453
1683.1,0.076609,75033,62899
1685.99,0.075467,63520,53388
1688.87,0.079644,53714,44714
1691.75,0.085844,45653,37465
1694.62,0.090488,39137,31776
1697.49,0.095254,33776,27124
1701.31,0.101306,28175,22313