File: samples/wool/wool-000811/Column 1_050604_20150331_122529.csv
Method:,Column 1,,
Host Date-Time:,31/3/15 @ 12:25:29,,
Header Version:,1,,
System Temp (C):,34,,
Detector Temp (C):,34.8,,
Humidity (%):,1.71,,
Lamp PD:,3818,,
Shift Vector Coefficients:,-10.5391,0.0761263,-0.000134223,,
Pixel to Wavelength Coefficients:,1775.68,-0.916766,-0.000235065,,
Serial Number:,5510004,,
Scan Config Name:,Column 1,,
Scan Config Type:,Slew,,
Section 1,,
Start wavelength (nm):,900,,
End wavelength (nm):,1700,,
Pattern Pixel Width (nm):,   7.03,,,,
Exposure (ms):,  0.635,,,,
Digital Resolution:,228,,
Num Repeats:,6,,
PGA Gain:,64,,
Total Measurement Time in sec:,  2.722,,
Wavelength (nm),Absorbance (AU),Reference Signal (unitless),Sample Signal (unitless)
901.51,0.069980,108485,92340
905.376,0.074049,121306,102290
909.237,0.077360,131909,110386
913.095,0.077319,143299,119929
916.948,0.078857,156982,130916
922.079,0.080534,179937,149481
925.923,0.081576,200504,166168
929.762,0.083812,222660,183582
933.597,0.081697,244426,202512
937.427,0.080854,263972,219131
941.254,0.080396,281845,234215
945.076,0.078829,297271,247927
950.165,0.078110,315605,263654
953.978,0.077180,328029,274620
957.786,0.077304,340470,284954
961.59,0.077271,352317,294892
965.389,0.077622,363056,303635
969.185,0.077900,373162,311887
972.976,0.078094,382632,319659
976.763,0.079098,391202,326064
981.806,0.079318,400190,333387
985.583,0.079792,406088,337931
989.355,0.079736,410162,341365
993.124,0.080560,412868,342966
996.888,0.080821,414263,343918
1000.65,0.081796,415476,344152
1004.4,0.082242,415479,343801
1009.41,0.083933,414358,341541
1013.15,0.085097,412923,339447
1016.89,0.085244,411526,338184
1020.63,0.085247,409066,336160
1024.36,0.085072,406777,334414
1028.09,0.084393,404427,333002
1031.82,0.084614,401911,330762
1036.78,0.084676,398410,327834
1040.49,0.084165,396204,326403
1044.2,0.084111,394236,324822
1047.91,0.083965,392042,323123
1051.61,0.083128,389823,321914
1055.31,0.083111,388234,320614
1059,0.082236,387599,320735
1063.92,0.081636,386688,320424
1067.61,0.081681,386598,320316
1071.29,0.080825,387377,321595
1074.96,0.080439,388536,322844
1078.63,0.079286,389855,324801
1082.3,0.078773,391215,326319
1085.96,0.078031,393215,328548
1090.84,0.076662,396270,332146
1094.49,0.076853,398760,334086
1098.14,0.076088,400987,336544
1101.79,0.074910,403477,339554
1105.43,0.074940,406116,341751
1109.06,0.074650,407701,343314
1112.7,0.073772,409859,345830
1117.53,0.073921,412494,347934
1121.15,0.074106,414909,349822
1124.77,0.074510,416559,350886
1128.38,0.075229,418532,351965
1131.99,0.076071,419956,352479
1135.6,0.078108,421946,352492
1139.2,0.078954,423881,353419
1143.99,0.081443,426786,353808
1147.58,0.082288,428617,354635
1151.17,0.082748,431169,356369
1154.75,0.083563,433579,357689
1158.33,0.085057,436264,358668
1161.91,0.086885,439132,359509
1165.48,0.088775,442389,360603
1169.04,0.090789,446101,361946
1173.79,0.094420,451929,363622
1177.34,0.096616,456026,365068
1180.9,0.098677,461306,367546
1184.44,0.100477,467657,371065
1187.99,0.101504,473969,375185
1191.52,0.101399,479856,379937
1195.06,0.101094,487372,386159
1199.76,0.101192,497347,393974
1203.29,0.099603,504311,400955
1206.81,0.099588,511507,406690
1210.33,0.099098,519078,413176
1213.84,0.098266,527163,420416
1217.35,0.097481,534208,426805
1220.85,0.097188,540472,432101
1225.51,0.096354,549929,440507
1229.01,0.096093,556888,446349
1232.5,0.094949,562180,451779
1235.98,0.094714,567975,456683
1239.46,0.093481,574815,463497
1242.94,0.092562,582782,470917
1246.41,0.092150,591476,478396
1251.03,0.092105,604016,488589
1254.5,0.092326,612289,495029
1257.96,0.092590,619125,500252
1261.41,0.093227,624551,503896
1264.86,0.093222,629900,508218
1268.31,0.094098,634345,510773
1271.75,0.095066,638574,513033
1276.33,0.095218,642499,516006
1279.76,0.095028,645905,518968
1283.19,0.094257,648307,521824
1286.61,0.094002,650446,523853
1290.03,0.093566,652132,525738
1293.44,0.093210,653907,527601
1296.85,0.092766,655963,529802
1301.39,0.092757,657349,530932
1304.8,0.092476,657558,531445
1308.19,0.092643,658515,532013
1311.58,0.093008,658804,531800
1314.97,0.093523,659011,531337
1318.36,0.093812,658272,530388
1321.73,0.093711,658022,530310
1326.23,0.095000,657870,528616
1329.6,0.095653,656482,526708
1332.97,0.096315,654926,524659
1336.33,0.097792,653727,521920
1339.69,0.098832,652497,519692
1343.04,0.100511,649913,515637
1346.39,0.102057,647671,512032
1349.73,0.104660,645338,507139
1354.18,0.107290,641175,500826
1357.52,0.109021,638376,496656
1360.85,0.111459,635805,491886
1364.17,0.113030,633413,488266
1367.49,0.115400,631026,483779
1370.81,0.117499,628050,479176
1374.12,0.119324,625034,474875
1378.54,0.122652,620272,467660
1381.84,0.125703,616892,461856
1385.14,0.128303,613613,456659
1388.43,0.132220,611526,451019
1391.72,0.136524,610663,445941
1395.01,0.140518,610634,441838
1398.29,0.144998,611700,438067
1402.66,0.151415,614051,433301
1405.93,0.156488,616268,429815
1409.2,0.161648,617795,425791
1412.46,0.165455,618872,422811
1415.72,0.169490,619795,419525
1418.98,0.172682,620495,416923
1422.23,0.176417,621087,413748
1426.56,0.180337,621375,410220
1429.8,0.183045,621616,407828
1433.04,0.185519,622129,405846
1436.27,0.187522,621526,403587
1439.5,0.189706,621113,401296
1442.72,0.191947,620921,399107
1445.94,0.194498,620270,396354
1450.23,0.198200,618860,392096
1453.44,0.200538,617697,389258
1456.64,0.203169,616264,386009
1459.85,0.206230,614413,382147
1463.04,0.208472,612307,378876
1466.24,0.212244,610032,374204
1469.43,0.216354,607345,369047
1473.67,0.222462,603789,361762
1476.85,0.227557,601175,355995
1480.02,0.233594,597737,349073
1483.19,0.240542,594479,341660
1486.36,0.245663,591232,335811
1489.52,0.250958,587853,329846
1492.68,0.253908,583875,325396
1496.89,0.255817,578062,320743
1500.03,0.256404,574159,318147
1503.18,0.256316,570285,316065
1506.32,0.255431,565444,314021
1509.45,0.253524,560571,312685
1512.58,0.252585,555821,310706
1515.71,0.250582,550344,309067
1519.87,0.247122,543983,307938
1522.99,0.244498,538764,306832
1526.1,0.242279,533692,305500
1529.21,0.239895,527902,303849
1532.32,0.236086,521886,303033
1535.42,0.233641,515888,301241
1538.51,0.230709,509987,299813
1541.6,0.228178,503936,297987
1545.72,0.224328,494694,295127
1548.8,0.221435,488378,293306
1551.88,0.219516,481832,290656
1554.95,0.216836,474989,288302
1558.02,0.215160,467818,285047
1561.08,0.214311,460730,281278
1564.15,0.214110,454170,277401
1568.22,0.212461,444181,272332
1571.27,0.212168,436947,268078
1574.32,0.211908,429598,263727
1577.36,0.209503,422039,260525
1580.4,0.208959,414375,256115
1583.43,0.207170,406354,252194
1586.46,0.205713,398475,248135
1590.49,0.204150,388982,243097
1593.51,0.201889,380708,239168
1596.53,0.199546,372727,235421
1599.54,0.197986,365060,231408
1602.55,0.196393,357543,227476
1605.55,0.193800,349495,223687
1608.55,0.192717,341154,218894
1612.54,0.190460,330877,213406
1615.53,0.189603,322904,208675
1618.51,0.187314,315116,204718
1621.49,0.186728,307217,199856
1624.47,0.185523,299481,195365
1627.44,0.184548,292112,190986
1630.41,0.182797,284245,186593
1634.36,0.182398,274079,180085
1637.32,0.181818,266916,175613
1640.27,0.180053,259612,171503
1643.22,0.179792,251804,166445
1646.16,0.179863,244348,161490
1649.1,0.178014,236703,157105
1652.04,0.177381,228171,151663
1655.95,0.173217,215408,144559
1658.88,0.171235,204937,138161
1661.8,0.164711,193395,132353
1664.72,0.157803,179728,124972
1667.63,0.144712,163642,117269
1670.54,0.130760,146312,108273
1673.44,0.113884,128451,98822
1677.31,0.096358,105080,84171
1680.21,0.084141,88906,73247
1683.1,0.074192,75033,63250
1685.99,0.077146,63520,53182
1688.87,0.080363,53714,44640
1691.75,0.087388,45653,37332
1694.62,0.084961,39137,32183
1697.49,0.090984,33776,27392
1701.31,0.104275,28175,22161