File: samples/wool/wool-000811/Column 1_050619_20150331_123240.csv
Method:,Column 1,,
Host Date-Time:,31/3/15 @ 12:32:40,,
Header Version:,1,,
System Temp (C):,34.12,,
Detector Temp (C):,35.06,,
Humidity (%):,1.66,,
Lamp PD:,3818,,
Shift Vector Coefficients:,-10.5391,0.0761263,-0.000134223,,
Pixel to Wavelength Coefficients:,1775.68,-0.916766,-0.000235065,,
Serial Number:,5510004,,
Scan Config Name:,Column 1,,
Scan Config Type:,Slew,,
Section 1,,
Start wavelength (nm):,900,,
End wavelength (nm):,1700,,
Pattern Pixel Width (nm):,   7.03,,,,
Exposure (ms):,  0.635,,,,
Digital Resolution:,228,,
Num Repeats:,6,,
PGA Gain:,64,,
Total Measurement Time in sec:,  2.683,,
Wavelength (nm),Absorbance (AU),Reference Signal (unitless),Sample Signal (unitless)
901.51,0.070813,108485,92163
905.376,0.075193,121306,102021
909.237,0.076704,131909,110553
913.095,0.078839,143299,119510
916.948,0.079179,156982,130819
922.079,0.082287,179937,148879
925.923,0.081683,200504,166127
929.762,0.082631,222660,184082
933.597,0.082704,244426,202043
937.427,0.080450,263972,219335
941.254,0.080264,281845,234286
945.076,0.078971,297271,247846
950.165,0.077744,315605,263876
953.978,0.077248,328029,274577
957.786,0.077524,340470,284810
961.59,0.077859,352317,294493
965.389,0.077410,363056,303783
969.185,0.077629,373162,312082
972.976,0.078059,382632,319685
976.763,0.078909,391202,326206
981.806,0.078417,400190,334079
985.583,0.079380,406088,338252
989.355,0.079800,410162,341315
993.124,0.079780,412868,343583
996.888,0.080575,414263,344113
1000.65,0.081459,415476,344419
1004.4,0.082753,415479,343397
1009.41,0.083905,414358,341563
1013.15,0.083848,412923,340425
1016.89,0.085289,411526,338149
1020.63,0.084875,409066,336448
1024.36,0.085125,406777,334373
1028.09,0.084087,404427,333237
1031.82,0.084280,401911,331017
1036.78,0.083778,398410,328513
1040.49,0.083560,396204,326858
1044.2,0.083769,394236,325078
1047.91,0.083464,392042,323496
1051.61,0.083149,389823,321898
1055.31,0.082678,388234,320934
1059,0.082659,387599,320423
1063.92,0.081538,386688,320496
1067.61,0.080554,386598,321148
1071.29,0.080089,387377,322140
1074.96,0.079717,388536,323381
1078.63,0.078584,389855,325326
1082.3,0.078324,391215,326657
1085.96,0.077297,393215,329104
1090.84,0.076237,396270,332471
1094.49,0.075786,398760,334908
1098.14,0.075401,400987,337077
1101.79,0.075467,403477,339119
1105.43,0.074662,406116,341970
1109.06,0.073607,407701,344140
1112.7,0.073383,409859,346140
1117.53,0.073265,412494,348460
1121.15,0.074075,414909,349847
1124.77,0.074476,416559,350914
1128.38,0.075082,418532,352084
1131.99,0.075846,419956,352661
1135.6,0.077590,421946,352912
1139.2,0.078904,423881,353460
1143.99,0.080550,426786,354536
1147.58,0.081350,428617,355402
1151.17,0.082001,431169,356982
1154.75,0.083285,433579,357918
1158.33,0.084455,436264,359165
1161.91,0.086312,439132,359984
1165.48,0.088100,442389,361164
1169.04,0.090577,446101,362123
1173.79,0.093848,451929,364101
1177.34,0.096282,456026,365349
1180.9,0.098093,461306,368041
1184.44,0.100280,467657,371234
1187.99,0.100956,473969,375659
1191.52,0.101028,479856,380262
1195.06,0.101083,487372,386169
1199.76,0.100380,497347,394711
1203.29,0.099704,504311,400862
1206.81,0.099117,511507,407131
1210.33,0.098276,519078,413958
1213.84,0.098189,527163,420490
1217.35,0.097481,534208,426805
1220.85,0.096576,540472,432710
1225.51,0.095720,549929,441150
1229.01,0.095998,556888,446447
1232.5,0.094478,562180,452270
1235.98,0.094001,567975,457434
1239.46,0.092987,574815,464025
1242.94,0.091973,582782,471556
1246.41,0.091598,591476,479004
1251.03,0.091547,604016,489217
1254.5,0.091070,612289,496463
1257.96,0.092170,619125,500736
1261.41,0.092254,624551,505026
1264.86,0.092894,629900,508601
1268.31,0.093308,634345,511702
1271.75,0.093973,638574,514326
1276.33,0.094279,642499,517122
1279.76,0.093992,645905,520208
1283.19,0.093629,648307,522579
1286.61,0.093226,650446,524790
1290.03,0.092710,652132,526775
1293.44,0.092550,653907,528404
1296.85,0.092097,655963,530618
1301.39,0.091982,657349,531880
1304.8,0.091809,657558,532261
1308.19,0.091590,658515,533305
1311.58,0.091728,658804,533370
1314.97,0.092344,659011,532781
1318.36,0.093109,658272,531247
1321.73,0.093227,658022,530901
1326.23,0.094266,657870,529510
1329.6,0.094887,656482,527638
1332.97,0.095501,654926,525644
1336.33,0.096012,653727,524064
1339.69,0.097946,652497,520754
1343.04,0.099030,649913,517399
1346.39,0.101643,647671,512521
1349.73,0.103104,645338,508959
1354.18,0.106010,641175,502304
1357.52,0.108007,638376,497817
1360.85,0.109819,635805,493747
1364.17,0.111830,633413,489617
1367.49,0.114123,631026,485204
1370.81,0.116021,628050,480810
1374.12,0.118378,625034,475911
1378.54,0.120891,620272,469560
1381.84,0.123810,616892,463873
1385.14,0.126813,613613,458228
1388.43,0.130415,611526,452898
1391.72,0.134376,610663,448152
1395.01,0.137983,610634,444425
1398.29,0.142797,611700,440293
1402.66,0.148780,614051,435938
1405.93,0.153164,616268,433117
1409.2,0.157304,617795,430071
1412.46,0.161841,618872,426344
1415.72,0.165880,619795,423027
1418.98,0.169339,620495,420145
1422.23,0.171883,621087,418090
1426.56,0.176476,621375,413883
1429.8,0.178776,621616,411857
1433.04,0.181594,622129,409531
1436.27,0.183027,621526,407786
1439.5,0.185325,621113,405364
1442.72,0.188261,620921,402509
1445.94,0.190493,620270,400026
1450.23,0.193899,618860,395998
1453.44,0.196811,617697,392613
1456.64,0.199521,616264,389265
1459.85,0.201916,614413,385962
1463.04,0.205708,612307,381295
1466.24,0.208909,610032,377089
1469.43,0.212660,607345,372199
1473.67,0.219482,603789,364253
1476.85,0.224535,601175,358481
1480.02,0.230973,597737,351186
1483.19,0.237977,594479,343684
1486.36,0.243280,591232,337659
1489.52,0.248832,587853,331464
1492.68,0.251862,583875,326932
1496.89,0.253887,578062,322172
1500.03,0.254299,574159,319693
1503.18,0.254480,570285,317404
1506.32,0.254032,565444,315034
1509.45,0.252627,560571,313331
1512.58,0.250910,555821,311907
1515.71,0.248272,550344,310715
1519.87,0.245624,543983,309002
1522.99,0.242861,538764,307991
1526.1,0.240297,533692,306898
1529.21,0.237586,527902,305469
1532.32,0.235119,521886,303708
1535.42,0.232372,515888,302123
1538.51,0.228703,509987,301201
1541.6,0.225803,503936,299621
1545.72,0.221764,494694,296874
1548.8,0.219725,488378,294463
1551.88,0.216964,481832,292369
1554.95,0.214317,474989,289979
1558.02,0.213181,467818,286349
1561.08,0.211662,460730,282999
1564.15,0.211860,454170,278842
1568.22,0.209779,444181,274019
1571.27,0.209767,436947,269564
1574.32,0.209525,429598,265178
1577.36,0.208145,422039,261341
1580.4,0.207180,414375,257166
1583.43,0.205846,406354,252964
1586.46,0.203327,398475,249502
1590.49,0.202353,388982,244105
1593.51,0.200118,380708,240145
1596.53,0.198306,372727,236094
1599.54,0.196433,365060,232237
1602.55,0.194043,357543,228710
1605.55,0.191940,349495,224647
1608.55,0.190031,341154,220252
1612.54,0.188697,330877,214274
1615.53,0.186513,322904,210165
1618.51,0.186683,315116,205016
1621.49,0.184262,307217,200994
1624.47,0.183469,299481,196291
1627.44,0.182945,292112,191692
1630.41,0.181995,284245,186938
1634.36,0.179981,274079,181090
1637.32,0.179254,266916,176653
1640.27,0.179878,259612,171572
1643.22,0.178247,251804,167038
1646.16,0.178488,244348,162002
1649.1,0.176907,236703,157506
1652.04,0.175355,228171,152372
1655.95,0.173039,215408,144618
1658.88,0.167941,204937,139213
1661.8,0.163479,193395,132729
1664.72,0.155671,179728,125587
1667.63,0.142414,163642,117891
1670.54,0.128069,146312,108946
1673.44,0.112822,128451,99064
1677.31,0.091310,105080,85155
1680.21,0.077925,88906,74303
1683.1,0.072930,75033,63434
1685.99,0.077628,63520,53123
1688.87,0.077851,53714,44899
1691.75,0.078157,45653,38134
1694.62,0.085109,39137,32172
1697.49,0.089908,33776,27460
1701.31,0.096640,28175,22554