File: samples/wool/wool-000811/Column 1_050589_20150331_121822.csv
Method:,Column 1,,
Host Date-Time:,31/3/15 @ 12:18:22,,
Header Version:,1,,
System Temp (C):,33.81,,
Detector Temp (C):,34.53,,
Humidity (%):,1.86,,
Lamp PD:,3818,,
Shift Vector Coefficients:,-10.5391,0.0761263,-0.000134223,,
Pixel to Wavelength Coefficients:,1775.68,-0.916766,-0.000235065,,
Serial Number:,5510004,,
Scan Config Name:,Column 1,,
Scan Config Type:,Slew,,
Section 1,,
Start wavelength (nm):,900,,
End wavelength (nm):,1700,,
Pattern Pixel Width (nm):,   7.03,,,,
Exposure (ms):,  0.635,,,,
Digital Resolution:,228,,
Num Repeats:,6,,
PGA Gain:,64,,
Total Measurement Time in sec:,  2.682,,
Wavelength (nm),Absorbance (AU),Reference Signal (unitless),Sample Signal (unitless)
901.51,0.069792,108485,92380
905.376,0.077450,121306,101492
909.237,0.078444,131909,110111
913.095,0.078084,143299,119718
916.948,0.080576,156982,130399
922.079,0.081998,179937,148978
925.923,0.082683,200504,165745
929.762,0.083223,222660,183831
933.597,0.083330,244426,201752
937.427,0.081796,263972,218656
941.254,0.081980,281845,233362
945.076,0.080646,297271,246892
950.165,0.079593,315605,262755
953.978,0.078906,328029,273531
957.786,0.079503,340470,283515
961.59,0.078823,352317,293840
965.389,0.079540,363056,302297
969.185,0.079702,373162,310596
972.976,0.080140,382632,318157
976.763,0.080212,391202,325229
981.806,0.080275,400190,332653
985.583,0.080703,406088,337223
989.355,0.081658,410162,339858
993.124,0.082048,412868,341793
996.888,0.082747,414263,342396
1000.65,0.083626,415476,342705
1004.4,0.084574,415479,341960
1009.41,0.085288,414358,340477
1013.15,0.085654,412923,339012
1016.89,0.086505,411526,337204
1020.63,0.086794,409066,334965
1024.36,0.086425,406777,333374
1028.09,0.086004,404427,331769
1031.82,0.086294,401911,329485
1036.78,0.085421,398410,327272
1040.49,0.085519,396204,325387
1044.2,0.086008,394236,323406
1047.91,0.085504,392042,321980
1051.61,0.084961,389823,320558
1055.31,0.084331,388234,319715
1059,0.084065,387599,319387
1063.92,0.083683,386688,318917
1067.61,0.082517,386598,319700
1071.29,0.082197,387377,320580
1074.96,0.081768,388536,321857
1078.63,0.080934,389855,323571
1082.3,0.080269,391215,325197
1085.96,0.080121,393215,326971
1090.84,0.078086,396270,331059
1094.49,0.078697,398760,332671
1098.14,0.078044,400987,335032
1101.79,0.077168,403477,337793
1105.43,0.077049,406116,340096
1109.06,0.076745,407701,341662
1112.7,0.075455,409859,344492
1117.53,0.075969,412494,346297
1121.15,0.076493,414909,347904
1124.77,0.076428,416559,349340
1128.38,0.076888,418532,350623
1131.99,0.077684,419956,351172
1135.6,0.078846,421946,351893
1139.2,0.080640,423881,352050
1143.99,0.082993,426786,352547
1147.58,0.082762,428617,354248
1151.17,0.084875,431169,354628
1154.75,0.085629,433579,355991
1158.33,0.087245,436264,356865
1161.91,0.088865,439132,357874
1165.48,0.090671,442389,359032
1169.04,0.093459,446101,359728
1173.79,0.096155,451929,362172
1177.34,0.098546,456026,363449
1180.9,0.100599,461306,365923
1184.44,0.102167,467657,369624
1187.99,0.103715,473969,373280
1191.52,0.103756,479856,377881
1195.06,0.103031,487372,384441
1199.76,0.102881,497347,392445
1203.29,0.101727,504311,398999
1206.81,0.101377,511507,405018
1210.33,0.101211,519078,411170
1213.84,0.100198,527163,418550
1217.35,0.100028,534208,424309
1220.85,0.098996,540472,430306
1225.51,0.098608,549929,438226
1229.01,0.098013,556888,444380
1232.5,0.097272,562180,449369
1235.98,0.096772,567975,454524
1239.46,0.095840,574815,460986
1242.94,0.094632,582782,468677
1246.41,0.094148,591476,476200
1251.03,0.094247,604016,486185
1254.5,0.094257,612289,492833
1257.96,0.094731,619125,497791
1261.41,0.095516,624551,501247
1264.86,0.095696,629900,505331
1268.31,0.096397,634345,508076
1271.75,0.096693,638574,511114
1276.33,0.097180,642499,513680
1279.76,0.097175,645905,516409
1283.19,0.096442,648307,519205
1286.61,0.096363,650446,521013
1290.03,0.095425,652132,523493
1293.44,0.095480,653907,524851
1296.85,0.094783,655963,527347
1301.39,0.094949,657349,528259
1304.8,0.095016,657558,528345
1308.19,0.095281,658515,528792
1311.58,0.095082,658804,529266
1314.97,0.095649,659011,528742
1318.36,0.095850,658272,527905
1321.73,0.096393,658022,527045
1326.23,0.097536,657870,525538
1329.6,0.098220,656482,523604
1332.97,0.099433,654926,520906
1336.33,0.100443,653727,518744
1339.69,0.101906,652497,516027
1343.04,0.103221,649913,512430
1346.39,0.105400,647671,508106
1349.73,0.107408,645338,503940
1354.18,0.110273,641175,497398
1357.52,0.112507,638376,492685
1360.85,0.114472,635805,488486
1364.17,0.116451,633413,484435
1367.49,0.118487,631026,480353
1370.81,0.120989,628050,475341
1374.12,0.123039,625034,470831
1378.54,0.125786,620272,464297
1381.84,0.129258,616892,458090
1385.14,0.132894,613613,451856
1388.43,0.136787,611526,446301
1391.72,0.141168,610663,441198
1395.01,0.146040,610634,436256
1398.29,0.151019,611700,432036
1402.66,0.157069,614051,427696
1405.93,0.163022,616268,423397
1409.2,0.168419,617795,419204
1412.46,0.172500,618872,416007
1415.72,0.177308,619795,412041
1418.98,0.181767,620495,408292
1422.23,0.184802,621087,405836
1426.56,0.188611,621375,402479
1429.8,0.191045,621616,400384
1433.04,0.193785,622129,398195
1436.27,0.196042,621526,395747
1439.5,0.197830,621113,393859
1442.72,0.200371,620921,391440
1445.94,0.202939,620270,388724
1450.23,0.206002,618860,385115
1453.44,0.208841,617697,381887
1456.64,0.211500,616264,378675
1459.85,0.213987,614413,375382
1463.04,0.216988,612307,371519
1466.24,0.220102,610032,367494
1469.43,0.223512,607345,363014
1473.67,0.229210,603789,356185
1476.85,0.234538,601175,350318
1480.02,0.239925,597737,344021
1483.19,0.244905,594479,338245
1486.36,0.250874,591232,331806
1489.52,0.255436,587853,326462
1492.68,0.258529,583875,321952
1496.89,0.260280,578062,317464
1500.03,0.260818,574159,314930
1503.18,0.261177,570285,312547
1506.32,0.260409,565444,310442
1509.45,0.259174,560571,308643
1512.58,0.257444,555821,307249
1515.71,0.255014,550344,305929
1519.87,0.251756,543983,304670
1522.99,0.249429,538764,303368
1526.1,0.247116,533692,302117
1529.21,0.244793,527902,300442
1532.32,0.241409,521886,299341
1535.42,0.238508,515888,297884
1538.51,0.235583,509987,296467
1541.6,0.232986,503936,294706
1545.72,0.228746,494694,292140
1548.8,0.225774,488378,290390
1551.88,0.223874,481832,287754
1554.95,0.221967,474989,284916
1558.02,0.219971,467818,281907
1561.08,0.218830,460730,278366
1564.15,0.217553,454170,275211
1568.22,0.216835,444181,269603
1571.27,0.216382,436947,265489
1574.32,0.215800,429598,261374
1577.36,0.214048,422039,257813
1580.4,0.213010,414375,253737
1583.43,0.211465,406354,249712
1586.46,0.209666,398475,245887
1590.49,0.207785,388982,241071
1593.51,0.206379,380708,236708
1596.53,0.204180,372727,232922
1599.54,0.201782,365060,229394
1602.55,0.200598,357543,225284
1605.55,0.198483,349495,221288
1608.55,0.196255,341154,217118
1612.54,0.194670,330877,211347
1615.53,0.193086,322904,207008
1618.51,0.190786,315116,203088
1621.49,0.190640,307217,198064
1624.47,0.189249,299481,193696
1627.44,0.188146,292112,189410
1630.41,0.187327,284245,184657
1634.36,0.186530,274079,178380
1637.32,0.184659,266916,174468
1640.27,0.185496,259612,169367
1643.22,0.184024,251804,164831
1646.16,0.183075,244348,160300
1649.1,0.183354,236703,155185
1652.04,0.180499,228171,150578
1655.95,0.177058,215408,143286
1658.88,0.174725,204937,137055
1661.8,0.168823,193395,131106
1664.72,0.160183,179728,124289
1667.63,0.150111,163642,115820
1670.54,0.135856,146312,107010
1673.44,0.121053,128451,97204
1677.31,0.099397,105080,83584
1680.21,0.090424,88906,72195
1683.1,0.086377,75033,61500
1685.99,0.088153,63520,51851
1688.87,0.087692,53714,43893
1691.75,0.087214,45653,37347
1694.62,0.095962,39137,31378
1697.49,0.097824,33776,26964
1701.31,0.116255,28175,21558