File: samples/wool/wool-000811/Column 1_050566_20150331_120727.csv
Method:,Column 1,,
Host Date-Time:,31/3/15 @ 12:7:27,,
Header Version:,1,,
System Temp (C):,33.93,,
Detector Temp (C):,33.81,,
Humidity (%):,1.86,,
Lamp PD:,3819,,
Shift Vector Coefficients:,-10.5391,0.0761263,-0.000134223,,
Pixel to Wavelength Coefficients:,1775.68,-0.916766,-0.000235065,,
Serial Number:,5510004,,
Scan Config Name:,Column 1,,
Scan Config Type:,Slew,,
Section 1,,
Start wavelength (nm):,900,,
End wavelength (nm):,1700,,
Pattern Pixel Width (nm):,   7.03,,,,
Exposure (ms):,  0.635,,,,
Digital Resolution:,228,,
Num Repeats:,6,,
PGA Gain:,64,,
Total Measurement Time in sec:,  2.669,,
Wavelength (nm),Absorbance (AU),Reference Signal (unitless),Sample Signal (unitless)
901.51,0.034385,108485,100227
905.376,0.040060,121306,110617
909.237,0.043700,131909,119282
913.095,0.043923,143299,129515
916.948,0.044679,156982,141635
922.079,0.046287,179937,161746
925.923,0.047928,200504,179554
929.762,0.047976,222660,199373
933.597,0.048851,244426,218422
937.427,0.048239,263972,236221
941.254,0.047592,281845,252591
945.076,0.047011,297271,266773
950.165,0.047476,315605,282923
953.978,0.046607,328029,294649
957.786,0.046657,340470,305789
961.59,0.047003,352317,316177
965.389,0.047177,363056,325684
969.185,0.047116,373162,334797
972.976,0.048008,382632,342589
976.763,0.048338,391202,349996
981.806,0.048376,400190,358006
985.583,0.049251,406088,362551
989.355,0.049588,410162,365904
993.124,0.050604,412868,367458
996.888,0.050939,414263,368415
1000.65,0.051563,415476,368963
1004.4,0.052854,415479,367871
1009.41,0.054431,414358,365548
1013.15,0.055072,412923,363745
1016.89,0.055691,411526,361998
1020.63,0.055567,409066,359937
1024.36,0.055036,406777,358361
1028.09,0.055255,404427,356111
1031.82,0.054884,401911,354198
1036.78,0.054023,398410,351809
1040.49,0.053532,396204,350257
1044.2,0.053616,394236,348450
1047.91,0.053041,392042,346970
1051.61,0.052943,389823,345084
1055.31,0.051848,388234,344545
1059,0.051977,387599,343879
1063.92,0.050984,386688,343856
1067.61,0.049802,386598,344713
1071.29,0.049723,387377,345470
1074.96,0.048626,388536,347380
1078.63,0.048271,389855,348845
1082.3,0.047381,391215,350780
1085.96,0.046675,393215,353147
1090.84,0.045770,396270,356633
1094.49,0.045524,398760,359077
1098.14,0.045404,400987,361182
1101.79,0.044818,403477,363916
1105.43,0.044769,406116,366337
1109.06,0.043768,407701,368616
1112.7,0.044750,409859,369730
1117.53,0.044310,412494,372484
1121.15,0.045388,414909,373736
1124.77,0.045358,416559,375248
1128.38,0.047334,418532,375314
1131.99,0.048352,419956,375709
1135.6,0.049952,421946,376101
1139.2,0.051765,423881,376252
1143.99,0.054492,426786,376459
1147.58,0.055444,428617,377247
1151.17,0.056260,431169,378780
1154.75,0.058040,433579,379340
1158.33,0.059680,436264,380250
1161.91,0.061489,439132,381159
1165.48,0.064108,442389,381677
1169.04,0.066823,446101,382481
1173.79,0.070679,451929,384053
1177.34,0.072893,456026,385564
1180.9,0.075116,461306,388037
1184.44,0.077299,467657,391407
1187.99,0.077683,473969,396339
1191.52,0.078004,479856,400965
1195.06,0.077256,487372,407948
1199.76,0.076236,497347,417276
1203.29,0.075857,504311,423488
1206.81,0.074820,511507,430558
1210.33,0.073710,519078,438049
1213.84,0.073488,527163,445099
1217.35,0.072324,534208,452258
1220.85,0.071373,540472,458564
1225.51,0.070334,549929,467706
1229.01,0.070428,556888,473522
1232.5,0.069169,562180,479409
1235.98,0.068639,567975,484943
1239.46,0.067594,574815,491965
1242.94,0.066494,582782,500048
1246.41,0.065583,591476,508574
1251.03,0.065780,604016,519121
1254.5,0.065975,612289,525995
1257.96,0.066593,619125,531111
1261.41,0.067554,624551,534582
1264.86,0.067935,629900,538687
1268.31,0.068240,634345,542108
1271.75,0.069373,638574,544300
1276.33,0.069338,642499,547689
1279.76,0.069562,645905,550309
1283.19,0.068894,648307,553206
1286.61,0.068361,650446,555712
1290.03,0.068173,652132,557394
1293.44,0.067724,653907,559489
1296.85,0.067626,655963,561375
1301.39,0.067279,657349,563011
1304.8,0.067256,657558,563220
1308.19,0.066796,658515,564637
1311.58,0.067670,658804,563750
1314.97,0.068063,659011,563417
1318.36,0.068657,658272,562015
1321.73,0.068974,658022,561392
1326.23,0.070075,657870,559841
1329.6,0.070796,656482,557733
1332.97,0.071970,654926,554910
1336.33,0.073152,653727,552388
1339.69,0.074740,652497,549337
1343.04,0.076608,649913,544813
1346.39,0.078511,647671,540560
1349.73,0.080774,645338,535813
1354.18,0.083777,641175,528688
1357.52,0.086431,638376,523173
1360.85,0.088740,635805,518303
1364.17,0.090729,633413,513994
1367.49,0.092949,631026,509446
1370.81,0.094994,628050,504662
1374.12,0.098179,625034,498568
1378.54,0.101227,620272,491309
1381.84,0.104670,616892,484774
1385.14,0.108757,613613,477681
1388.43,0.112953,611526,471479
1391.72,0.118096,610663,465271
1395.01,0.122609,610634,460439
1398.29,0.128033,611700,455518
1402.66,0.134742,614051,450259
1405.93,0.141016,616268,445404
1409.2,0.146420,617795,440986
1412.46,0.151181,618872,436938
1415.72,0.155907,619795,432854
1418.98,0.160373,620495,428909
1422.23,0.164239,621087,425514
1426.56,0.167797,621375,422237
1429.8,0.170671,621616,419615
1433.04,0.173550,622129,417187
1436.27,0.175772,621526,414655
1439.5,0.178550,621113,411738
1442.72,0.180703,620921,409575
1445.94,0.183013,620270,406975
1450.23,0.186563,618860,402744
1453.44,0.189709,617697,399086
1456.64,0.193034,616264,395123
1459.85,0.195803,614413,391433
1463.04,0.198152,612307,387987
1466.24,0.202201,610032,382958
1469.43,0.205547,607345,378345
1473.67,0.211048,603789,371396
1476.85,0.216969,601175,364781
1480.02,0.223618,597737,357184
1483.19,0.230277,594479,349832
1486.36,0.236513,591232,342961
1489.52,0.241875,587853,336817
1492.68,0.245271,583875,331932
1496.89,0.246611,578062,327615
1500.03,0.247947,574159,324403
1503.18,0.248236,570285,322000
1506.32,0.248061,565444,319395
1509.45,0.245924,560571,318205
1512.58,0.244532,555821,316521
1515.71,0.242138,550344,315135
1519.87,0.238385,543983,314196
1522.99,0.236317,538764,312667
1526.1,0.234102,533692,311307
1529.21,0.230738,527902,310324
1532.32,0.226967,521886,309463
1535.42,0.224322,515888,307775
1538.51,0.221037,509987,306565
1541.6,0.218058,503936,305012
1545.72,0.213149,494694,302822
1548.8,0.210318,488378,300911
1551.88,0.207784,481832,298615
1554.95,0.205794,474989,295726
1558.02,0.204000,467818,292467
1561.08,0.202843,460730,288804
1564.15,0.201678,454170,285457
1568.22,0.200781,444181,279756
1571.27,0.200227,436947,275551
1574.32,0.198490,429598,272002
1577.36,0.196769,422039,268277
1580.4,0.195740,414375,264030
1583.43,0.194408,406354,259715
1586.46,0.193321,398475,255317
1590.49,0.190171,388982,251049
1593.51,0.188164,380708,246847
1596.53,0.186146,372727,242798
1599.54,0.183238,365060,239401
1602.55,0.181771,357543,235265
1605.55,0.179410,349495,231223
1608.55,0.177156,341154,226879
1612.54,0.175133,330877,221072
1615.53,0.173070,322904,216772
1618.51,0.171784,315116,212171
1621.49,0.170452,307217,207488
1624.47,0.168734,299481,203065
1627.44,0.168555,292112,198150
1630.41,0.166909,284245,193546
1634.36,0.165517,274079,187223
1637.32,0.164660,266916,182690
1640.27,0.164801,259612,177633
1643.22,0.162424,251804,173236
1646.16,0.163240,244348,167791
1649.1,0.161337,236703,163255
1652.04,0.160250,228171,157765
1655.95,0.159109,215408,149332
1658.88,0.154802,204937,143489
1661.8,0.148620,193395,137349
1664.72,0.143770,179728,129076
1667.63,0.133344,163642,120379
1670.54,0.121438,146312,110622
1673.44,0.107051,128451,100389
1677.31,0.091876,105080,85044
1680.21,0.085008,88906,73101
1683.1,0.084496,75033,61767
1685.99,0.089638,63520,51674
1688.87,0.090681,53714,43592
1691.75,0.092278,45653,36914
1694.62,0.099757,39137,31105
1697.49,0.108520,33776,26308
1701.31,0.112185,28175,21761