File: samples/wool/wool-000811/Column 1_050600_20150331_122335.csv
Method:,Column 1,,
Host Date-Time:,31/3/15 @ 12:23:35,,
Header Version:,1,,
System Temp (C):,33.98,,
Detector Temp (C):,34.79,,
Humidity (%):,1.76,,
Lamp PD:,3818,,
Shift Vector Coefficients:,-10.5391,0.0761263,-0.000134223,,
Pixel to Wavelength Coefficients:,1775.68,-0.916766,-0.000235065,,
Serial Number:,5510004,,
Scan Config Name:,Column 1,,
Scan Config Type:,Slew,,
Section 1,,
Start wavelength (nm):,900,,
End wavelength (nm):,1700,,
Pattern Pixel Width (nm):,   7.03,,,,
Exposure (ms):,  0.635,,,,
Digital Resolution:,228,,
Num Repeats:,6,,
PGA Gain:,64,,
Total Measurement Time in sec:,  2.730,,
Wavelength (nm),Absorbance (AU),Reference Signal (unitless),Sample Signal (unitless)
901.51,0.069811,108485,92376
905.376,0.073680,121306,102377
909.237,0.077703,131909,110299
913.095,0.078919,143299,119488
916.948,0.078522,156982,131017
922.079,0.081622,179937,149107
925.923,0.081544,200504,166180
929.762,0.082744,222660,184034
933.597,0.082246,244426,202256
937.427,0.081594,263972,218758
941.254,0.080602,281845,234104
945.076,0.078724,297271,247987
950.165,0.078729,315605,263278
953.978,0.077533,328029,274397
957.786,0.078103,340470,284430
961.59,0.078746,352317,293892
965.389,0.078106,363056,303297
969.185,0.078098,373162,311745
972.976,0.078751,382632,319176
976.763,0.079199,391202,325988
981.806,0.079681,400190,333108
985.583,0.080223,406088,337596
989.355,0.080618,410162,340673
993.124,0.080911,412868,342689
996.888,0.081476,414263,343400
1000.65,0.082115,415476,343899
1004.4,0.083354,415479,342922
1009.41,0.084357,414358,341208
1013.15,0.085467,412923,339158
1016.89,0.085158,411526,338251
1020.63,0.085811,409066,335724
1024.36,0.085788,406777,333863
1028.09,0.085545,404427,332120
1031.82,0.085401,401911,330163
1036.78,0.084668,398410,327840
1040.49,0.084524,396204,326133
1044.2,0.084290,394236,324688
1047.91,0.083977,392042,323114
1051.61,0.083988,389823,321277
1055.31,0.083665,388234,320205
1059,0.083105,387599,320094
1063.92,0.082330,386688,319912
1067.61,0.081979,386598,320096
1071.29,0.081070,387377,321413
1074.96,0.081280,388536,322219
1078.63,0.080177,389855,324135
1082.3,0.079109,391215,326067
1085.96,0.078710,393215,328035
1090.84,0.077709,396270,331346
1094.49,0.076950,398760,334012
1098.14,0.076418,400987,336289
1101.79,0.075860,403477,338812
1105.43,0.075432,406116,341364
1109.06,0.074576,407701,343373
1112.7,0.075125,409859,344754
1117.53,0.074410,412494,347542
1121.15,0.074410,414909,349577
1124.77,0.075292,416559,350255
1128.38,0.076000,418532,351341
1131.99,0.077327,419956,351461
1135.6,0.078387,421946,352265
1139.2,0.079295,423881,353142
1143.99,0.081850,426786,353476
1147.58,0.082818,428617,354202
1151.17,0.083444,431169,355798
1154.75,0.084592,433579,356842
1158.33,0.085597,436264,358222
1161.91,0.087865,439132,358699
1165.48,0.089730,442389,359811
1169.04,0.091951,446101,360979
1173.79,0.094639,451929,363439
1177.34,0.097582,456026,364257
1180.9,0.099547,461306,366811
1184.44,0.101044,467657,370581
1187.99,0.102502,473969,374324
1191.52,0.102621,479856,378870
1195.06,0.102016,487372,385340
1199.76,0.101865,497347,393364
1203.29,0.100822,504311,399831
1206.81,0.100733,511507,405619
1210.33,0.099697,519078,412606
1213.84,0.098850,527163,419851
1217.35,0.098490,534208,425814
1220.85,0.097203,540472,432086
1225.51,0.096831,549929,440023
1229.01,0.096557,556888,445873
1232.5,0.095956,562180,450733
1235.98,0.095399,567975,455964
1239.46,0.094024,574815,462918
1242.94,0.093303,582782,470114
1246.41,0.092655,591476,477840
1251.03,0.092732,604016,487884
1254.5,0.092766,612289,494527
1257.96,0.093298,619125,499437
1261.41,0.093571,624551,503497
1264.86,0.094372,629900,506874
1268.31,0.094742,634345,510016
1271.75,0.095247,638574,512819
1276.33,0.095155,642499,516080
1279.76,0.095364,645905,518567
1283.19,0.095166,648307,520732
1286.61,0.095129,650446,522495
1290.03,0.094368,652132,524768
1293.44,0.093850,653907,526824
1296.85,0.093374,655963,529061
1301.39,0.093376,657349,530176
1304.8,0.093812,657558,529812
1308.19,0.093589,658515,530856
1311.58,0.093761,658804,530878
1314.97,0.094437,659011,530219
1318.36,0.094350,658272,529731
1321.73,0.095237,658022,528450
1326.23,0.095403,657870,528125
1329.6,0.096515,656482,525663
1332.97,0.097666,654926,523030
1336.33,0.098378,653727,521217
1339.69,0.100290,652497,517951
1343.04,0.101088,649913,514953
1346.39,0.103350,647671,510510
1349.73,0.105119,645338,506604
1354.18,0.108133,641175,499854
1357.52,0.110321,638376,495171
1360.85,0.112232,635805,491012
1364.17,0.113997,633413,487181
1367.49,0.116365,631026,482706
1370.81,0.118462,628050,478115
1374.12,0.120559,625034,473527
1378.54,0.123708,620272,466524
1381.84,0.126961,616892,460520
1385.14,0.129930,613613,454951
1388.43,0.133446,611526,449748
1391.72,0.137906,610663,444524
1395.01,0.142032,610634,440300
1398.29,0.146743,611700,436310
1402.66,0.152766,614051,431955
1405.93,0.158355,616268,427971
1409.2,0.163259,617795,424214
1412.46,0.167041,618872,421269
1415.72,0.171168,619795,417907
1418.98,0.175129,620495,414581
1422.23,0.178476,621087,411791
1426.56,0.182219,621375,408446
1429.8,0.185028,621616,405970
1433.04,0.187177,622129,404300
1436.27,0.189659,621526,401606
1439.5,0.191855,621113,399315
1442.72,0.194243,620921,397003
1445.94,0.196040,620270,394949
1450.23,0.199756,618860,390694
1453.44,0.202466,617697,387534
1456.64,0.205139,616264,384262
1459.85,0.207726,614413,380833
1463.04,0.210803,612307,376848
1466.24,0.214106,610032,372603
1469.43,0.217596,607345,367993
1473.67,0.223840,603789,360616
1476.85,0.229506,601175,354401
1480.02,0.234653,597737,348223
1483.19,0.241359,594479,341018
1486.36,0.247367,591232,334496
1489.52,0.252234,587853,328878
1492.68,0.254883,583875,324666
1496.89,0.257551,578062,319465
1500.03,0.258135,574159,316882
1503.18,0.257467,570285,315228
1506.32,0.257026,565444,312870
1509.45,0.255710,560571,311115
1512.58,0.253737,555821,309883
1515.71,0.251696,550344,308275
1519.87,0.248129,543983,307225
1522.99,0.245493,538764,306130
1526.1,0.243368,533692,304735
1529.21,0.240966,527902,303101
1532.32,0.237442,521886,302088
1535.42,0.234897,515888,300371
1538.51,0.232453,509987,298611
1541.6,0.228972,503936,297443
1545.72,0.225446,494694,294368
1548.8,0.222409,488378,292649
1551.88,0.220058,481832,290294
1554.95,0.217790,474989,287669
1558.02,0.216708,467818,284033
1561.08,0.216003,460730,280184
1564.15,0.214767,454170,276982
1568.22,0.213545,444181,271653
1571.27,0.213561,436947,267219
1574.32,0.212667,429598,263266
1577.36,0.210832,422039,259729
1580.4,0.209870,414375,255578
1583.43,0.207768,406354,251847
1586.46,0.206461,398475,247708
1590.49,0.204273,388982,243028
1593.51,0.202543,380708,238808
1596.53,0.200978,372727,234646
1599.54,0.198786,365060,230982
1602.55,0.197902,357543,226687
1605.55,0.194578,349495,223287
1608.55,0.193201,341154,218650
1612.54,0.190743,330877,213267
1615.53,0.190024,322904,208473
1618.51,0.188693,315116,204069
1621.49,0.187629,307217,199442
1624.47,0.186783,299481,194799
1627.44,0.185506,292112,190565
1630.41,0.184989,284245,185654
1634.36,0.183183,274079,179760
1637.32,0.182325,266916,175408
1640.27,0.182519,259612,170532
1643.22,0.181148,251804,165926
1646.16,0.179277,244348,161708
1649.1,0.178883,236703,156791
1652.04,0.178135,228171,151400
1655.95,0.174586,215408,144104
1658.88,0.170792,204937,138302
1661.8,0.166652,193395,131763
1664.72,0.158728,179728,124706
1667.63,0.146828,163642,116699
1670.54,0.131193,146312,108165
1673.44,0.116264,128451,98282
1677.31,0.094936,105080,84447
1680.21,0.084521,88906,73183
1683.1,0.078449,75033,62633
1685.99,0.077080,63520,53190
1688.87,0.079227,53714,44757
1691.75,0.087691,45653,37306
1694.62,0.090857,39137,31749
1697.49,0.097518,33776,26983
1701.31,0.099500,28175,22406