File: samples/wool/wool-000811/Column 1_050555_20150331_120208.csv
Method:,Column 1,,
Host Date-Time:,31/3/15 @ 12:2:8,,
Header Version:,1,,
System Temp (C):,33.45,,
Detector Temp (C):,32.5,,
Humidity (%):,2.44,,
Lamp PD:,3820,,
Shift Vector Coefficients:,-10.5391,0.0761263,-0.000134223,,
Pixel to Wavelength Coefficients:,1775.68,-0.916766,-0.000235065,,
Serial Number:,5510004,,
Scan Config Name:,Column 1,,
Scan Config Type:,Slew,,
Section 1,,
Start wavelength (nm):,900,,
End wavelength (nm):,1700,,
Pattern Pixel Width (nm):,   7.03,,,,
Exposure (ms):,  0.635,,,,
Digital Resolution:,228,,
Num Repeats:,6,,
PGA Gain:,64,,
Total Measurement Time in sec:,  2.677,,
Wavelength (nm),Absorbance (AU),Reference Signal (unitless),Sample Signal (unitless)
901.51,0.034220,108485,100265
905.376,0.040394,121306,110532
909.237,0.041647,131909,119847
913.095,0.041829,143299,130141
916.948,0.042651,156982,142298
922.079,0.045756,179937,161944
925.923,0.045805,200504,180434
929.762,0.046632,222660,199991
933.597,0.047020,244426,219345
937.427,0.046943,263972,236927
941.254,0.046564,281845,253190
945.076,0.045718,297271,267568
950.165,0.045475,315605,284229
953.978,0.044729,328029,295926
957.786,0.045796,340470,306396
961.59,0.046324,352317,316672
965.389,0.046504,363056,326189
969.185,0.046390,373162,335357
972.976,0.046984,382632,343398
976.763,0.048132,391202,350162
981.806,0.048534,400190,357876
985.583,0.048959,406088,362795
989.355,0.049549,410162,365937
993.124,0.050234,412868,367771
996.888,0.050671,414263,368642
1000.65,0.051751,415476,368803
1004.4,0.052497,415479,368173
1009.41,0.053902,414358,365994
1013.15,0.054490,412923,364233
1016.89,0.054761,411526,362774
1020.63,0.055277,409066,360177
1024.36,0.055385,406777,358073
1028.09,0.054445,404427,356776
1031.82,0.054659,401911,354381
1036.78,0.053648,398410,352113
1040.49,0.053187,396204,350535
1044.2,0.053782,394236,348317
1047.91,0.052897,392042,347085
1051.61,0.052519,389823,345421
1055.31,0.051835,388234,344555
1059,0.051291,387599,344423
1063.92,0.050295,386688,344402
1067.61,0.049464,386598,344981
1071.29,0.048811,387377,346197
1074.96,0.048800,388536,347241
1078.63,0.047887,389855,349153
1082.3,0.046868,391215,351194
1085.96,0.046167,393215,353560
1090.84,0.046113,396270,356351
1094.49,0.045724,398760,358912
1098.14,0.045344,400987,361232
1101.79,0.044506,403477,364177
1105.43,0.044896,406116,366230
1109.06,0.044436,407701,368049
1112.7,0.044466,409859,369972
1117.53,0.044125,412494,372643
1121.15,0.045255,414909,373850
1124.77,0.045680,416559,374970
1128.38,0.046906,418532,375684
1131.99,0.048319,419956,375738
1135.6,0.050010,421946,376051
1139.2,0.051876,423881,376156
1143.99,0.054606,426786,376361
1147.58,0.056056,428617,376715
1151.17,0.056892,431169,378230
1154.75,0.058171,433579,379225
1158.33,0.060523,436264,379513
1161.91,0.062089,439132,380633
1165.48,0.064469,442389,381360
1169.04,0.067113,446101,382226
1173.79,0.070840,451929,383911
1177.34,0.073159,456026,385328
1180.9,0.075443,461306,387745
1184.44,0.077416,467657,391301
1187.99,0.078133,473969,395929
1191.52,0.078141,479856,400839
1195.06,0.077977,487372,407271
1199.76,0.076969,497347,416572
1203.29,0.075660,504311,423680
1206.81,0.074739,511507,430638
1210.33,0.074797,519078,436954
1213.84,0.073912,527163,444665
1217.35,0.073059,534208,451493
1220.85,0.071815,540472,458098
1225.51,0.070804,549929,467200
1229.01,0.070206,556888,473764
1232.5,0.069963,562180,478534
1235.98,0.069584,567975,483888
1239.46,0.068003,574815,491502
1242.94,0.067279,582782,499146
1246.41,0.066953,591476,506972
1251.03,0.066314,604016,518483
1254.5,0.066687,612289,525133
1257.96,0.066596,619125,531107
1261.41,0.067522,624551,534621
1264.86,0.068029,629900,538571
1268.31,0.068703,634345,541530
1271.75,0.069432,638574,544226
1276.33,0.069799,642499,547109
1279.76,0.069416,645905,550494
1283.19,0.069369,648307,552601
1286.61,0.068859,650446,555076
1290.03,0.068630,652132,556808
1293.44,0.067933,653907,559221
1296.85,0.068081,655963,560787
1301.39,0.067879,657349,562234
1304.8,0.067658,657558,562699
1308.19,0.068043,658515,563018
1311.58,0.068368,658804,562844
1314.97,0.068475,659011,562882
1318.36,0.069362,658272,561104
1321.73,0.069511,658022,560698
1326.23,0.070964,657870,558697
1329.6,0.071832,656482,556405
1332.97,0.072768,654926,553891
1336.33,0.073412,653727,552058
1339.69,0.075659,652497,548176
1343.04,0.077549,649913,543634
1346.39,0.080100,647671,538585
1349.73,0.081930,645338,534389
1354.18,0.085669,641175,526390
1357.52,0.087690,638376,521659
1360.85,0.089742,635805,517109
1364.17,0.092057,633413,512425
1367.49,0.094675,631026,507426
1370.81,0.097099,628050,502221
1374.12,0.099446,625034,497116
1378.54,0.103296,620272,488974
1381.84,0.107214,616892,481942
1385.14,0.110883,613613,475348
1388.43,0.115387,611526,468844
1391.72,0.120721,610663,462467
1395.01,0.126077,610634,456777
1398.29,0.131656,611700,451734
1402.66,0.139871,614051,444973
1405.93,0.146145,616268,440174
1409.2,0.151952,617795,435404
1412.46,0.156895,618872,431227
1415.72,0.161980,619795,426843
1418.98,0.166222,620495,423171
1422.23,0.170499,621087,419424
1426.56,0.175178,621375,415122
1429.8,0.178408,621616,412206
1433.04,0.181128,622129,409970
1436.27,0.183196,621526,407627
1439.5,0.185122,621113,405554
1442.72,0.188814,620921,401997
1445.94,0.190650,620270,399881
1450.23,0.193909,618860,395989
1453.44,0.196902,617697,392531
1456.64,0.199903,616264,388923
1459.85,0.202334,614413,385591
1463.04,0.205774,612307,381237
1466.24,0.208921,610032,377078
1469.43,0.211998,607345,372767
1473.67,0.217342,603789,366052
1476.85,0.222417,601175,360233
1480.02,0.228547,597737,353153
1483.19,0.234391,594479,346534
1486.36,0.240500,591232,339827
1489.52,0.245030,587853,334379
1492.68,0.248343,583875,329592
1496.89,0.250552,578062,324655
1500.03,0.251159,574159,322013
1503.18,0.251499,570285,319590
1506.32,0.251100,565444,317168
1509.45,0.249209,560571,315807
1512.58,0.247462,555821,314393
1515.71,0.245373,550344,312796
1519.87,0.242501,543983,311232
1522.99,0.239611,538764,310304
1526.1,0.236824,533692,309362
1529.21,0.233862,527902,308100
1532.32,0.230347,521886,307064
1535.42,0.227891,515888,305256
1538.51,0.225037,509987,303754
1541.6,0.221232,503936,302791
1545.72,0.217074,494694,300098
1548.8,0.214094,488378,298306
1551.88,0.212088,481832,295670
1554.95,0.209033,474989,293529
1558.02,0.206971,467818,290473
1561.08,0.206035,460730,286689
1564.15,0.205297,454170,283088
1568.22,0.204040,444181,277664
1571.27,0.203924,436947,273215
1574.32,0.202568,429598,269460
1577.36,0.200593,422039,265925
1580.4,0.199557,414375,261720
1583.43,0.197394,406354,257935
1586.46,0.195745,398475,253896
1590.49,0.193980,388982,248857
1593.51,0.191848,380708,244762
1596.53,0.189440,372727,240963
1599.54,0.187361,365060,237139
1602.55,0.185341,357543,233339
1605.55,0.182549,349495,229558
1608.55,0.180579,341154,225098
1612.54,0.177882,330877,219677
1615.53,0.177160,322904,214740
1618.51,0.174134,315116,211026
1621.49,0.173989,307217,205805
1624.47,0.171672,299481,201696
1627.44,0.171070,292112,197006
1630.41,0.170071,284245,192142
1634.36,0.168634,274079,185884
1637.32,0.168950,266916,180894
1640.27,0.167275,259612,176624
1643.22,0.166029,251804,171804
1646.16,0.165227,244348,167025
1649.1,0.163960,236703,162272
1652.04,0.163277,228171,156669
1655.95,0.161693,215408,148446
1658.88,0.157266,204937,142677
1661.8,0.154397,193395,135534
1664.72,0.148622,179728,127642
1667.63,0.140730,163642,118349
1670.54,0.130896,146312,108239
1673.44,0.122284,128451,96929
1677.31,0.109325,105080,81695
1680.21,0.105586,88906,69718
1683.1,0.100984,75033,59466
1685.99,0.105045,63520,49873
1688.87,0.106549,53714,42028
1691.75,0.115389,45653,35001
1694.62,0.124669,39137,29371
1697.49,0.125969,33776,25272
1701.31,0.133831,28175,20703