File: samples/wool/wool-000811/Column 1_050582_20150331_121508.csv
Method:,Column 1,,
Host Date-Time:,31/3/15 @ 12:15:8,,
Header Version:,1,,
System Temp (C):,33.75,,
Detector Temp (C):,34.49,,
Humidity (%):,1.95,,
Lamp PD:,3819,,
Shift Vector Coefficients:,-10.5391,0.0761263,-0.000134223,,
Pixel to Wavelength Coefficients:,1775.68,-0.916766,-0.000235065,,
Serial Number:,5510004,,
Scan Config Name:,Column 1,,
Scan Config Type:,Slew,,
Section 1,,
Start wavelength (nm):,900,,
End wavelength (nm):,1700,,
Pattern Pixel Width (nm):,   7.03,,,,
Exposure (ms):,  0.635,,,,
Digital Resolution:,228,,
Num Repeats:,6,,
PGA Gain:,64,,
Total Measurement Time in sec:,  2.676,,
Wavelength (nm),Absorbance (AU),Reference Signal (unitless),Sample Signal (unitless)
901.51,0.072021,108485,91907
905.376,0.077519,121306,101476
909.237,0.079795,131909,109769
913.095,0.079661,143299,119284
916.948,0.082321,156982,129876
922.079,0.083523,179937,148456
925.923,0.083501,200504,165433
929.762,0.083800,222660,183587
933.597,0.083784,244426,201541
937.427,0.082588,263972,218258
941.254,0.082940,281845,232847
945.076,0.081344,297271,246495
950.165,0.081002,315605,261904
953.978,0.080272,328029,272672
957.786,0.079923,340470,283241
961.59,0.081365,352317,292125
965.389,0.080269,363056,301790
969.185,0.080100,373162,310311
972.976,0.080778,382632,317690
976.763,0.081579,391202,324207
981.806,0.081931,400190,331387
985.583,0.082415,406088,335896
989.355,0.083147,410162,338695
993.124,0.083268,412868,340834
996.888,0.083734,414263,341619
1000.65,0.085139,415476,341513
1004.4,0.085470,415479,341255
1009.41,0.086783,414358,339307
1013.15,0.087756,412923,337375
1016.89,0.088255,411526,335848
1020.63,0.087635,409066,334317
1024.36,0.087454,406777,332585
1028.09,0.088028,404427,330227
1031.82,0.087361,401911,328677
1036.78,0.086852,398410,326196
1040.49,0.086783,396204,324441
1044.2,0.087239,394236,322491
1047.91,0.086581,392042,321182
1051.61,0.085670,389823,320035
1055.31,0.086091,388234,318422
1059,0.085437,387599,318380
1063.92,0.085148,386688,317843
1067.61,0.083570,386598,318926
1071.29,0.083352,387377,319729
1074.96,0.083736,388536,320402
1078.63,0.082278,389855,322571
1082.3,0.081311,391215,324418
1085.96,0.080735,393215,326509
1090.84,0.079947,396270,329643
1094.49,0.080160,398760,331552
1098.14,0.079349,400987,334027
1101.79,0.078420,403477,336821
1105.43,0.078818,406116,338713
1109.06,0.077726,407701,340891
1112.7,0.077715,409859,342704
1117.53,0.076745,412494,345679
1121.15,0.077347,414909,347221
1124.77,0.077653,416559,348356
1128.38,0.078372,418532,349427
1131.99,0.080103,419956,349221
1135.6,0.081234,421946,349964
1139.2,0.082106,423881,350863
1143.99,0.085091,426786,350848
1147.58,0.085364,428617,352132
1151.17,0.086199,431169,353548
1154.75,0.087651,433579,354338
1158.33,0.088804,436264,355587
1161.91,0.090139,439132,356826
1165.48,0.093219,442389,356932
1169.04,0.094946,446101,358498
1173.79,0.098075,451929,360575
1177.34,0.100203,456026,362065
1180.9,0.102370,461306,364434
1184.44,0.104238,467657,367866
1187.99,0.105549,473969,371707
1191.52,0.105129,479856,376688
1195.06,0.104895,487372,382794
1199.76,0.104288,497347,391175
1203.29,0.103747,504311,397147
1206.81,0.102604,511507,403876
1210.33,0.102163,519078,410270
1213.84,0.101606,527163,417195
1217.35,0.101726,534208,422653
1220.85,0.100574,540472,428745
1225.51,0.100068,549929,436756
1229.01,0.099323,556888,443042
1232.5,0.098823,562180,447767
1235.98,0.098349,567975,452877
1239.46,0.097329,574815,459409
1242.94,0.096778,582782,466367
1246.41,0.096103,591476,474061
1251.03,0.096090,604016,484126
1254.5,0.095860,612289,491017
1257.96,0.096195,619125,496116
1261.41,0.096599,624551,499999
1264.86,0.097467,629900,503274
1268.31,0.097694,634345,506561
1271.75,0.098435,638574,509069
1276.33,0.098931,642499,511613
1279.76,0.098914,645905,514345
1283.19,0.098143,648307,517175
1286.61,0.097884,650446,519191
1290.03,0.097801,652132,520636
1293.44,0.096813,653907,523243
1296.85,0.096713,655963,525008
1301.39,0.096395,657349,526503
1304.8,0.096349,657558,526726
1308.19,0.096753,658515,527002
1311.58,0.096773,658804,527210
1314.97,0.097306,659011,526728
1318.36,0.098352,658272,524872
1321.73,0.098156,658022,524910
1326.23,0.099416,657870,523268
1329.6,0.100189,656482,521235
1332.97,0.101333,654926,518632
1336.33,0.102604,653727,516170
1339.69,0.103746,652497,513845
1343.04,0.105607,649913,509622
1346.39,0.107736,647671,505381
1349.73,0.109505,645338,501513
1354.18,0.112782,641175,494532
1357.52,0.114503,638376,490426
1360.85,0.116548,635805,486156
1364.17,0.118217,633413,482470
1367.49,0.120993,631026,477589
1370.81,0.123199,628050,472928
1374.12,0.125110,625034,468591
1378.54,0.128634,620272,461262
1381.84,0.131698,616892,455524
1385.14,0.135627,613613,449022
1388.43,0.139945,611526,443068
1391.72,0.144340,610663,437987
1395.01,0.149712,610634,432583
1398.29,0.154778,611700,428312
1402.66,0.161763,614051,423098
1405.93,0.167567,616268,418989
1409.2,0.173382,617795,414441
1412.46,0.177952,618872,410817
1415.72,0.182420,619795,407219
1418.98,0.187011,620495,403392
1422.23,0.190283,621087,400746
1426.56,0.194784,621375,396798
1429.8,0.197531,621616,394449
1433.04,0.200406,622129,392170
1436.27,0.202419,621526,389978
1439.5,0.204408,621113,387938
1442.72,0.206281,620921,386149
1445.94,0.208802,620270,383512
1450.23,0.212345,618860,379531
1453.44,0.214341,617697,377081
1456.64,0.217697,616264,373310
1459.85,0.220098,614413,370137
1463.04,0.222997,612307,366414
1466.24,0.225750,610032,362746
1469.43,0.228629,607345,358762
1473.67,0.234233,603789,352089
1476.85,0.238797,601175,346900
1480.02,0.244086,597737,340741
1483.19,0.249999,594479,334301
1486.36,0.254381,591232,329137
1489.52,0.259270,587853,323593
1492.68,0.261671,583875,319631
1496.89,0.263297,578062,315266
1500.03,0.263927,574159,312684
1503.18,0.264291,570285,310314
1506.32,0.263463,565444,308267
1509.45,0.261716,560571,306842
1512.58,0.260002,555821,305445
1515.71,0.258199,550344,303693
1519.87,0.255486,543983,302064
1522.99,0.252747,538764,301059
1526.1,0.250319,533692,299897
1529.21,0.248436,527902,297932
1532.32,0.245062,521886,296834
1535.42,0.241613,515888,295762
1538.51,0.239033,509987,294121
1541.6,0.236304,503936,292463
1545.72,0.232805,494694,289422
1548.8,0.229406,488378,287972
1551.88,0.227221,481832,285545
1554.95,0.224886,474989,283007
1558.02,0.224308,467818,279106
1561.08,0.222292,460730,276156
1564.15,0.221102,454170,272971
1568.22,0.220150,444181,267553
1571.27,0.219798,436947,263409
1574.32,0.219230,429598,259318
1577.36,0.217243,422039,255923
1580.4,0.216158,414375,251904
1583.43,0.214488,406354,247980
1586.46,0.213141,398475,243927
1590.49,0.211292,388982,239132
1593.51,0.209171,380708,235191
1596.53,0.207174,372727,231322
1599.54,0.205343,365060,227521
1602.55,0.203082,357543,223999
1605.55,0.201421,349495,219796
1608.55,0.199505,341154,215499
1612.54,0.197458,330877,209995
1615.53,0.195447,322904,205886
1618.51,0.194642,315116,201293
1621.49,0.193608,307217,196715
1624.47,0.191564,299481,192666
1627.44,0.191334,292112,188025
1630.41,0.189525,284245,183725
1634.36,0.188631,274079,177519
1637.32,0.189211,266916,172649
1640.27,0.188866,259612,168058
1643.22,0.187295,251804,163594
1646.16,0.184821,244348,159657
1649.1,0.187070,236703,153863
1652.04,0.184693,228171,149131
1655.95,0.181387,215408,141865
1658.88,0.176383,204937,136533
1661.8,0.172141,193395,130108
1664.72,0.164121,179728,123167
1667.63,0.153344,163642,114961
1670.54,0.136888,146312,106756
1673.44,0.123563,128451,96644
1677.31,0.103841,105080,82733
1680.21,0.093012,88906,71766
1683.1,0.087756,75033,61305
1685.99,0.088933,63520,51758
1688.87,0.093850,53714,43275
1691.75,0.094957,45653,36687
1694.62,0.106285,39137,30641
1697.49,0.110954,33776,26161
1701.31,0.117890,28175,21477