File: samples/wool/wool-000811/Column 1_050603_20150331_122452.csv
Method:,Column 1,,
Host Date-Time:,31/3/15 @ 12:24:52,,
Header Version:,1,,
System Temp (C):,34.03,,
Detector Temp (C):,34.8,,
Humidity (%):,1.71,,
Lamp PD:,3818,,
Shift Vector Coefficients:,-10.5391,0.0761263,-0.000134223,,
Pixel to Wavelength Coefficients:,1775.68,-0.916766,-0.000235065,,
Serial Number:,5510004,,
Scan Config Name:,Column 1,,
Scan Config Type:,Slew,,
Section 1,,
Start wavelength (nm):,900,,
End wavelength (nm):,1700,,
Pattern Pixel Width (nm):,   7.03,,,,
Exposure (ms):,  0.635,,,,
Digital Resolution:,228,,
Num Repeats:,6,,
PGA Gain:,64,,
Total Measurement Time in sec:,  2.720,,
Wavelength (nm),Absorbance (AU),Reference Signal (unitless),Sample Signal (unitless)
901.51,0.066840,108485,93010
905.376,0.072477,121306,102661
909.237,0.076080,131909,110712
913.095,0.078988,143299,119469
916.948,0.079591,156982,130695
922.079,0.080851,179937,149372
925.923,0.081307,200504,166271
929.762,0.083209,222660,183837
933.597,0.081502,244426,202603
937.427,0.080828,263972,219144
941.254,0.080583,281845,234114
945.076,0.078960,297271,247852
950.165,0.078292,315605,263543
953.978,0.077686,328029,274300
957.786,0.077661,340470,284720
961.59,0.077834,352317,294510
965.389,0.077885,363056,303451
969.185,0.077734,373162,312006
972.976,0.078228,382632,319561
976.763,0.078684,391202,326375
981.806,0.078975,400190,333650
985.583,0.080090,406088,337699
989.355,0.080683,410162,340622
993.124,0.080115,412868,343318
996.888,0.081568,414263,343327
1000.65,0.081400,415476,344466
1004.4,0.082574,415479,343538
1009.41,0.083540,414358,341850
1013.15,0.084141,412923,340195
1016.89,0.085095,411526,338300
1020.63,0.084806,409066,336502
1024.36,0.085566,406777,334034
1028.09,0.084349,404427,333036
1031.82,0.084490,401911,330857
1036.78,0.084125,398410,328250
1040.49,0.083877,396204,326619
1044.2,0.083631,394236,325181
1047.91,0.083989,392042,323105
1051.61,0.083094,389823,321939
1055.31,0.083079,388234,320638
1059,0.082584,387599,320478
1063.92,0.081830,386688,320281
1067.61,0.080895,386598,320896
1071.29,0.080698,387377,321689
1074.96,0.080140,388536,323066
1078.63,0.079287,389855,324800
1082.3,0.078801,391215,326298
1085.96,0.077858,393215,328679
1090.84,0.077391,396270,331589
1094.49,0.076396,398760,334438
1098.14,0.075983,400987,336626
1101.79,0.075442,403477,339138
1105.43,0.075464,406116,341339
1109.06,0.074067,407701,343775
1112.7,0.074093,409859,345574
1117.53,0.073651,412494,348150
1121.15,0.074872,414909,349205
1124.77,0.074571,416559,350837
1128.38,0.074868,418532,352258
1131.99,0.076094,419956,352460
1135.6,0.077934,421946,352633
1139.2,0.079351,423881,353096
1143.99,0.081336,426786,353895
1147.58,0.081755,428617,355070
1151.17,0.083168,431169,356024
1154.75,0.083254,433579,357943
1158.33,0.085484,436264,358315
1161.91,0.086697,439132,359665
1165.48,0.088706,442389,360660
1169.04,0.091026,446101,361749
1173.79,0.094376,451929,363659
1177.34,0.096868,456026,364856
1180.9,0.098861,461306,367391
1184.44,0.100777,467657,370809
1187.99,0.101832,473969,374902
1191.52,0.101458,479856,379886
1195.06,0.101340,487372,385941
1199.76,0.100937,497347,394205
1203.29,0.100138,504311,400461
1206.81,0.099815,511507,406478
1210.33,0.098979,519078,413289
1213.84,0.098590,527163,420102
1217.35,0.097863,534208,426430
1220.85,0.098796,540472,430504
1225.51,0.095997,549929,440869
1229.01,0.096443,556888,445990
1232.5,0.094836,562180,451897
1235.98,0.094826,567975,456566
1239.46,0.093615,574815,463354
1242.94,0.093144,582782,470286
1246.41,0.092085,591476,478467
1251.03,0.092036,604016,488666
1254.5,0.092157,612289,495222
1257.96,0.092481,619125,500377
1261.41,0.093163,624551,503970
1264.86,0.093553,629900,507830
1268.31,0.094281,634345,510557
1271.75,0.094903,638574,513226
1276.33,0.095137,642499,516102
1279.76,0.095134,645905,518841
1283.19,0.094109,648307,522002
1286.61,0.093766,650446,524137
1290.03,0.093614,652132,525680
1293.44,0.093306,653907,527485
1296.85,0.093173,655963,529305
1301.39,0.092682,657349,531024
1304.8,0.092674,657558,531202
1308.19,0.093204,658515,531327
1311.58,0.092975,658804,531840
1314.97,0.093234,659011,531690
1318.36,0.093729,658272,530489
1321.73,0.094247,658022,529656
1326.23,0.094948,657870,528679
1329.6,0.095494,656482,526901
1332.97,0.096544,654926,524382
1336.33,0.097536,653727,522228
1339.69,0.099156,652497,519305
1343.04,0.100410,649913,515757
1346.39,0.102491,647671,511521
1349.73,0.104427,645338,507412
1354.18,0.107340,641175,500768
1357.52,0.109597,638376,495998
1360.85,0.111594,635805,491734
1364.17,0.113206,633413,488069
1367.49,0.115795,631026,483339
1370.81,0.118166,628050,478441
1374.12,0.119154,625034,475061
1378.54,0.122515,620272,467808
1381.84,0.125488,616892,462084
1385.14,0.129557,613613,455342
1388.43,0.132775,611526,450443
1391.72,0.136635,610663,445827
1395.01,0.140957,610634,441392
1398.29,0.145354,611700,437708
1402.66,0.151944,614051,432773
1405.93,0.156971,616268,429337
1409.2,0.161382,617795,426052
1412.46,0.166061,618872,422221
1415.72,0.170140,619795,418898
1418.98,0.173365,620495,416268
1422.23,0.176667,621087,413509
1426.56,0.180740,621375,409839
1429.8,0.183019,621616,407853
1433.04,0.185786,622129,405597
1436.27,0.187912,621526,403225
1439.5,0.190115,621113,400918
1442.72,0.192287,620921,398795
1445.94,0.194877,620270,396008
1450.23,0.198231,618860,392068
1453.44,0.201193,617697,388671
1456.64,0.203710,616264,385529
1459.85,0.206602,614413,381820
1463.04,0.209688,612307,377817
1466.24,0.212526,610032,373961
1469.43,0.216796,607345,368671
1473.67,0.222729,603789,361540
1476.85,0.227805,601175,355792
1480.02,0.234246,597737,348549
1483.19,0.240102,594479,342007
1486.36,0.246534,591232,335138
1489.52,0.250680,587853,330057
1492.68,0.253858,583875,325433
1496.89,0.256136,578062,320508
1500.03,0.256514,574159,318067
1503.18,0.256364,570285,316030
1506.32,0.255894,565444,313686
1509.45,0.254547,560571,311949
1512.58,0.252848,555821,310518
1515.71,0.250835,550344,308887
1519.87,0.247946,543983,307354
1522.99,0.244730,538764,306668
1526.1,0.242227,533692,305537
1529.21,0.240263,527902,303592
1532.32,0.236985,521886,302406
1535.42,0.233999,515888,300993
1538.51,0.231107,509987,299538
1541.6,0.227626,503936,298366
1545.72,0.224119,494694,295269
1548.8,0.221776,488378,293076
1551.88,0.219569,481832,290621
1554.95,0.216943,474989,288231
1558.02,0.215741,467818,284666
1561.08,0.214234,460730,281328
1564.15,0.213938,454170,277511
1568.22,0.212846,444181,272091
1571.27,0.213222,436947,267428
1574.32,0.211636,429598,263892
1577.36,0.210267,422039,260067
1580.4,0.209349,414375,255885
1583.43,0.208121,406354,251642
1586.46,0.206582,398475,247639
1590.49,0.204339,388982,242991
1593.51,0.201686,380708,239280
1596.53,0.200105,372727,235118
1599.54,0.198354,365060,231212
1602.55,0.196196,357543,227579
1605.55,0.193969,349495,223600
1608.55,0.192090,341154,219210
1612.54,0.190433,330877,213419
1615.53,0.189651,322904,208652
1618.51,0.188449,315116,204184
1621.49,0.187391,307217,199551
1624.47,0.185638,299481,195313
1627.44,0.186038,292112,190332
1630.41,0.183688,284245,186211
1634.36,0.181531,274079,180445
1637.32,0.182023,266916,175530
1640.27,0.181695,259612,170856
1643.22,0.178971,251804,166760
1646.16,0.178561,244348,161975
1649.1,0.177713,236703,157214
1652.04,0.176843,228171,151851
1655.95,0.173526,215408,144456
1658.88,0.169419,204937,138740
1661.8,0.164515,193395,132413
1664.72,0.156121,179728,125457
1667.63,0.143820,163642,117510
1670.54,0.130692,146312,108290
1673.44,0.115266,128451,98508
1677.31,0.094751,105080,84483
1680.21,0.079541,88906,74027
1683.1,0.077749,75033,62734
1685.99,0.076632,63520,53245
1688.87,0.080305,53714,44646
1691.75,0.085983,45653,37453
1694.62,0.086137,39137,32096
1697.49,0.092382,33776,27304
1701.31,0.100859,28175,22336