File: samples/wool/wool-000811/Column 1_050627_20150331_123637.csv
Method:,Column 1,,
Host Date-Time:,31/3/15 @ 12:36:37,,
Header Version:,1,,
System Temp (C):,34.17,,
Detector Temp (C):,35.09,,
Humidity (%):,1.56,,
Lamp PD:,3818,,
Shift Vector Coefficients:,-10.5391,0.0761263,-0.000134223,,
Pixel to Wavelength Coefficients:,1775.68,-0.916766,-0.000235065,,
Serial Number:,5510004,,
Scan Config Name:,Column 1,,
Scan Config Type:,Slew,,
Section 1,,
Start wavelength (nm):,900,,
End wavelength (nm):,1700,,
Pattern Pixel Width (nm):,   7.03,,,,
Exposure (ms):,  0.635,,,,
Digital Resolution:,228,,
Num Repeats:,6,,
PGA Gain:,64,,
Total Measurement Time in sec:,  2.672,,
Wavelength (nm),Absorbance (AU),Reference Signal (unitless),Sample Signal (unitless)
901.51,0.070366,108485,92258
905.376,0.074763,121306,102122
909.237,0.078282,131909,110152
913.095,0.078832,143299,119512
916.948,0.079764,156982,130643
922.079,0.081730,179937,149070
925.923,0.082649,200504,165758
929.762,0.082985,222660,183932
933.597,0.083711,244426,201575
937.427,0.081425,263972,218843
941.254,0.080642,281845,234082
945.076,0.079776,297271,247387
950.165,0.078574,315605,263372
953.978,0.077484,328029,274428
957.786,0.077365,340470,284914
961.59,0.077456,352317,294766
965.389,0.077600,363056,303650
969.185,0.077398,373162,312248
972.976,0.077873,382632,319822
976.763,0.078203,391202,326737
981.806,0.078775,400190,333804
985.583,0.079020,406088,338532
989.355,0.080117,410162,341066
993.124,0.080045,412868,343373
996.888,0.080699,414263,344015
1000.65,0.081242,415476,344591
1004.4,0.082887,415479,343291
1009.41,0.083782,414358,341660
1013.15,0.084644,412923,339801
1016.89,0.084488,411526,338773
1020.63,0.084617,409066,336648
1024.36,0.084721,406777,334684
1028.09,0.084320,404427,333058
1031.82,0.084484,401911,330861
1036.78,0.083831,398410,328473
1040.49,0.084346,396204,326267
1044.2,0.084326,394236,324661
1047.91,0.083359,392042,323574
1051.61,0.083719,389823,321476
1055.31,0.082927,388234,320750
1059,0.082701,387599,320392
1063.92,0.081296,386688,320675
1067.61,0.080476,386598,321206
1071.29,0.080773,387377,321633
1074.96,0.079800,388536,323319
1078.63,0.079032,389855,324991
1082.3,0.077930,391215,326953
1085.96,0.077368,393215,329050
1090.84,0.077128,396270,331790
1094.49,0.075965,398760,334770
1098.14,0.075490,400987,337008
1101.79,0.074405,403477,339949
1105.43,0.074106,406116,342408
1109.06,0.073614,407701,344134
1112.7,0.073452,409859,346085
1117.53,0.072926,412494,348732
1121.15,0.073530,414909,350286
1124.77,0.074012,416559,351289
1128.38,0.074349,418532,352679
1131.99,0.075561,419956,352893
1135.6,0.077268,421946,353174
1139.2,0.078031,423881,354171
1143.99,0.080381,426786,354674
1147.58,0.081104,428617,355603
1151.17,0.082292,431169,356743
1154.75,0.082647,433579,358444
1158.33,0.083820,436264,359691
1161.91,0.085789,439132,360418
1165.48,0.087923,442389,361311
1169.04,0.090022,446101,362586
1173.79,0.093506,451929,364388
1177.34,0.095753,456026,365794
1180.9,0.097559,461306,368494
1184.44,0.099875,467657,371580
1187.99,0.100616,473969,375953
1191.52,0.100642,479856,380600
1195.06,0.100752,487372,386464
1199.76,0.099914,497347,395135
1203.29,0.099227,504311,401302
1206.81,0.098875,511507,407358
1210.33,0.098250,519078,413983
1213.84,0.097603,527163,421058
1217.35,0.097153,534208,427127
1220.85,0.095906,540472,433378
1225.51,0.095627,549929,441245
1229.01,0.095118,556888,447352
1232.5,0.094553,562180,452191
1235.98,0.093885,567975,457556
1239.46,0.092699,574815,464332
1242.94,0.091530,582782,472037
1246.41,0.091194,591476,479450
1251.03,0.091224,604016,489581
1254.5,0.091148,612289,496373
1257.96,0.091746,619125,501224
1261.41,0.092075,624551,505234
1264.86,0.092407,629900,509172
1268.31,0.093248,634345,511773
1271.75,0.093963,638574,514337
1276.33,0.093818,642499,517672
1279.76,0.094076,645905,520107
1283.19,0.093355,648307,522908
1286.61,0.092469,650446,525705
1290.03,0.092917,652132,526524
1293.44,0.092348,653907,528650
1296.85,0.092113,655963,530599
1301.39,0.091599,657349,532350
1304.8,0.091557,657558,532571
1308.19,0.091813,658515,533031
1311.58,0.091938,658804,533112
1314.97,0.092190,659011,532970
1318.36,0.092893,658272,531511
1321.73,0.092831,658022,531385
1326.23,0.093869,657870,529994
1329.6,0.094250,656482,528412
1332.97,0.094810,654926,526480
1336.33,0.095749,653727,524382
1339.69,0.097434,652497,521368
1343.04,0.099212,649913,517182
1346.39,0.101417,647671,512788
1349.73,0.102759,645338,509364
1354.18,0.105325,641175,503097
1357.52,0.107580,638376,498307
1360.85,0.109411,635805,494212
1364.17,0.111403,633413,490099
1367.49,0.114088,631026,485243
1370.81,0.115665,628050,481204
1374.12,0.117741,625034,476609
1378.54,0.120567,620272,469910
1381.84,0.123331,616892,464385
1385.14,0.126116,613613,458964
1388.43,0.129721,611526,453622
1391.72,0.133585,610663,448969
1395.01,0.137252,610634,445173
1398.29,0.141494,611700,441616
1402.66,0.147821,614051,436901
1405.93,0.151783,616268,434497
1409.2,0.156484,617795,430884
1412.46,0.160184,618872,427973
1415.72,0.164656,619795,424221
1418.98,0.167990,620495,421452
1422.23,0.170988,621087,418952
1426.56,0.174721,621375,415559
1429.8,0.177233,621616,413323
1433.04,0.179288,622129,411711
1436.27,0.181499,621526,409223
1439.5,0.183462,621113,407107
1442.72,0.186427,620921,404212
1445.94,0.188828,620270,401562
1450.23,0.192233,618860,397520
1453.44,0.195181,617697,394089
1456.64,0.198009,616264,390623
1459.85,0.200242,614413,387452
1463.04,0.203901,612307,382885
1466.24,0.207607,610032,378221
1469.43,0.210722,607345,373864
1473.67,0.217894,603789,365587
1476.85,0.224152,601175,358797
1480.02,0.229768,597737,352162
1483.19,0.236686,594479,344707
1486.36,0.243003,591232,337874
1489.52,0.247761,587853,332283
1492.68,0.251252,583875,327392
1496.89,0.253795,578062,322240
1500.03,0.253540,574159,320252
1503.18,0.254050,570285,317718
1506.32,0.253692,565444,315281
1509.45,0.251650,560571,314037
1512.58,0.249933,555821,312609
1515.71,0.248215,550344,310756
1519.87,0.244804,543983,309586
1522.99,0.241704,538764,308812
1526.1,0.239759,533692,307278
1529.21,0.237110,527902,305804
1532.32,0.233555,521886,304804
1535.42,0.230692,515888,303294
1538.51,0.228324,509987,301464
1541.6,0.225748,503936,299659
1545.72,0.221310,494694,297185
1548.8,0.218428,488378,295344
1551.88,0.215718,481832,293209
1554.95,0.214441,474989,289896
1558.02,0.212670,467818,286686
1561.08,0.212042,460730,282751
1564.15,0.211712,454170,278937
1568.22,0.210138,444181,273793
1571.27,0.209649,436947,269637
1574.32,0.208756,429598,265648
1577.36,0.207635,422039,261648
1580.4,0.206438,414375,257606
1583.43,0.204122,406354,253970
1586.46,0.202762,398475,249827
1590.49,0.201645,388982,244503
1593.51,0.199885,380708,240274
1596.53,0.197325,372727,236628
1599.54,0.195949,365060,232496
1602.55,0.194320,357543,228564
1605.55,0.191357,349495,224949
1608.55,0.189678,341154,220431
1612.54,0.188055,330877,214591
1615.53,0.185417,322904,210696
1618.51,0.185304,315116,205668
1621.49,0.184081,307217,201078
1624.47,0.183856,299481,196116
1627.44,0.183059,292112,191642
1630.41,0.180729,284245,187484
1634.36,0.180461,274079,180890
1637.32,0.180002,266916,176349
1640.27,0.179178,259612,171849
1643.22,0.178305,251804,167016
1646.16,0.177356,244348,162425
1649.1,0.176168,236703,157774
1652.04,0.173930,228171,152873
1655.95,0.171188,215408,145236
1658.88,0.167386,204937,139391
1661.8,0.163971,193395,132579
1664.72,0.153863,179728,126111
1667.63,0.142447,163642,117882
1670.54,0.128903,146312,108737
1673.44,0.111351,128451,99400
1677.31,0.090882,105080,85239
1680.21,0.079500,88906,74034
1683.1,0.070738,75033,63755
1685.99,0.072233,63520,53787
1688.87,0.078480,53714,44834
1691.75,0.080464,45653,37932
1694.62,0.089928,39137,31817
1697.49,0.094167,33776,27192
1701.31,0.101559,28175,22300