File: samples/wool/wool-000811/Column 1_050573_20150331_121038.csv
Method:,Column 1,,
Host Date-Time:,31/3/15 @ 12:10:38,,
Header Version:,1,,
System Temp (C):,34.16,,
Detector Temp (C):,34.28,,
Humidity (%):,1.76,,
Lamp PD:,3818,,
Shift Vector Coefficients:,-10.5391,0.0761263,-0.000134223,,
Pixel to Wavelength Coefficients:,1775.68,-0.916766,-0.000235065,,
Serial Number:,5510004,,
Scan Config Name:,Column 1,,
Scan Config Type:,Slew,,
Section 1,,
Start wavelength (nm):,900,,
End wavelength (nm):,1700,,
Pattern Pixel Width (nm):,   7.03,,,,
Exposure (ms):,  0.635,,,,
Digital Resolution:,228,,
Num Repeats:,6,,
PGA Gain:,64,,
Total Measurement Time in sec:,  2.681,,
Wavelength (nm),Absorbance (AU),Reference Signal (unitless),Sample Signal (unitless)
901.51,0.034420,108485,100219
905.376,0.041488,121306,110254
909.237,0.042699,131909,119557
913.095,0.043564,143299,129622
916.948,0.045686,156982,141307
922.079,0.047769,179937,161195
925.923,0.047338,200504,179798
929.762,0.049479,222660,198684
933.597,0.049092,244426,218301
937.427,0.048120,263972,236286
941.254,0.047300,281845,252761
945.076,0.047684,297271,266360
950.165,0.046965,315605,283256
953.978,0.046182,328029,294938
957.786,0.046389,340470,305978
961.59,0.046855,352317,316285
965.389,0.047092,363056,325748
969.185,0.046597,373162,335197
972.976,0.047400,382632,343069
976.763,0.047924,391202,350330
981.806,0.048598,400190,357823
985.583,0.049358,406088,362462
989.355,0.049567,410162,365922
993.124,0.050113,412868,367873
996.888,0.050530,414263,368762
1000.65,0.051695,415476,368851
1004.4,0.052985,415479,367760
1009.41,0.054140,414358,365793
1013.15,0.054421,412923,364291
1016.89,0.054774,411526,362763
1020.63,0.054982,409066,360422
1024.36,0.055026,406777,358369
1028.09,0.054704,404427,356563
1031.82,0.054047,401911,354881
1036.78,0.053841,398410,351957
1040.49,0.053171,396204,350548
1044.2,0.052977,394236,348963
1047.91,0.052644,392042,347287
1051.61,0.052582,389823,345371
1055.31,0.052235,388234,344238
1059,0.051241,387599,344462
1063.92,0.049798,386688,344796
1067.61,0.049268,386598,345137
1071.29,0.048774,387377,346226
1074.96,0.048249,388536,347682
1078.63,0.047959,389855,349095
1082.3,0.047241,391215,350893
1085.96,0.045908,393215,353771
1090.84,0.045576,396270,356792
1094.49,0.045340,398760,359229
1098.14,0.044592,400987,361858
1101.79,0.044565,403477,364128
1105.43,0.044330,406116,366708
1109.06,0.044257,407701,368201
1112.7,0.043829,409859,370515
1117.53,0.043812,412494,372911
1121.15,0.045020,414909,374053
1124.77,0.045483,416559,375140
1128.38,0.047090,418532,375525
1131.99,0.047903,419956,376098
1135.6,0.049575,421946,376428
1139.2,0.051384,423881,376582
1143.99,0.054076,426786,376820
1147.58,0.054953,428617,377673
1151.17,0.055974,431169,379030
1154.75,0.056872,433579,380361
1158.33,0.058454,436264,381325
1161.91,0.060802,439132,381762
1165.48,0.063588,442389,382135
1169.04,0.065874,446101,383318
1173.79,0.069915,451929,384729
1177.34,0.072283,456026,386106
1180.9,0.074289,461306,388777
1184.44,0.075851,467657,392714
1187.99,0.077263,473969,396723
1191.52,0.076770,479856,402106
1195.06,0.076630,487372,408536
1199.76,0.075373,497347,418106
1203.29,0.074630,504311,424686
1206.81,0.074082,511507,431290
1210.33,0.073546,519078,438214
1213.84,0.072529,527163,446083
1217.35,0.071666,534208,452944
1220.85,0.071054,540472,458901
1225.51,0.069948,549929,468121
1229.01,0.069233,556888,474826
1232.5,0.068583,562180,480056
1235.98,0.068414,567975,485194
1239.46,0.067362,574815,492228
1242.94,0.066239,582782,500342
1246.41,0.065791,591476,508331
1251.03,0.065833,604016,519058
1254.5,0.065548,612289,526512
1257.96,0.066217,619125,531571
1261.41,0.066697,624551,535638
1264.86,0.066994,629900,539856
1268.31,0.067959,634345,542458
1271.75,0.068624,638574,545239
1276.33,0.068945,642499,548186
1279.76,0.068718,645905,551379
1283.19,0.068262,648307,554011
1286.61,0.068090,650446,556059
1290.03,0.067424,652132,558357
1293.44,0.066929,653907,560515
1296.85,0.066704,655963,562569
1301.39,0.066723,657349,563732
1304.8,0.066499,657558,564202
1308.19,0.066636,658515,564845
1311.58,0.066925,658804,564717
1314.97,0.067955,659011,563557
1318.36,0.067543,658272,563459
1321.73,0.068044,658022,562596
1326.23,0.069342,657870,560787
1329.6,0.069889,656482,558899
1332.97,0.070662,654926,556583
1336.33,0.071938,653727,553935
1339.69,0.073738,652497,550605
1343.04,0.075530,649913,546167
1346.39,0.077514,647671,541802
1349.73,0.079727,645338,537106
1354.18,0.082781,641175,529902
1357.52,0.085336,638376,524494
1360.85,0.087695,635805,519552
1364.17,0.089897,633413,514980
1367.49,0.092143,631026,510392
1370.81,0.094377,628050,505379
1374.12,0.096925,625034,500010
1378.54,0.099993,620272,492707
1381.84,0.103438,616892,486151
1385.14,0.107354,613613,479226
1388.43,0.111018,611526,473584
1391.72,0.116067,610663,467449
1395.01,0.120817,610634,462343
1398.29,0.126027,611700,457627
1402.66,0.132671,614051,452411
1405.93,0.138560,616268,447929
1409.2,0.143279,617795,444187
1412.46,0.148799,618872,439341
1415.72,0.152811,619795,435950
1418.98,0.157211,620495,432043
1422.23,0.160662,621087,429033
1426.56,0.164435,621375,425519
1429.8,0.168101,621616,422106
1433.04,0.169847,622129,420759
1436.27,0.172448,621526,417841
1439.5,0.174129,621113,415950
1442.72,0.177265,620921,412830
1445.94,0.179517,620270,410264
1450.23,0.183593,618860,405508
1453.44,0.186430,617697,402111
1456.64,0.189975,616264,397916
1459.85,0.192476,614413,394443
1463.04,0.195006,612307,390808
1466.24,0.199055,610032,385743
1469.43,0.202887,607345,380670
1473.67,0.209186,603789,372992
1476.85,0.214602,601175,366774
1480.02,0.221721,597737,358748
1483.19,0.228238,594479,351478
1486.36,0.234320,591232,344697
1489.52,0.239801,587853,338429
1492.68,0.244091,583875,332835
1496.89,0.246277,578062,327867
1500.03,0.246747,574159,325301
1503.18,0.246122,570285,323571
1506.32,0.245540,565444,321255
1509.45,0.244588,560571,319185
1512.58,0.242837,555821,317759
1515.71,0.240785,550344,316118
1519.87,0.237193,543983,315059
1522.99,0.234714,538764,313823
1526.1,0.231601,533692,313105
1529.21,0.228957,527902,311599
1532.32,0.225665,521886,310392
1535.42,0.222396,515888,309143
1538.51,0.219217,509987,307852
1541.6,0.216499,503936,306109
1545.72,0.211940,494694,303666
1548.8,0.208184,488378,302393
1551.88,0.205947,481832,299881
1554.95,0.203608,474989,297218
1558.02,0.202947,467818,293177
1561.08,0.201013,460730,290024
1564.15,0.200294,454170,286368
1568.22,0.198145,444181,281459
1571.27,0.198438,436947,276688
1574.32,0.196906,429598,272996
1577.36,0.195949,422039,268784
1580.4,0.195094,414375,264423
1583.43,0.193165,406354,260459
1586.46,0.191271,398475,256525
1590.49,0.188381,388982,252086
1593.51,0.186540,380708,247772
1596.53,0.183601,372727,244225
1599.54,0.182301,365060,239918
1602.55,0.179758,357543,236358
1605.55,0.177919,349495,232018
1608.55,0.175826,341154,227575
1612.54,0.172999,330877,222161
1615.53,0.171458,322904,217578
1618.51,0.170519,315116,212790
1621.49,0.169403,307217,207990
1624.47,0.167289,299481,203742
1627.44,0.166509,292112,199086
1630.41,0.164883,284245,194451
1634.36,0.163411,274079,188133
1637.32,0.163037,266916,183374
1640.27,0.161938,259612,178808
1643.22,0.161733,251804,173512
1646.16,0.160572,244348,168825
1649.1,0.158373,236703,164373
1652.04,0.158004,228171,158583
1655.95,0.155431,215408,150602
1658.88,0.152002,204937,144417
1661.8,0.146736,193395,137946
1664.72,0.139908,179728,130229
1667.63,0.128765,163642,121655
1670.54,0.116333,146312,111930
1673.44,0.102687,128451,101403
1677.31,0.084569,105080,86487
1680.21,0.074409,88906,74907
1683.1,0.073293,75033,63381
1685.99,0.077113,63520,53186
1688.87,0.074440,53714,45253
1691.75,0.086052,45653,37447
1694.62,0.081453,39137,32444
1697.49,0.091969,33776,27330
1701.31,0.098996,28175,22432