File: samples/wool/wool-000811/Column 1_050624_20150331_123505.csv
Method:,Column 1,,
Host Date-Time:,31/3/15 @ 12:35:5,,
Header Version:,1,,
System Temp (C):,34.11,,
Detector Temp (C):,35.09,,
Humidity (%):,1.56,,
Lamp PD:,3818,,
Shift Vector Coefficients:,-10.5391,0.0761263,-0.000134223,,
Pixel to Wavelength Coefficients:,1775.68,-0.916766,-0.000235065,,
Serial Number:,5510004,,
Scan Config Name:,Column 1,,
Scan Config Type:,Slew,,
Section 1,,
Start wavelength (nm):,900,,
End wavelength (nm):,1700,,
Pattern Pixel Width (nm):,   7.03,,,,
Exposure (ms):,  0.635,,,,
Digital Resolution:,228,,
Num Repeats:,6,,
PGA Gain:,64,,
Total Measurement Time in sec:,  2.671,,
Wavelength (nm),Absorbance (AU),Reference Signal (unitless),Sample Signal (unitless)
901.51,0.069693,108485,92401
905.376,0.076600,121306,101691
909.237,0.075061,131909,110972
913.095,0.077134,143299,119980
916.948,0.079116,156982,130838
922.079,0.080994,179937,149323
925.923,0.082211,200504,165925
929.762,0.082013,222660,184344
933.597,0.081958,244426,202390
937.427,0.081237,263972,218938
941.254,0.080466,281845,234177
945.076,0.079472,297271,247560
950.165,0.078416,315605,263468
953.978,0.077221,328029,274594
957.786,0.077397,340470,284893
961.59,0.077309,352317,294866
965.389,0.077470,363056,303741
969.185,0.077751,373162,311994
972.976,0.078158,382632,319612
976.763,0.078163,391202,326767
981.806,0.078769,400190,333808
985.583,0.079512,406088,338149
989.355,0.079839,410162,341284
993.124,0.080275,412868,343191
996.888,0.080086,414263,344501
1000.65,0.081332,415476,344520
1004.4,0.082301,415479,343754
1009.41,0.083638,414358,341773
1013.15,0.084319,412923,340056
1016.89,0.084777,411526,338548
1020.63,0.084816,409066,336494
1024.36,0.084341,406777,334977
1028.09,0.084100,404427,333227
1031.82,0.084116,401911,331142
1036.78,0.084358,398410,328074
1040.49,0.083673,396204,326773
1044.2,0.083498,394236,325281
1047.91,0.083209,392042,323686
1051.61,0.082629,389823,322284
1055.31,0.082096,388234,321364
1059,0.081987,387599,320919
1063.92,0.081321,386688,320656
1067.61,0.080654,386598,321074
1071.29,0.080418,387377,321896
1074.96,0.079537,388536,323515
1078.63,0.078938,389855,325061
1082.3,0.078188,391215,326759
1085.96,0.078023,393215,328554
1090.84,0.076190,396270,332507
1094.49,0.075733,398760,334949
1098.14,0.075633,400987,336897
1101.79,0.074773,403477,339661
1105.43,0.074887,406116,341793
1109.06,0.073540,407701,344193
1112.7,0.073541,409859,346014
1117.53,0.073108,412494,348586
1121.15,0.073626,414909,350209
1124.77,0.073524,416559,351684
1128.38,0.074497,418532,352559
1131.99,0.075247,419956,353148
1135.6,0.076643,421946,353683
1139.2,0.078092,423881,354121
1143.99,0.080474,426786,354598
1147.58,0.080790,428617,355860
1151.17,0.081977,431169,357002
1154.75,0.083161,433579,358020
1158.33,0.083995,436264,359546
1161.91,0.085909,439132,360318
1165.48,0.087760,442389,361447
1169.04,0.090597,446101,362106
1173.79,0.093117,451929,364715
1177.34,0.095588,456026,365933
1180.9,0.097711,461306,368365
1184.44,0.099754,467657,371684
1187.99,0.100804,473969,375791
1191.52,0.100779,479856,380480
1195.06,0.100693,487372,386516
1199.76,0.100014,497347,395044
1203.29,0.099177,504311,401348
1206.81,0.098361,511507,407841
1210.33,0.098185,519078,414045
1213.84,0.097496,527163,421162
1217.35,0.097186,534208,427095
1220.85,0.096179,540472,433106
1225.51,0.095103,549929,441778
1229.01,0.095140,556888,447330
1232.5,0.094336,562180,452417
1235.98,0.093748,567975,457700
1239.46,0.092756,574815,464272
1242.94,0.091929,582782,471604
1246.41,0.091237,591476,479402
1251.03,0.091133,604016,489683
1254.5,0.091310,612289,496188
1257.96,0.091509,619125,501498
1261.41,0.092669,624551,504544
1264.86,0.092656,629900,508880
1268.31,0.093194,634345,511837
1271.75,0.094005,638574,514288
1276.33,0.094452,642499,516917
1279.76,0.093970,645905,520234
1283.19,0.093464,648307,522777
1286.61,0.093373,650446,524612
1290.03,0.092822,652132,526639
1293.44,0.092069,653907,528989
1296.85,0.091998,655963,530740
1301.39,0.091799,657349,532105
1304.8,0.091702,657558,532393
1308.19,0.091615,658515,533274
1311.58,0.091757,658804,533334
1314.97,0.092379,659011,532738
1318.36,0.092593,658272,531878
1321.73,0.093027,658022,531145
1326.23,0.093681,657870,530224
1329.6,0.094378,656482,528257
1332.97,0.095098,654926,526131
1336.33,0.096189,653727,523851
1339.69,0.097213,652497,521633
1343.04,0.099289,649913,517090
1346.39,0.101100,647671,513162
1349.73,0.103009,645338,509071
1354.18,0.105607,641175,502770
1357.52,0.107314,638376,498612
1360.85,0.109701,635805,493882
1364.17,0.111556,633413,489927
1367.49,0.113970,631026,485375
1370.81,0.115978,628050,480857
1374.12,0.118104,625034,476211
1378.54,0.120236,620272,470269
1381.84,0.123510,616892,464194
1385.14,0.126598,613613,458455
1388.43,0.129775,611526,453565
1391.72,0.133339,610663,449224
1395.01,0.137464,610634,444956
1398.29,0.141936,611700,441166
1402.66,0.147577,614051,437147
1405.93,0.152323,616268,433957
1409.2,0.156537,617795,430831
1412.46,0.161064,618872,427107
1415.72,0.165425,619795,423470
1418.98,0.168151,620495,421296
1422.23,0.171602,621087,418360
1426.56,0.175096,621375,415200
1429.8,0.177566,621616,413006
1433.04,0.180463,622129,410599
1436.27,0.182095,621526,408662
1439.5,0.183921,621113,406677
1442.72,0.186471,620921,404171
1445.94,0.189303,620270,401123
1450.23,0.192784,618860,397016
1453.44,0.195579,617697,393728
1456.64,0.198239,616264,390416
1459.85,0.201436,614413,386389
1463.04,0.204697,612307,382184
1466.24,0.208586,610032,377369
1469.43,0.211837,607345,372905
1473.67,0.218414,603789,365150
1476.85,0.224394,601175,358597
1480.02,0.230411,597737,351641
1483.19,0.236656,594479,344731
1486.36,0.243128,591232,337777
1489.52,0.248487,587853,331728
1492.68,0.251033,583875,327557
1496.89,0.253162,578062,322710
1500.03,0.254029,574159,319892
1503.18,0.254403,570285,317460
1506.32,0.253287,565444,315575
1509.45,0.251560,560571,314102
1512.58,0.250029,555821,312540
1515.71,0.247900,550344,310981
1519.87,0.244470,543983,309824
1522.99,0.241948,538764,308639
1526.1,0.240367,533692,306848
1529.21,0.236704,527902,306090
1532.32,0.233854,521886,304594
1535.42,0.231992,515888,302387
1538.51,0.228329,509987,301460
1541.6,0.225565,503936,299785
1545.72,0.221231,494694,297239
1548.8,0.218628,488378,295208
1551.88,0.215766,481832,293177
1554.95,0.214830,474989,289637
1558.02,0.213104,467818,286400
1561.08,0.211904,460730,282841
1564.15,0.211040,454170,279369
1568.22,0.209924,444181,273928
1571.27,0.209723,436947,269591
1574.32,0.209052,429598,265467
1577.36,0.207883,422039,261499
1580.4,0.207389,414375,257042
1583.43,0.205846,406354,252964
1586.46,0.204181,398475,249012
1590.49,0.201942,388982,244336
1593.51,0.199986,380708,240218
1596.53,0.198324,372727,236084
1599.54,0.196536,365060,232182
1602.55,0.193468,357543,229013
1605.55,0.191538,349495,224855
1608.55,0.190293,341154,220119
1612.54,0.188580,330877,214332
1615.53,0.185931,322904,210447
1618.51,0.185754,315116,205455
1621.49,0.185266,307217,200530
1624.47,0.183684,299481,196194
1627.44,0.182187,292112,192027
1630.41,0.181747,284245,187045
1634.36,0.179809,274079,181162
1637.32,0.179168,266916,176688
1640.27,0.178445,259612,172139
1643.22,0.178177,251804,167065
1646.16,0.178226,244348,162100
1649.1,0.177210,236703,157396
1652.04,0.174763,228171,152580
1655.95,0.171864,215408,145010
1658.88,0.167616,204937,139317
1661.8,0.163643,193395,132679
1664.72,0.154735,179728,125858
1667.63,0.140778,163642,118336
1670.54,0.127344,146312,109128
1673.44,0.111622,128451,99338
1677.31,0.089031,105080,85603
1680.21,0.077405,88906,74392
1683.1,0.071433,75033,63653
1685.99,0.071838,63520,53836
1688.87,0.077358,53714,44950
1691.75,0.078066,45653,38142
1694.62,0.084867,39137,32190
1697.49,0.096939,33776,27019
1701.31,0.098377,28175,22464