File: samples/wool/wool-000811/Column 1_050610_20150331_122826.csv
Method:,Column 1,,
Host Date-Time:,31/3/15 @ 12:28:26,,
Header Version:,1,,
System Temp (C):,34.07,,
Detector Temp (C):,34.88,,
Humidity (%):,1.66,,
Lamp PD:,3818,,
Shift Vector Coefficients:,-10.5391,0.0761263,-0.000134223,,
Pixel to Wavelength Coefficients:,1775.68,-0.916766,-0.000235065,,
Serial Number:,5510004,,
Scan Config Name:,Column 1,,
Scan Config Type:,Slew,,
Section 1,,
Start wavelength (nm):,900,,
End wavelength (nm):,1700,,
Pattern Pixel Width (nm):,   7.03,,,,
Exposure (ms):,  0.635,,,,
Digital Resolution:,228,,
Num Repeats:,6,,
PGA Gain:,64,,
Total Measurement Time in sec:,  2.667,,
Wavelength (nm),Absorbance (AU),Reference Signal (unitless),Sample Signal (unitless)
901.51,0.069759,108485,92387
905.376,0.075989,121306,101834
909.237,0.078002,131909,110223
913.095,0.078225,143299,119679
916.948,0.078761,156982,130945
922.079,0.080883,179937,149361
925.923,0.080688,200504,166508
929.762,0.082593,222660,184098
933.597,0.083067,244426,201874
937.427,0.080751,263972,219183
941.254,0.080633,281845,234087
945.076,0.079074,297271,247787
950.165,0.078668,315605,263315
953.978,0.077316,328029,274534
957.786,0.077774,340470,284646
961.59,0.077293,352317,294877
965.389,0.077533,363056,303697
969.185,0.077844,373162,311927
972.976,0.077676,382632,319967
976.763,0.078944,391202,326180
981.806,0.079096,400190,333557
985.583,0.079503,406088,338156
989.355,0.080177,410162,341019
993.124,0.080445,412868,343057
996.888,0.080552,414263,344131
1000.65,0.081921,415476,344053
1004.4,0.082270,415479,343779
1009.41,0.084208,414358,341325
1013.15,0.084472,412923,339936
1016.89,0.084412,411526,338833
1020.63,0.084601,409066,336661
1024.36,0.084875,406777,334566
1028.09,0.084815,404427,332679
1031.82,0.084528,401911,330828
1036.78,0.083635,398410,328621
1040.49,0.083654,396204,326787
1044.2,0.083376,394236,325372
1047.91,0.083147,392042,323732
1051.61,0.083803,389823,321414
1055.31,0.083177,388234,320565
1059,0.082266,387599,320713
1063.92,0.081313,386688,320662
1067.61,0.080476,386598,321206
1071.29,0.079631,387377,322480
1074.96,0.079201,388536,323765
1078.63,0.079639,389855,324537
1082.3,0.078171,391215,326772
1085.96,0.077241,393215,329146
1090.84,0.076644,396270,332160
1094.49,0.076417,398760,334422
1098.14,0.075359,400987,337110
1101.79,0.075793,403477,338864
1105.43,0.075144,406116,341591
1109.06,0.074037,407701,343799
1112.7,0.073499,409859,346047
1117.53,0.073629,412494,348168
1121.15,0.074453,414909,349542
1124.77,0.074398,416559,350977
1128.38,0.075254,418532,351945
1131.99,0.075760,419956,352731
1135.6,0.077608,421946,352898
1139.2,0.079106,423881,353295
1143.99,0.081343,426786,353889
1147.58,0.081175,428617,355545
1151.17,0.082500,431169,356572
1154.75,0.083163,433579,358018
1158.33,0.084510,436264,359120
1161.91,0.086668,439132,359689
1165.48,0.088391,442389,360922
1169.04,0.090573,446101,362126
1173.79,0.093916,451929,364044
1177.34,0.096286,456026,365345
1180.9,0.098181,461306,367966
1184.44,0.099867,467657,371587
1187.99,0.101229,473969,375423
1191.52,0.101031,479856,380259
1195.06,0.100739,487372,386475
1199.76,0.100593,497347,394518
1203.29,0.099398,504311,401144
1206.81,0.099128,511507,407121
1210.33,0.098746,519078,413511
1213.84,0.098307,527163,420376
1217.35,0.097796,534208,426495
1220.85,0.097063,540472,432225
1225.51,0.095845,549929,441023
1229.01,0.095212,556888,447256
1232.5,0.094797,562180,451937
1235.98,0.094423,567975,456990
1239.46,0.093667,574815,463299
1242.94,0.091941,582782,471591
1246.41,0.091617,591476,478983
1251.03,0.091731,604016,489010
1254.5,0.091698,612289,495745
1257.96,0.092174,619125,500731
1261.41,0.092591,624551,504635
1264.86,0.093251,629900,508183
1268.31,0.093893,634345,511014
1271.75,0.094378,638574,513846
1276.33,0.094536,642499,516817
1279.76,0.094373,645905,519751
1283.19,0.093805,648307,522367
1286.61,0.093389,650446,524593
1290.03,0.093515,652132,525800
1293.44,0.092567,653907,528383
1296.85,0.092796,655963,529765
1301.39,0.092316,657349,531472
1304.8,0.092349,657558,531600
1308.19,0.092326,658515,532402
1311.58,0.092467,658804,532463
1314.97,0.093191,659011,531743
1318.36,0.093306,658272,531006
1321.73,0.093577,658022,530473
1326.23,0.094291,657870,529479
1329.6,0.095233,656482,527218
1332.97,0.096294,654926,524684
1336.33,0.096828,653727,523080
1339.69,0.098930,652497,519575
1343.04,0.100124,649913,516097
1346.39,0.101827,647671,512304
1349.73,0.103389,645338,508626
1354.18,0.106732,641175,501469
1357.52,0.108855,638376,496846
1360.85,0.110291,635805,493211
1364.17,0.112383,633413,488995
1367.49,0.114848,631026,484395
1370.81,0.116833,628050,479912
1374.12,0.119415,625034,474776
1378.54,0.122045,620272,468314
1381.84,0.124811,616892,462805
1385.14,0.127747,613613,457244
1388.43,0.131952,611526,451297
1391.72,0.135417,610663,447079
1395.01,0.139761,610634,442609
1398.29,0.143919,611700,439157
1402.66,0.150098,614051,434617
1405.93,0.154873,616268,431416
1409.2,0.159609,617795,427795
1412.46,0.164079,618872,424152
1415.72,0.168170,619795,420802
1418.98,0.171308,620495,418245
1422.23,0.174497,621087,415581
1426.56,0.178597,621375,411867
1429.8,0.180978,621616,409774
1433.04,0.183570,622129,407672
1436.27,0.185791,621526,405199
1439.5,0.187761,621113,403097
1442.72,0.189762,620921,401120
1445.94,0.192741,620270,397960
1450.23,0.195820,618860,394251
1453.44,0.198700,617697,390909
1456.64,0.201745,616264,387277
1459.85,0.204474,614413,383695
1463.04,0.207560,612307,379673
1466.24,0.211255,610032,375057
1469.43,0.214680,607345,370472
1473.67,0.221344,603789,362695
1476.85,0.226440,601175,356912
1480.02,0.232520,597737,349937
1483.19,0.238611,594479,343183
1486.36,0.245155,591232,336204
1489.52,0.249328,587853,331086
1492.68,0.253535,583875,325675
1496.89,0.255261,578062,321154
1500.03,0.255991,574159,318450
1503.18,0.255978,570285,316311
1506.32,0.254319,565444,314826
1509.45,0.252982,560571,313075
1512.58,0.251831,555821,311246
1515.71,0.249664,550344,309721
1519.87,0.246765,543983,308191
1522.99,0.243973,538764,307203
1526.1,0.241158,533692,306290
1529.21,0.238403,527902,304895
1532.32,0.235569,521886,303394
1535.42,0.233016,515888,301675
1538.51,0.229862,509987,300398
1541.6,0.226601,503936,299071
1545.72,0.223001,494694,296030
1548.8,0.220323,488378,294058
1551.88,0.218434,481832,291381
1554.95,0.216068,474989,288812
1558.02,0.214080,467818,285757
1561.08,0.213501,460730,281803
1564.15,0.212950,454170,278143
1568.22,0.211763,444181,272770
1571.27,0.210888,436947,268869
1574.32,0.210358,429598,264670
1577.36,0.208660,422039,261031
1580.4,0.207618,414375,256907
1583.43,0.207625,406354,251930
1586.46,0.205314,398475,248363
1590.49,0.203612,388982,243398
1593.51,0.201524,380708,239369
1596.53,0.198295,372727,236100
1599.54,0.196949,365060,231961
1602.55,0.195767,357543,227804
1605.55,0.193791,349495,223692
1608.55,0.192324,341154,219092
1612.54,0.190639,330877,213318
1615.53,0.188072,322904,209412
1618.51,0.187790,315116,204494
1621.49,0.185554,307217,200397
1624.47,0.185378,299481,195430
1627.44,0.184675,292112,190930
1630.41,0.182723,284245,186625
1634.36,0.180689,274079,180795
1637.32,0.180504,266916,176145
1640.27,0.180529,259612,171315
1643.22,0.179868,251804,166416
1646.16,0.178826,244348,161876
1649.1,0.178993,236703,156751
1652.04,0.177765,228171,151529
1655.95,0.172925,215408,144656
1658.88,0.169118,204937,138836
1661.8,0.165063,193395,132246
1664.72,0.157168,179728,125155
1667.63,0.143606,163642,117568
1670.54,0.131029,146312,108206
1673.44,0.112016,128451,99248
1677.31,0.094591,105080,84514
1680.21,0.082467,88906,73530
1683.1,0.074412,75033,63218
1685.99,0.076713,63520,53235
1688.87,0.081162,53714,44558
1691.75,0.087819,45653,37295
1694.62,0.093588,39137,31550
1697.49,0.097969,33776,26955
1701.31,0.104981,28175,22125