File: samples/wool/wool-000811/Column 1_050618_20150331_123203.csv
Method:,Column 1,,
Host Date-Time:,31/3/15 @ 12:32:3,,
Header Version:,1,,
System Temp (C):,34.14,,
Detector Temp (C):,34.97,,
Humidity (%):,1.66,,
Lamp PD:,3817,,
Shift Vector Coefficients:,-10.5391,0.0761263,-0.000134223,,
Pixel to Wavelength Coefficients:,1775.68,-0.916766,-0.000235065,,
Serial Number:,5510004,,
Scan Config Name:,Column 1,,
Scan Config Type:,Slew,,
Section 1,,
Start wavelength (nm):,900,,
End wavelength (nm):,1700,,
Pattern Pixel Width (nm):,   7.03,,,,
Exposure (ms):,  0.635,,,,
Digital Resolution:,228,,
Num Repeats:,6,,
PGA Gain:,64,,
Total Measurement Time in sec:,  2.668,,
Wavelength (nm),Absorbance (AU),Reference Signal (unitless),Sample Signal (unitless)
901.51,0.068248,108485,92709
905.376,0.072951,121306,102549
909.237,0.076194,131909,110683
913.095,0.076928,143299,120037
916.948,0.078542,156982,131011
922.079,0.081130,179937,149276
925.923,0.080941,200504,166411
929.762,0.082713,222660,184047
933.597,0.081585,244426,202564
937.427,0.080557,263972,219281
941.254,0.080253,281845,234292
945.076,0.079358,297271,247625
950.165,0.078398,315605,263479
953.978,0.076940,328029,274772
957.786,0.077768,340470,284650
961.59,0.077453,352317,294768
965.389,0.077010,363056,304063
969.185,0.077754,373162,311992
972.976,0.078176,382632,319599
976.763,0.078150,391202,326777
981.806,0.078590,400190,333946
985.583,0.078804,406088,338701
989.355,0.079778,410162,341332
993.124,0.080017,412868,343395
996.888,0.080811,414263,343926
1000.65,0.081117,415476,344690
1004.4,0.082552,415479,343556
1009.41,0.083273,414358,342060
1013.15,0.083691,412923,340548
1016.89,0.084123,411526,339058
1020.63,0.084397,409066,336819
1024.36,0.084830,406777,334600
1028.09,0.084120,404427,333212
1031.82,0.083920,401911,331291
1036.78,0.083702,398410,328570
1040.49,0.083505,396204,326899
1044.2,0.083173,394236,325524
1047.91,0.082965,392042,323868
1051.61,0.083267,389823,321811
1055.31,0.082559,388234,321022
1059,0.082406,387599,320610
1063.92,0.080538,386688,321235
1067.61,0.080019,386598,321544
1071.29,0.080162,387377,322086
1074.96,0.079510,388536,323535
1078.63,0.079033,389855,324990
1082.3,0.078019,391215,326886
1085.96,0.077103,393215,329251
1090.84,0.076671,396270,332139
1094.49,0.075891,398760,334827
1098.14,0.075464,400987,337028
1101.79,0.074402,403477,339951
1105.43,0.074591,406116,342026
1109.06,0.073424,407701,344285
1112.7,0.073338,409859,346176
1117.53,0.073209,412494,348505
1121.15,0.073538,414909,350280
1124.77,0.073552,416559,351661
1128.38,0.074798,418532,352315
1131.99,0.075525,419956,352922
1135.6,0.077140,421946,353278
1139.2,0.078257,423881,353987
1143.99,0.080550,426786,354536
1147.58,0.081012,428617,355678
1151.17,0.081670,431169,357254
1154.75,0.082273,433579,358753
1158.33,0.084139,436264,359427
1161.91,0.085555,439132,360612
1165.48,0.088107,442389,361158
1169.04,0.090155,446101,362475
1173.79,0.093071,451929,364753
1177.34,0.096015,456026,365573
1180.9,0.098000,461306,368120
1184.44,0.100141,467657,371353
1187.99,0.100658,473969,375917
1191.52,0.100773,479856,380485
1195.06,0.101142,487372,386117
1199.76,0.102155,497347,393101
1203.29,0.099513,504311,401038
1206.81,0.098744,511507,407481
1210.33,0.098273,519078,413961
1213.84,0.097582,527163,421078
1217.35,0.096872,534208,427404
1220.85,0.096121,540472,433164
1225.51,0.095607,549929,441265
1229.01,0.095283,556888,447183
1232.5,0.094596,562180,452147
1235.98,0.093199,567975,458279
1239.46,0.092897,574815,464121
1242.94,0.091641,582782,471917
1246.41,0.091101,591476,479552
1251.03,0.091020,604016,489811
1254.5,0.091470,612289,496006
1257.96,0.092046,619125,500879
1261.41,0.092444,624551,504805
1264.86,0.092987,629900,508492
1268.31,0.093555,634345,511412
1271.75,0.094018,638574,514273
1276.33,0.094404,642499,516974
1279.76,0.093976,645905,520227
1283.19,0.093400,648307,522854
1286.61,0.093577,650446,524366
1290.03,0.092953,652132,526481
1293.44,0.092214,653907,528813
1296.85,0.092479,655963,530152
1301.39,0.091744,657349,532172
1304.8,0.091590,657558,532530
1308.19,0.091727,658515,533137
1311.58,0.091833,658804,533241
1314.97,0.092518,659011,532568
1318.36,0.092803,658272,531621
1321.73,0.093178,658022,530961
1326.23,0.093546,657870,530389
1329.6,0.094428,656482,528196
1332.97,0.095476,654926,525674
1336.33,0.096443,653727,523544
1339.69,0.097822,652497,520902
1343.04,0.099121,649913,517290
1346.39,0.100845,647671,513463
1349.73,0.102954,645338,509135
1354.18,0.106263,641175,502011
1357.52,0.107982,638376,497846
1360.85,0.110068,635805,493465
1364.17,0.111830,633413,489617
1367.49,0.113848,631026,485511
1370.81,0.116379,628050,480413
1374.12,0.118352,625034,475939
1378.54,0.120803,620272,469655
1381.84,0.123365,616892,464349
1385.14,0.126798,613613,458244
1388.43,0.130406,611526,452907
1391.72,0.134591,610663,447930
1395.01,0.138421,610634,443976
1398.29,0.142787,611700,440303
1402.66,0.148475,614051,436244
1405.93,0.153273,616268,433009
1409.2,0.158023,617795,429360
1412.46,0.162017,618872,426171
1415.72,0.165490,619795,423407
1418.98,0.169092,620495,420384
1422.23,0.172829,621087,417180
1426.56,0.175833,621375,414496
1429.8,0.178826,621616,411809
1433.04,0.181172,622129,409929
1436.27,0.183512,621526,407331
1439.5,0.185381,621113,405312
1442.72,0.188126,620921,402634
1445.94,0.190130,620270,400360
1450.23,0.193945,618860,395956
1453.44,0.196730,617697,392686
1456.64,0.199597,616264,389197
1459.85,0.202228,614413,385685
1463.04,0.204884,612307,382019
1466.24,0.208948,610032,377055
1469.43,0.213154,607345,371776
1473.67,0.219052,603789,364614
1476.85,0.225369,601175,357793
1480.02,0.231140,597737,351051
1483.19,0.237918,594479,343731
1486.36,0.243367,591232,337591
1489.52,0.248576,587853,331660
1492.68,0.251910,583875,326896
1496.89,0.253856,578062,322195
1500.03,0.254527,574159,319525
1503.18,0.254302,570285,317534
1506.32,0.253110,565444,315704
1509.45,0.252264,560571,313593
1512.58,0.250984,555821,311854
1515.71,0.248777,550344,310354
1519.87,0.244902,543983,309516
1522.99,0.242868,538764,307986
1526.1,0.239796,533692,307252
1529.21,0.237536,527902,305504
1532.32,0.234581,521886,304085
1535.42,0.232182,515888,302255
1538.51,0.228933,509987,301041
1541.6,0.225822,503936,299608
1545.72,0.221939,494694,296755
1548.8,0.219136,488378,294863
1551.88,0.217089,481832,292285
1554.95,0.215014,474989,289514
1558.02,0.213504,467818,286136
1561.08,0.211847,460730,282878
1564.15,0.212010,454170,278746
1568.22,0.210941,444181,273287
1571.27,0.210442,436947,269145
1574.32,0.209166,429598,265397
1577.36,0.208499,422039,261128
1580.4,0.206355,414375,257655
1583.43,0.205220,406354,253329
1586.46,0.204233,398475,248982
1590.49,0.202150,388982,244219
1593.51,0.199912,380708,240259
1596.53,0.198107,372727,236202
1599.54,0.196483,365060,232210
1602.55,0.194771,357543,228327
1605.55,0.192982,349495,224109
1608.55,0.190080,341154,220227
1612.54,0.188904,330877,214172
1615.53,0.187034,322904,209913
1618.51,0.186782,315116,204969
1621.49,0.184848,307217,200723
1624.47,0.183237,299481,196396
1627.44,0.183009,292112,191664
1630.41,0.182297,284245,186808
1634.36,0.180598,274079,180833
1637.32,0.179514,266916,176547
1640.27,0.178478,259612,172126
1643.22,0.178562,251804,166917
1646.16,0.177845,244348,162242
1649.1,0.175343,236703,158074
1652.04,0.176557,228171,151951
1655.95,0.172184,215408,144903
1658.88,0.167704,204937,139289
1661.8,0.162248,193395,133106
1664.72,0.154190,179728,126016
1667.63,0.142676,163642,117820
1670.54,0.126040,146312,109456
1673.44,0.111609,128451,99341
1677.31,0.089910,105080,85430
1680.21,0.078240,88906,74249
1683.1,0.073355,75033,63372
1685.99,0.072774,63520,53720
1688.87,0.073663,53714,45334
1691.75,0.078921,45653,38067
1694.62,0.085866,39137,32116
1697.49,0.085298,33776,27753
1701.31,0.095064,28175,22636