File: samples/wool/wool-000811/Column 1_050561_20150331_120505.csv
Method:,Column 1,,
Host Date-Time:,31/3/15 @ 12:5:5,,
Header Version:,1,,
System Temp (C):,33.73,,
Detector Temp (C):,33.27,,
Humidity (%):,2.1,,
Lamp PD:,3819,,
Shift Vector Coefficients:,-10.5391,0.0761263,-0.000134223,,
Pixel to Wavelength Coefficients:,1775.68,-0.916766,-0.000235065,,
Serial Number:,5510004,,
Scan Config Name:,Column 1,,
Scan Config Type:,Slew,,
Section 1,,
Start wavelength (nm):,900,,
End wavelength (nm):,1700,,
Pattern Pixel Width (nm):,   7.03,,,,
Exposure (ms):,  0.635,,,,
Digital Resolution:,228,,
Num Repeats:,6,,
PGA Gain:,64,,
Total Measurement Time in sec:,  2.670,,
Wavelength (nm),Absorbance (AU),Reference Signal (unitless),Sample Signal (unitless)
901.51,0.032841,108485,100584
905.376,0.041311,121306,110299
909.237,0.040999,131909,120026
913.095,0.043578,143299,129618
916.948,0.045035,156982,141519
922.079,0.046129,179937,161805
925.923,0.046347,200504,180209
929.762,0.047734,222660,199484
933.597,0.047047,244426,219331
937.427,0.047303,263972,236731
941.254,0.047723,281845,252515
945.076,0.046892,297271,266846
950.165,0.046294,315605,283694
953.978,0.045981,328029,295074
957.786,0.046535,340470,305875
961.59,0.046541,352317,316514
965.389,0.046299,363056,326343
969.185,0.046851,373162,335001
972.976,0.046839,382632,343512
976.763,0.047905,391202,350345
981.806,0.047892,400190,358405
985.583,0.049611,406088,362251
989.355,0.049566,410162,365923
993.124,0.049986,412868,367981
996.888,0.050953,414263,368403
1000.65,0.051836,415476,368731
1004.4,0.052255,415479,368378
1009.41,0.054253,414358,365698
1013.15,0.054447,412923,364269
1016.89,0.055426,411526,362219
1020.63,0.054829,409066,360549
1024.36,0.054741,406777,358604
1028.09,0.054651,404427,356606
1031.82,0.054581,401911,354445
1036.78,0.053532,398410,352207
1040.49,0.053468,396204,350309
1044.2,0.052862,394236,349055
1047.91,0.053376,392042,346702
1051.61,0.052148,389823,345716
1055.31,0.051689,388234,344671
1059,0.050982,387599,344668
1063.92,0.050349,386688,344359
1067.61,0.049603,386598,344871
1071.29,0.049212,387377,345877
1074.96,0.048219,388536,347706
1078.63,0.047205,389855,349702
1082.3,0.047339,391215,350814
1085.96,0.046291,393215,353459
1090.84,0.045933,396270,356499
1094.49,0.045407,398760,359174
1098.14,0.045178,400987,361370
1101.79,0.044645,403477,364061
1105.43,0.045037,406116,366111
1109.06,0.043921,407701,368486
1112.7,0.044306,409859,370108
1117.53,0.044515,412494,372308
1121.15,0.044829,414909,374217
1124.77,0.045223,416559,375365
1128.38,0.046783,418532,375790
1131.99,0.047853,419956,376141
1135.6,0.049994,421946,376065
1139.2,0.051694,423881,376314
1143.99,0.054114,426786,376787
1147.58,0.055299,428617,377373
1151.17,0.056101,431169,378919
1154.75,0.057767,433579,379578
1158.33,0.059585,436264,380333
1161.91,0.061511,439132,381140
1165.48,0.064785,442389,381083
1169.04,0.066349,446101,382899
1173.79,0.070507,451929,384205
1177.34,0.072933,456026,385529
1180.9,0.075125,461306,388029
1184.44,0.076953,467657,391719
1187.99,0.077563,473969,396449
1191.52,0.077514,479856,401418
1195.06,0.077096,487372,408098
1199.76,0.076378,497347,417140
1203.29,0.075153,504311,424175
1206.81,0.074434,511507,430941
1210.33,0.073711,519078,438048
1213.84,0.072753,527163,445853
1217.35,0.072420,534208,452158
1220.85,0.071776,540472,458139
1225.51,0.070681,549929,467332
1229.01,0.069738,556888,474275
1232.5,0.069532,562180,479009
1235.98,0.068786,567975,484778
1239.46,0.067619,574815,491936
1242.94,0.066534,582782,500002
1246.41,0.066173,591476,507884
1251.03,0.066182,604016,518640
1254.5,0.066147,612289,525786
1257.96,0.066479,619125,531250
1261.41,0.066920,624551,535363
1264.86,0.067660,629900,539028
1268.31,0.068381,634345,541932
1271.75,0.069116,638574,544622
1276.33,0.069610,642499,547347
1279.76,0.069222,645905,550740
1283.19,0.068775,648307,553358
1286.61,0.068264,650446,555837
1290.03,0.068119,652132,557463
1293.44,0.067485,653907,559797
1296.85,0.067342,655963,561743
1301.39,0.067238,657349,563064
1304.8,0.067409,657558,563021
1308.19,0.067408,658515,563842
1311.58,0.067522,658804,563942
1314.97,0.068444,659011,562922
1318.36,0.068536,658272,562172
1321.73,0.068956,658022,561415
1326.23,0.069878,657870,560095
1329.6,0.071088,656482,557359
1332.97,0.071829,654926,555090
1336.33,0.073513,653727,551929
1339.69,0.074665,652497,549431
1343.04,0.076645,649913,544766
1346.39,0.078868,647671,540115
1349.73,0.080948,645338,535598
1354.18,0.084144,641175,528241
1357.52,0.086762,638376,522775
1360.85,0.088975,635805,518023
1364.17,0.091014,633413,513657
1367.49,0.093724,631026,508538
1370.81,0.095743,628050,503792
1374.12,0.098406,625034,498308
1378.54,0.101873,620272,490579
1381.84,0.105263,616892,484112
1385.14,0.109503,613613,476861
1388.43,0.113822,611526,470536
1391.72,0.118814,610663,464502
1395.01,0.123598,610634,459392
1398.29,0.128957,611700,454550
1402.66,0.136817,614051,448113
1405.93,0.142878,616268,443498
1409.2,0.148654,617795,438723
1412.46,0.153516,618872,434595
1415.72,0.158048,619795,430725
1418.98,0.162517,620495,426797
1422.23,0.166296,621087,423503
1426.56,0.170593,621375,419528
1429.8,0.173579,621616,416815
1433.04,0.176240,622129,414611
1436.27,0.178333,621526,412217
1439.5,0.180729,621113,409677
1442.72,0.183556,620921,406893
1445.94,0.185705,620270,404460
1450.23,0.188976,618860,400513
1453.44,0.192397,617697,396624
1456.64,0.194771,616264,393546
1459.85,0.198070,614413,389395
1463.04,0.200694,612307,385723
1466.24,0.204049,610032,381332
1469.43,0.208078,607345,376147
1473.67,0.213596,603789,369223
1476.85,0.219943,601175,362291
1480.02,0.225269,597737,355829
1483.19,0.231585,594479,348780
1486.36,0.237887,591232,341878
1489.52,0.242453,587853,336369
1492.68,0.245802,583875,331526
1496.89,0.249089,578062,325751
1500.03,0.248855,574159,323726
1503.18,0.249499,570285,321065
1506.32,0.248015,565444,319429
1509.45,0.247210,560571,317264
1512.58,0.245775,555821,315617
1515.71,0.243125,550344,314419
1519.87,0.239223,543983,313590
1522.99,0.237918,538764,311516
1526.1,0.234870,533692,310757
1529.21,0.231597,527902,309711
1532.32,0.227889,521886,308807
1535.42,0.225244,515888,307122
1538.51,0.222615,509987,305453
1541.6,0.218734,503936,304538
1545.72,0.215061,494694,301492
1548.8,0.211186,488378,300310
1551.88,0.209009,481832,297774
1554.95,0.207016,474989,294895
1558.02,0.205129,467818,291708
1561.08,0.204111,460730,287962
1564.15,0.202730,454170,284766
1568.22,0.202183,444181,278854
1571.27,0.200735,436947,275229
1574.32,0.199845,429598,271155
1577.36,0.198349,422039,267303
1580.4,0.197253,414375,263112
1583.43,0.195970,406354,258782
1586.46,0.194161,398475,254824
1590.49,0.191477,388982,250295
1593.51,0.189214,380708,246251
1596.53,0.187091,372727,242270
1599.54,0.184898,365060,238488
1602.55,0.183091,357543,234551
1605.55,0.180687,349495,230544
1608.55,0.178323,341154,226270
1612.54,0.176234,330877,220512
1615.53,0.174324,322904,216147
1618.51,0.172557,315116,211794
1621.49,0.172481,307217,206521
1624.47,0.170545,299481,202220
1627.44,0.168214,292112,198306
1630.41,0.167245,284245,193396
1634.36,0.167085,274079,186548
1637.32,0.166337,266916,181986
1640.27,0.164591,259612,177719
1643.22,0.163130,251804,172955
1646.16,0.162250,244348,168174
1649.1,0.162715,236703,162738
1652.04,0.161270,228171,157395
1655.95,0.158284,215408,149616
1658.88,0.154309,204937,143652
1661.8,0.152086,193395,136257
1664.72,0.144936,179728,128730
1667.63,0.135630,163642,119747
1670.54,0.124144,146312,109935
1673.44,0.113875,128451,98824
1677.31,0.097820,105080,83888
1680.21,0.092661,88906,71824
1683.1,0.091506,75033,60778
1685.99,0.090783,63520,51538
1688.87,0.101208,53714,42548
1691.75,0.104641,45653,35878
1694.62,0.110830,39137,30322
1697.49,0.106906,33776,26406
1701.31,0.123671,28175,21193