File: samples/wool/wool-000811/Column 1_050568_20150331_120827.csv
Method:,Column 1,,
Host Date-Time:,31/3/15 @ 12:8:27,,
Header Version:,1,,
System Temp (C):,34.02,,
Detector Temp (C):,33.96,,
Humidity (%):,1.76,,
Lamp PD:,3818,,
Shift Vector Coefficients:,-10.5391,0.0761263,-0.000134223,,
Pixel to Wavelength Coefficients:,1775.68,-0.916766,-0.000235065,,
Serial Number:,5510004,,
Scan Config Name:,Column 1,,
Scan Config Type:,Slew,,
Section 1,,
Start wavelength (nm):,900,,
End wavelength (nm):,1700,,
Pattern Pixel Width (nm):,   7.03,,,,
Exposure (ms):,  0.635,,,,
Digital Resolution:,228,,
Num Repeats:,6,,
PGA Gain:,64,,
Total Measurement Time in sec:,  2.689,,
Wavelength (nm),Absorbance (AU),Reference Signal (unitless),Sample Signal (unitless)
901.51,0.033247,108485,100490
905.376,0.040579,121306,110485
909.237,0.042674,131909,119564
913.095,0.043236,143299,129720
916.948,0.045075,156982,141506
922.079,0.046045,179937,161836
925.923,0.047974,200504,179535
929.762,0.048957,222660,198923
933.597,0.048915,244426,218390
937.427,0.047951,263972,236378
941.254,0.048227,281845,252222
945.076,0.047635,297271,266390
950.165,0.046738,315605,283404
953.978,0.046348,328029,294825
957.786,0.046859,340470,305647
961.59,0.046554,352317,316504
965.389,0.046783,363056,325980
969.185,0.047693,373162,334352
972.976,0.047861,382632,342705
976.763,0.048113,391202,350177
981.806,0.048677,400190,357758
985.583,0.049798,406088,362095
989.355,0.049687,410162,365821
993.124,0.050640,412868,367427
996.888,0.050428,414263,368849
1000.65,0.051118,415476,369341
1004.4,0.053116,415479,367649
1009.41,0.054322,414358,365640
1013.15,0.054332,412923,364365
1016.89,0.055273,411526,362347
1020.63,0.054983,409066,360421
1024.36,0.055051,406777,358348
1028.09,0.054883,404427,356416
1031.82,0.054718,401911,354333
1036.78,0.054425,398410,351484
1040.49,0.053615,396204,350190
1044.2,0.053565,394236,348491
1047.91,0.053451,392042,346642
1051.61,0.052936,389823,345089
1055.31,0.052240,388234,344234
1059,0.051640,387599,344146
1063.92,0.050068,386688,344582
1067.61,0.049769,386598,344739
1071.29,0.049244,387377,345852
1074.96,0.048858,388536,347195
1078.63,0.048222,389855,348884
1082.3,0.047049,391215,351048
1085.96,0.046303,393215,353449
1090.84,0.046228,396270,356257
1094.49,0.045588,398760,359024
1098.14,0.045133,400987,361408
1101.79,0.044962,403477,363795
1105.43,0.044972,406116,366166
1109.06,0.043984,407701,368432
1112.7,0.044317,409859,370099
1117.53,0.044323,412494,372473
1121.15,0.045226,414909,373875
1124.77,0.045589,416559,375049
1128.38,0.046909,418532,375681
1131.99,0.047909,419956,376093
1135.6,0.050300,421946,375800
1139.2,0.051568,423881,376423
1143.99,0.053626,426786,377211
1147.58,0.055474,428617,377221
1151.17,0.056531,431169,378544
1154.75,0.057452,433579,379854
1158.33,0.059733,436264,380204
1161.91,0.061350,439132,381281
1165.48,0.063998,442389,381774
1169.04,0.066342,446101,382905
1173.79,0.070415,451929,384287
1177.34,0.072904,456026,385554
1180.9,0.074728,461306,388384
1184.44,0.076788,467657,391868
1187.99,0.077475,473969,396529
1191.52,0.077277,479856,401637
1195.06,0.076934,487372,408250
1199.76,0.076484,497347,417038
1203.29,0.075393,504311,423941
1206.81,0.074586,511507,430790
1210.33,0.073736,519078,438023
1213.84,0.072840,527163,445764
1217.35,0.072107,534208,452484
1220.85,0.071255,540472,458689
1225.51,0.070583,549929,467438
1229.01,0.070072,556888,473910
1232.5,0.069284,562180,479282
1235.98,0.068399,567975,485210
1239.46,0.067416,574815,492167
1242.94,0.066568,582782,499963
1246.41,0.066042,591476,508037
1251.03,0.065691,604016,519227
1254.5,0.065724,612289,526299
1257.96,0.066087,619125,531730
1261.41,0.067136,624551,535096
1264.86,0.067686,629900,538996
1268.31,0.068146,634345,542225
1271.75,0.068975,638574,544799
1276.33,0.069255,642499,547794
1279.76,0.069402,645905,550512
1283.19,0.068565,648307,553625
1286.61,0.068273,650446,555825
1290.03,0.067559,652132,558183
1293.44,0.067323,653907,560007
1296.85,0.067274,655963,561830
1301.39,0.066762,657349,563682
1304.8,0.067208,657558,563282
1308.19,0.067064,658515,564289
1311.58,0.067200,658804,564360
1314.97,0.068112,659011,563353
1318.36,0.068233,658272,562565
1321.73,0.068479,658022,562033
1326.23,0.069876,657870,560098
1329.6,0.070365,656482,558287
1332.97,0.071288,654926,555782
1336.33,0.072546,653727,553159
1339.69,0.074377,652497,549796
1343.04,0.075994,649913,545584
1346.39,0.078355,647671,540754
1349.73,0.080492,645338,536161
1354.18,0.083684,641175,528801
1357.52,0.086166,638376,523493
1360.85,0.088049,635805,519128
1364.17,0.090602,633413,514144
1367.49,0.092956,631026,509438
1370.81,0.095190,628050,504434
1374.12,0.097531,625034,499313
1378.54,0.101083,620272,491472
1381.84,0.104281,616892,485208
1385.14,0.108467,613613,478000
1388.43,0.112381,611526,472100
1391.72,0.117207,610663,466224
1395.01,0.122217,610634,460855
1398.29,0.127097,611700,456501
1402.66,0.134359,614051,450656
1405.93,0.140069,616268,446376
1409.2,0.145281,617795,442144
1412.46,0.150163,618872,437963
1415.72,0.154921,619795,433837
1418.98,0.159227,620495,430042
1422.23,0.162595,621087,427127
1426.56,0.166768,621375,423239
1429.8,0.169789,621616,420468
1433.04,0.172695,622129,418009
1436.27,0.175081,621526,415316
1439.5,0.176749,621113,413449
1442.72,0.179379,620921,410825
1445.94,0.182313,620270,407632
1450.23,0.185667,618860,403576
1453.44,0.188596,617697,400110
1456.64,0.191431,616264,396585
1459.85,0.194561,614413,392554
1463.04,0.197681,612307,388408
1466.24,0.201282,610032,383770
1469.43,0.204434,607345,379316
1473.67,0.210547,603789,371825
1476.85,0.216304,601175,365340
1480.02,0.222570,597737,358047
1483.19,0.229440,594479,350507
1486.36,0.235893,591232,343451
1489.52,0.240959,587853,337528
1492.68,0.244028,583875,332883
1496.89,0.246216,578062,327913
1500.03,0.247164,574159,324989
1503.18,0.247841,570285,322293
1506.32,0.247392,565444,319888
1509.45,0.244785,560571,319040
1512.58,0.243536,555821,317248
1515.71,0.241393,550344,315676
1519.87,0.237683,543983,314704
1522.99,0.235709,538764,313105
1526.1,0.232719,533692,312300
1529.21,0.229592,527902,311144
1532.32,0.227074,521886,309387
1535.42,0.223783,515888,308157
1538.51,0.220452,509987,306978
1541.6,0.217525,503936,305387
1545.72,0.212461,494694,303302
1548.8,0.209549,488378,301444
1551.88,0.206718,481832,299349
1554.95,0.204863,474989,296361
1558.02,0.202974,467818,293159
1561.08,0.202465,460730,289056
1564.15,0.201454,454170,285604
1568.22,0.200149,444181,280163
1571.27,0.199314,436947,276131
1574.32,0.198361,429598,272083
1577.36,0.196907,422039,268192
1580.4,0.195980,414375,263884
1583.43,0.193936,406354,259997
1586.46,0.191812,398475,256206
1590.49,0.189787,388982,251271
1593.51,0.189337,380708,246181
1596.53,0.185449,372727,243188
1599.54,0.183255,365060,239392
1602.55,0.181070,357543,235645
1605.55,0.179267,349495,231299
1608.55,0.176519,341154,227212
1612.54,0.174695,330877,221295
1615.53,0.172576,322904,217019
1618.51,0.171703,315116,212211
1621.49,0.170676,307217,207381
1624.47,0.168664,299481,203098
1627.44,0.166648,292112,199022
1630.41,0.167028,284245,193493
1634.36,0.164881,274079,187497
1637.32,0.164455,266916,182776
1640.27,0.163729,259612,178072
1643.22,0.162580,251804,173174
1646.16,0.160076,244348,169018
1649.1,0.161111,236703,163340
1652.04,0.159186,228171,158152
1655.95,0.156901,215408,150093
1658.88,0.152652,204937,144201
1661.8,0.148594,193395,137357
1664.72,0.142242,179728,129531
1667.63,0.130227,163642,121246
1670.54,0.119378,146312,111148
1673.44,0.106723,128451,100465
1677.31,0.089808,105080,85450
1680.21,0.082036,88906,73603
1683.1,0.079414,75033,62494
1685.99,0.080441,63520,52780
1688.87,0.083870,53714,44281
1691.75,0.093952,45653,36772
1694.62,0.092118,39137,31657
1697.49,0.102178,33776,26695
1701.31,0.102983,28175,22227