File: samples/wool/wool-000811/Column 1_050592_20150331_121939.csv
Method:,Column 1,,
Host Date-Time:,31/3/15 @ 12:19:39,,
Header Version:,1,,
System Temp (C):,33.92,,
Detector Temp (C):,34.66,,
Humidity (%):,1.76,,
Lamp PD:,3819,,
Shift Vector Coefficients:,-10.5391,0.0761263,-0.000134223,,
Pixel to Wavelength Coefficients:,1775.68,-0.916766,-0.000235065,,
Serial Number:,5510004,,
Scan Config Name:,Column 1,,
Scan Config Type:,Slew,,
Section 1,,
Start wavelength (nm):,900,,
End wavelength (nm):,1700,,
Pattern Pixel Width (nm):,   7.03,,,,
Exposure (ms):,  0.635,,,,
Digital Resolution:,228,,
Num Repeats:,6,,
PGA Gain:,64,,
Total Measurement Time in sec:,  2.680,,
Wavelength (nm),Absorbance (AU),Reference Signal (unitless),Sample Signal (unitless)
901.51,0.070549,108485,92219
905.376,0.076907,121306,101619
909.237,0.076959,131909,110488
913.095,0.076751,143299,120086
916.948,0.079378,156982,130759
922.079,0.080790,179937,149393
925.923,0.082672,200504,165749
929.762,0.082529,222660,184125
933.597,0.083431,244426,201705
937.427,0.080840,263972,219138
941.254,0.081203,281845,233780
945.076,0.080369,297271,247049
950.165,0.079429,315605,262854
953.978,0.079425,328029,273204
957.786,0.078304,340470,284299
961.59,0.079690,352317,293254
965.389,0.079187,363056,302543
969.185,0.079439,373162,310784
972.976,0.079575,382632,318571
976.763,0.079890,391202,325470
981.806,0.080243,400190,332677
985.583,0.081127,406088,336894
989.355,0.081906,410162,339664
993.124,0.081640,412868,342114
996.888,0.082033,414263,342960
1000.65,0.082991,415476,343206
1004.4,0.084041,415479,342380
1009.41,0.085678,414358,340171
1013.15,0.085482,412923,339146
1016.89,0.086384,411526,337298
1020.63,0.086403,409066,335267
1024.36,0.085952,406777,333737
1028.09,0.086112,404427,331687
1031.82,0.085221,401911,330300
1036.78,0.084902,398410,327664
1040.49,0.085840,396204,325146
1044.2,0.085367,394236,323884
1047.91,0.084989,392042,322362
1051.61,0.084188,389823,321129
1055.31,0.083954,388234,319992
1059,0.083535,387599,319777
1063.92,0.082848,386688,319531
1067.61,0.082416,386598,319774
1071.29,0.081816,387377,320862
1074.96,0.081419,388536,322116
1078.63,0.081108,389855,323441
1082.3,0.080667,391215,324899
1085.96,0.078858,393215,327923
1090.84,0.078438,396270,330791
1094.49,0.077909,398760,333275
1098.14,0.077907,400987,335138
1101.79,0.076576,403477,338254
1105.43,0.076603,406116,340445
1109.06,0.075926,407701,342307
1112.7,0.075303,409859,344613
1117.53,0.074767,412494,347257
1121.15,0.075777,414909,348478
1124.77,0.076019,416559,349669
1128.38,0.077086,418532,350463
1131.99,0.077775,419956,351098
1135.6,0.079273,421946,351547
1139.2,0.080645,423881,352046
1143.99,0.082652,426786,352824
1147.58,0.082946,428617,354098
1151.17,0.084543,431169,354899
1154.75,0.085148,433579,356386
1158.33,0.086846,436264,357193
1161.91,0.088313,439132,358329
1165.48,0.090808,442389,358919
1169.04,0.092720,446101,360341
1173.79,0.096125,451929,362197
1177.34,0.098138,456026,363791
1180.9,0.100642,461306,365887
1184.44,0.102167,467657,369624
1187.99,0.103020,473969,373878
1191.52,0.102767,479856,378742
1195.06,0.102881,487372,384574
1199.76,0.102411,497347,392870
1203.29,0.101533,504311,399177
1206.81,0.101007,511507,405363
1210.33,0.100460,519078,411882
1213.84,0.100299,527163,418452
1217.35,0.099628,534208,424700
1220.85,0.098771,540472,430529
1225.51,0.098166,549929,438673
1229.01,0.097651,556888,444751
1232.5,0.096874,562180,449781
1235.98,0.095969,567975,455366
1239.46,0.094947,574815,461935
1242.94,0.094688,582782,468617
1246.41,0.093799,591476,476583
1251.03,0.093748,604016,486744
1254.5,0.093834,612289,493313
1257.96,0.094475,619125,498085
1261.41,0.095129,624551,501694
1264.86,0.095463,629900,505602
1268.31,0.095673,634345,508924
1271.75,0.096597,638574,511228
1276.33,0.096678,642499,514274
1279.76,0.096645,645905,517040
1283.19,0.095865,648307,519895
1286.61,0.095954,650446,521503
1290.03,0.095682,652132,523183
1293.44,0.094995,653907,525438
1296.85,0.094916,655963,527185
1301.39,0.094596,657349,528689
1304.8,0.094540,657558,528925
1308.19,0.094658,658515,529551
1311.58,0.094845,658804,529555
1314.97,0.095348,659011,529108
1318.36,0.095509,658272,528319
1321.73,0.095898,658022,527646
1326.23,0.097082,657870,526088
1329.6,0.097660,656482,524279
1332.97,0.098741,654926,521736
1336.33,0.099766,653727,519554
1339.69,0.101461,652497,516556
1343.04,0.102573,649913,513195
1346.39,0.105277,647671,508250
1349.73,0.106899,645338,504532
1354.18,0.109834,641175,497901
1357.52,0.111854,638376,493427
1360.85,0.113680,635805,489377
1364.17,0.115871,633413,485083
1367.49,0.118328,631026,480529
1370.81,0.120399,628050,475987
1374.12,0.122307,625034,471625
1378.54,0.124940,620272,465203
1381.84,0.128376,616892,459022
1385.14,0.131524,613613,453284
1388.43,0.135729,611526,447390
1391.72,0.140306,610663,442075
1395.01,0.144814,610634,437489
1398.29,0.149561,611700,433488
1402.66,0.155924,614051,428825
1405.93,0.161381,616268,425000
1409.2,0.166559,617795,421003
1412.46,0.171194,618872,417260
1415.72,0.175461,619795,413797
1418.98,0.179162,620495,410749
1422.23,0.182649,621087,407853
1426.56,0.186714,621375,404240
1429.8,0.188877,621616,402388
1433.04,0.191735,622129,400079
1436.27,0.193891,621526,397712
1439.5,0.196823,621113,394773
1442.72,0.198422,620921,393201
1445.94,0.200670,620270,390761
1450.23,0.203847,618860,387031
1453.44,0.206909,617697,383589
1456.64,0.209331,616264,380571
1459.85,0.212746,614413,376456
1463.04,0.215266,612307,372995
1466.24,0.217784,610032,369461
1469.43,0.221234,607345,364923
1473.67,0.227375,603789,357693
1476.85,0.232172,601175,352232
1480.02,0.237699,597737,345789
1483.19,0.243873,594479,339050
1486.36,0.249427,591232,332913
1489.52,0.254182,587853,327406
1492.68,0.257234,583875,322913
1496.89,0.259377,578062,318125
1500.03,0.260049,574159,315488
1503.18,0.260542,570285,313004
1506.32,0.259141,565444,311350
1509.45,0.258025,560571,309461
1512.58,0.256348,555821,308026
1515.71,0.253915,550344,306704
1519.87,0.251014,543983,305191
1522.99,0.248135,538764,304273
1526.1,0.245569,533692,303195
1529.21,0.243315,527902,301466
1532.32,0.240313,521886,300098
1535.42,0.237544,515888,298546
1538.51,0.234055,509987,297512
1541.6,0.232149,503936,295275
1545.72,0.227238,494694,293156
1548.8,0.224981,488378,290921
1551.88,0.222470,481832,288686
1554.95,0.221154,474989,285450
1558.02,0.218573,467818,282816
1561.08,0.218116,460730,278824
1564.15,0.216908,454170,275620
1568.22,0.216244,444181,269970
1571.27,0.215802,436947,265844
1574.32,0.214734,429598,262016
1577.36,0.213918,422039,257890
1580.4,0.212054,414375,254296
1583.43,0.210324,406354,250369
1586.46,0.208051,398475,246803
1590.49,0.206193,388982,241956
1593.51,0.205066,380708,237425
1596.53,0.203190,372727,233454
1599.54,0.201269,365060,229665
1602.55,0.198352,357543,226452
1605.55,0.197399,349495,221841
1608.55,0.195058,341154,217717
1612.54,0.193597,330877,211870
1615.53,0.190778,322904,208111
1618.51,0.190216,315116,203355
1621.49,0.189735,307217,198477
1624.47,0.188630,299481,193972
1627.44,0.186963,292112,189927
1630.41,0.186805,284245,184879
1634.36,0.184579,274079,179183
1637.32,0.182283,266916,175425
1640.27,0.184057,259612,169929
1643.22,0.183087,251804,165187
1646.16,0.182407,244348,160547
1649.1,0.181720,236703,155770
1652.04,0.179574,228171,150899
1655.95,0.175621,215408,143761
1658.88,0.171716,204937,138008
1661.8,0.165641,193395,132070
1664.72,0.159153,179728,124584
1667.63,0.148024,163642,116378
1670.54,0.133242,146312,107656
1673.44,0.118861,128451,97696
1677.31,0.097660,105080,83919
1680.21,0.084052,88906,73262
1683.1,0.082931,75033,61990
1685.99,0.084052,63520,52343
1688.87,0.082617,53714,44409
1691.75,0.090822,45653,37038
1694.62,0.092324,39137,31642
1697.49,0.102992,33776,26645
1701.31,0.102651,28175,22244