File: samples/wool/wool-000811/Column 1_050609_20150331_122757.csv
Method:,Column 1,,
Host Date-Time:,31/3/15 @ 12:27:57,,
Header Version:,1,,
System Temp (C):,34.05,,
Detector Temp (C):,34.85,,
Humidity (%):,1.66,,
Lamp PD:,3818,,
Shift Vector Coefficients:,-10.5391,0.0761263,-0.000134223,,
Pixel to Wavelength Coefficients:,1775.68,-0.916766,-0.000235065,,
Serial Number:,5510004,,
Scan Config Name:,Column 1,,
Scan Config Type:,Slew,,
Section 1,,
Start wavelength (nm):,900,,
End wavelength (nm):,1700,,
Pattern Pixel Width (nm):,   7.03,,,,
Exposure (ms):,  0.635,,,,
Digital Resolution:,228,,
Num Repeats:,6,,
PGA Gain:,64,,
Total Measurement Time in sec:,  2.673,,
Wavelength (nm),Absorbance (AU),Reference Signal (unitless),Sample Signal (unitless)
901.51,0.067387,108485,92893
905.376,0.072473,121306,102662
909.237,0.076382,131909,110635
913.095,0.076006,143299,120292
916.948,0.077751,156982,131250
922.079,0.079867,179937,149711
925.923,0.080672,200504,166514
929.762,0.081884,222660,184399
933.597,0.081851,244426,202440
937.427,0.080616,263972,219251
941.254,0.079521,281845,234687
945.076,0.077978,297271,248413
950.165,0.078635,315605,263335
953.978,0.077270,328029,274563
957.786,0.076584,340470,285427
961.59,0.077633,352317,294646
965.389,0.077097,363056,304002
969.185,0.076618,373162,312809
972.976,0.077747,382632,319915
976.763,0.078082,391202,326828
981.806,0.078288,400190,334178
985.583,0.079104,406088,338467
989.355,0.079574,410162,341493
993.124,0.079867,412868,343514
996.888,0.080163,414263,344440
1000.65,0.081129,415476,344681
1004.4,0.082567,415479,343544
1009.41,0.083820,414358,341630
1013.15,0.083587,412923,340629
1016.89,0.084296,411526,338923
1020.63,0.083717,409066,337347
1024.36,0.084563,406777,334806
1028.09,0.083934,404427,333354
1031.82,0.084061,401911,331184
1036.78,0.083431,398410,328775
1040.49,0.083697,396204,326755
1044.2,0.083149,394236,325542
1047.91,0.082875,392042,323935
1051.61,0.082979,389823,322024
1055.31,0.082537,388234,321038
1059,0.081902,387599,320982
1063.92,0.081369,386688,320621
1067.61,0.080141,386598,321454
1071.29,0.079670,387377,322451
1074.96,0.079773,388536,323339
1078.63,0.078924,389855,325072
1082.3,0.078018,391215,326887
1085.96,0.076649,393215,329595
1090.84,0.076236,396270,332472
1094.49,0.075185,398760,335372
1098.14,0.075749,400987,336807
1101.79,0.074723,403477,339700
1105.43,0.074343,406116,342221
1109.06,0.074626,407701,343333
1112.7,0.073695,409859,345891
1117.53,0.072922,412494,348735
1121.15,0.073748,414909,350110
1124.77,0.073473,416559,351725
1128.38,0.074387,418532,352648
1131.99,0.075190,419956,353194
1135.6,0.076842,421946,353521
1139.2,0.078568,423881,353733
1143.99,0.080430,426786,354634
1147.58,0.081376,428617,355380
1151.17,0.082359,431169,356688
1154.75,0.083166,433579,358016
1158.33,0.084206,436264,359371
1161.91,0.086068,439132,360186
1165.48,0.088529,442389,360807
1169.04,0.090176,446101,362458
1173.79,0.093300,451929,364561
1177.34,0.095829,456026,365730
1180.9,0.098292,461306,367872
1184.44,0.099996,467657,371477
1187.99,0.100909,473969,375700
1191.52,0.100643,479856,380599
1195.06,0.101089,487372,386164
1199.76,0.100379,497347,394712
1203.29,0.099290,504311,401244
1206.81,0.098746,511507,407479
1210.33,0.098621,519078,413630
1213.84,0.097899,527163,420771
1217.35,0.097490,534208,426796
1220.85,0.096724,540472,432563
1225.51,0.095715,549929,441155
1229.01,0.095316,556888,447149
1232.5,0.094895,562180,451836
1235.98,0.094212,567975,457212
1239.46,0.093238,574815,463757
1242.94,0.092087,582782,471432
1246.41,0.091646,591476,478951
1251.03,0.091543,604016,489221
1254.5,0.091522,612289,495946
1257.96,0.092047,619125,500877
1261.41,0.092681,624551,504530
1264.86,0.092885,629900,508612
1268.31,0.093421,634345,511569
1271.75,0.094395,638574,513826
1276.33,0.094517,642499,516839
1279.76,0.093942,645905,520267
1283.19,0.093716,648307,522474
1286.61,0.093160,650446,524869
1290.03,0.093048,652132,526366
1293.44,0.092489,653907,528478
1296.85,0.092464,655963,530170
1301.39,0.091880,657349,532005
1304.8,0.092244,657558,531729
1308.19,0.092463,658515,532234
1311.58,0.092167,658804,532831
1314.97,0.092423,659011,532684
1318.36,0.092925,658272,531472
1321.73,0.093346,658022,530756
1326.23,0.094033,657870,529794
1329.6,0.094552,656482,528045
1332.97,0.095952,654926,525098
1336.33,0.096685,653727,523253
1339.69,0.098589,652497,519984
1343.04,0.099717,649913,516581
1346.39,0.101605,647671,512566
1349.73,0.103464,645338,508538
1354.18,0.106302,641175,501966
1357.52,0.108284,638376,497499
1360.85,0.110408,635805,493078
1364.17,0.112471,633413,488895
1367.49,0.114675,631026,484587
1370.81,0.116817,628050,479929
1374.12,0.119243,625034,474964
1378.54,0.121853,620272,468521
1381.84,0.124368,616892,463277
1385.14,0.128011,613613,456966
1388.43,0.131243,611526,452035
1391.72,0.135108,610663,447398
1395.01,0.139455,610634,442921
1398.29,0.143445,611700,439636
1402.66,0.149421,614051,435295
1405.93,0.155003,616268,431287
1409.2,0.159219,617795,428179
1412.46,0.164023,618872,424207
1415.72,0.167738,619795,421221
1418.98,0.171084,620495,418460
1422.23,0.174686,621087,415400
1426.56,0.178216,621375,412228
1429.8,0.180821,621616,409922
1433.04,0.183456,622129,407779
1436.27,0.185580,621526,405396
1439.5,0.187473,621113,403364
1442.72,0.190156,620921,400756
1445.94,0.192529,620270,398155
1450.23,0.195856,618860,394218
1453.44,0.198090,617697,391458
1456.64,0.200840,616264,388085
1459.85,0.204120,614413,384008
1463.04,0.206983,612307,380177
1466.24,0.210427,610032,375773
1469.43,0.214450,607345,370668
1473.67,0.221041,603789,362948
1476.85,0.226408,601175,356938
1480.02,0.232174,597737,350216
1483.19,0.238582,594479,343206
1486.36,0.244533,591232,336686
1489.52,0.249012,587853,331327
1492.68,0.253033,583875,326052
1496.89,0.254819,578062,321481
1500.03,0.255386,574159,318894
1503.18,0.255300,570285,316805
1506.32,0.254203,565444,314910
1509.45,0.253550,560571,312666
1512.58,0.251105,555821,311767
1515.71,0.249090,550344,310130
1519.87,0.246885,543983,308106
1522.99,0.244052,538764,307147
1526.1,0.241368,533692,306142
1529.21,0.238332,527902,304945
1532.32,0.235779,521886,303247
1535.42,0.232583,515888,301976
1538.51,0.229442,509987,300689
1541.6,0.226967,503936,298819
1545.72,0.223181,494694,295907
1548.8,0.219910,488378,294338
1551.88,0.216972,481832,292364
1554.95,0.215379,474989,289271
1558.02,0.213677,467818,286022
1561.08,0.212908,460730,282188
1564.15,0.212643,454170,278340
1568.22,0.211620,444181,272860
1571.27,0.211284,436947,268624
1574.32,0.209898,429598,264950
1577.36,0.208875,422039,260902
1580.4,0.207714,414375,256850
1583.43,0.206717,406354,252457
1586.46,0.204860,398475,248623
1590.49,0.202625,388982,243952
1593.51,0.200919,380708,239703
1596.53,0.198759,372727,235848
1599.54,0.196590,365060,232153
1602.55,0.194472,357543,228484
1605.55,0.192647,349495,224282
1608.55,0.190559,341154,219984
1612.54,0.188399,330877,214421
1615.53,0.187289,322904,209790
1618.51,0.187066,315116,204835
1621.49,0.186198,307217,200100
1624.47,0.184825,299481,195679
1627.44,0.183401,292112,191491
1630.41,0.182453,284245,186741
1634.36,0.182027,274079,180239
1637.32,0.180862,266916,176000
1640.27,0.180268,259612,171418
1643.22,0.178966,251804,166762
1646.16,0.178998,244348,161812
1649.1,0.177196,236703,157401
1652.04,0.175102,228171,152461
1655.95,0.172092,215408,144934
1658.88,0.169078,204937,138849
1661.8,0.163790,193395,132634
1664.72,0.155229,179728,125715
1667.63,0.143288,163642,117654
1670.54,0.126707,146312,109288
1673.44,0.113282,128451,98959
1677.31,0.092265,105080,84968
1680.21,0.081888,88906,73628
1683.1,0.076077,75033,62976
1685.99,0.072039,63520,53811
1688.87,0.076104,53714,45080
1691.75,0.080784,45653,37904
1694.62,0.086015,39137,32105
1697.49,0.087778,33776,27595
1701.31,0.100859,28175,22336