File: samples/wool/wool-000811/Column 1_050613_20150331_122957.csv
Method:,Column 1,,
Host Date-Time:,31/3/15 @ 12:29:57,,
Header Version:,1,,
System Temp (C):,34.08,,
Detector Temp (C):,34.95,,
Humidity (%):,1.66,,
Lamp PD:,3818,,
Shift Vector Coefficients:,-10.5391,0.0761263,-0.000134223,,
Pixel to Wavelength Coefficients:,1775.68,-0.916766,-0.000235065,,
Serial Number:,5510004,,
Scan Config Name:,Column 1,,
Scan Config Type:,Slew,,
Section 1,,
Start wavelength (nm):,900,,
End wavelength (nm):,1700,,
Pattern Pixel Width (nm):,   7.03,,,,
Exposure (ms):,  0.635,,,,
Digital Resolution:,228,,
Num Repeats:,6,,
PGA Gain:,64,,
Total Measurement Time in sec:,  2.667,,
Wavelength (nm),Absorbance (AU),Reference Signal (unitless),Sample Signal (unitless)
901.51,0.069190,108485,92508
905.376,0.075469,121306,101956
909.237,0.076535,131909,110596
913.095,0.078040,143299,119730
916.948,0.078091,156982,131147
922.079,0.080843,179937,149375
925.923,0.080928,200504,166416
929.762,0.082270,222660,184235
933.597,0.082652,244426,202067
937.427,0.080828,263972,219144
941.254,0.080474,281845,234173
945.076,0.078895,297271,247889
950.165,0.077826,315605,263826
953.978,0.077228,328029,274590
957.786,0.077697,340470,284696
961.59,0.077548,352317,294704
965.389,0.077386,363056,303800
969.185,0.077593,373162,312108
972.976,0.077520,382632,320082
976.763,0.078796,391202,326291
981.806,0.078446,400190,334057
985.583,0.079327,406088,338293
989.355,0.079589,410162,341481
993.124,0.080731,412868,342831
996.888,0.080868,414263,343881
1000.65,0.081411,415476,344457
1004.4,0.082443,415479,343642
1009.41,0.083545,414358,341846
1013.15,0.084229,412923,340126
1016.89,0.084671,411526,338631
1020.63,0.084728,409066,336562
1024.36,0.085106,406777,334388
1028.09,0.084135,404427,333200
1031.82,0.084122,401911,331137
1036.78,0.084123,398410,328252
1040.49,0.083550,396204,326865
1044.2,0.083236,394236,325477
1047.91,0.083010,392042,323834
1051.61,0.083369,389823,321735
1055.31,0.082976,388234,320714
1059,0.081982,387599,320923
1063.92,0.080976,386688,320911
1067.61,0.080772,386598,320987
1071.29,0.080298,387377,321985
1074.96,0.079189,388536,323774
1078.63,0.079073,389855,324960
1082.3,0.078094,391215,326830
1085.96,0.078003,393215,328569
1090.84,0.076487,396270,332280
1094.49,0.076417,398760,334422
1098.14,0.075771,400987,336790
1101.79,0.075080,403477,339421
1105.43,0.074550,406116,342058
1109.06,0.073219,407701,344447
1112.7,0.073841,409859,345775
1117.53,0.073278,412494,348449
1121.15,0.073959,414909,349940
1124.77,0.073945,416559,351343
1128.38,0.074921,418532,352215
1131.99,0.075440,419956,352991
1135.6,0.076977,421946,353411
1139.2,0.078254,423881,353989
1143.99,0.081050,426786,354128
1147.58,0.082065,428617,354817
1151.17,0.082542,431169,356538
1154.75,0.082860,433579,358268
1158.33,0.084714,436264,358951
1161.91,0.086495,439132,359832
1165.48,0.088499,442389,360832
1169.04,0.090538,446101,362156
1173.79,0.093863,451929,364089
1177.34,0.095531,456026,365981
1180.9,0.098231,461306,367924
1184.44,0.100274,467657,371239
1187.99,0.101096,473969,375538
1191.52,0.101348,479856,379982
1195.06,0.100853,487372,386374
1199.76,0.100232,497347,394846
1203.29,0.099393,504311,401149
1206.81,0.099616,511507,406664
1210.33,0.098399,519078,413841
1213.84,0.097680,527163,420983
1217.35,0.097615,534208,426673
1220.85,0.096754,540472,432533
1225.51,0.095708,549929,441163
1229.01,0.095188,556888,447280
1232.5,0.096130,562180,450553
1235.98,0.094254,567975,457167
1239.46,0.093020,574815,463989
1242.94,0.092044,582782,471479
1246.41,0.092034,591476,478523
1251.03,0.091574,604016,489186
1254.5,0.091425,612289,496057
1257.96,0.092510,619125,500344
1261.41,0.092594,624551,504631
1264.86,0.092995,629900,508483
1268.31,0.093924,634345,510977
1271.75,0.094638,638574,513539
1276.33,0.094902,642499,516381
1279.76,0.094535,645905,519558
1283.19,0.093771,648307,522408
1286.61,0.093549,650446,524400
1290.03,0.093047,652132,526367
1293.44,0.092633,653907,528303
1296.85,0.092413,655963,530233
1301.39,0.092151,657349,531673
1304.8,0.091956,657558,532081
1308.19,0.091766,658515,533089
1311.58,0.091917,658804,533137
1314.97,0.092748,659011,532286
1318.36,0.093259,658272,531063
1321.73,0.093318,658022,530789
1326.23,0.094320,657870,529444
1329.6,0.094738,656482,527819
1332.97,0.095577,654926,525551
1336.33,0.096345,653727,523663
1339.69,0.098366,652497,520251
1343.04,0.099400,649913,516958
1346.39,0.101621,647671,512547
1349.73,0.103288,645338,508744
1354.18,0.106319,641175,501947
1357.52,0.108244,638376,497545
1360.85,0.110351,635805,493143
1364.17,0.111972,633413,489458
1367.49,0.114529,631026,484751
1370.81,0.116627,628050,480139
1374.12,0.118778,625034,475473
1378.54,0.121484,620272,468919
1381.84,0.124346,616892,463301
1385.14,0.127658,613613,457337
1388.43,0.131322,611526,451953
1391.72,0.135127,610663,447378
1395.01,0.139251,610634,443129
1398.29,0.143581,611700,439499
1402.66,0.149739,614051,434976
1405.93,0.153922,616268,432362
1409.2,0.158839,617795,428554
1412.46,0.163358,618872,424857
1415.72,0.166768,619795,422163
1418.98,0.170364,620495,419155
1422.23,0.173772,621087,416275
1426.56,0.177470,621375,412937
1429.8,0.180150,621616,410556
1433.04,0.182731,622129,408460
1436.27,0.184799,621526,406126
1439.5,0.186981,621113,403822
1442.72,0.189189,620921,401650
1445.94,0.191157,620270,399414
1450.23,0.194759,618860,395215
1453.44,0.198563,617697,391032
1456.64,0.200801,616264,388120
1459.85,0.203626,614413,384445
1463.04,0.206577,612307,380533
1466.24,0.209674,610032,376425
1469.43,0.213659,607345,371344
1473.67,0.220025,603789,363798
1476.85,0.225620,601175,357586
1480.02,0.232090,597737,350284
1483.19,0.238202,594479,343506
1486.36,0.244484,591232,336724
1489.52,0.248817,587853,331476
1492.68,0.252116,583875,326741
1496.89,0.254521,578062,321702
1500.03,0.255717,574159,318651
1503.18,0.255539,570285,316631
1506.32,0.255141,565444,314231
1509.45,0.253104,560571,312987
1512.58,0.252135,555821,311028
1515.71,0.248882,550344,310279
1519.87,0.245790,543983,308884
1522.99,0.243525,538764,307520
1526.1,0.241029,533692,306381
1529.21,0.238493,527902,304832
1532.32,0.235786,521886,303242
1535.42,0.232274,515888,302191
1538.51,0.229476,509987,300665
1541.6,0.226558,503936,299101
1545.72,0.221939,494694,296755
1548.8,0.219954,488378,294308
1551.88,0.217827,481832,291789
1554.95,0.215355,474989,289287
1558.02,0.214338,467818,285587
1561.08,0.212914,460730,282184
1564.15,0.211782,454170,278892
1568.22,0.211202,444181,273123
1571.27,0.210927,436947,268845
1574.32,0.210077,429598,264841
1577.36,0.208740,422039,260983
1580.4,0.207579,414375,256930
1583.43,0.205556,406354,253133
1586.46,0.204027,398475,249100
1590.49,0.202243,388982,244167
1593.51,0.201089,380708,239609
1596.53,0.198945,372727,235747
1599.54,0.197286,365060,231781
1602.55,0.195289,357543,228055
1605.55,0.192916,349495,224143
1608.55,0.191205,341154,219657
1612.54,0.189458,330877,213899
1615.53,0.187469,322904,209703
1618.51,0.186482,315116,205111
1621.49,0.185855,307217,200258
1624.47,0.183389,299481,196327
1627.44,0.184105,292112,191181
1630.41,0.183538,284245,186275
1634.36,0.181427,274079,180488
1637.32,0.181242,266916,175846
1640.27,0.179757,259612,171620
1643.22,0.179268,251804,166646
1646.16,0.178084,244348,162153
1649.1,0.177047,236703,157455
1652.04,0.176143,228171,152096
1655.95,0.172418,215408,144825
1658.88,0.169253,204937,138793
1661.8,0.163640,193395,132680
1664.72,0.155422,179728,125659
1667.63,0.143809,163642,117513
1670.54,0.129966,146312,108471
1673.44,0.112528,128451,99131
1677.31,0.093508,105080,84725
1680.21,0.081487,88906,73696
1683.1,0.073417,75033,63363
1685.99,0.073859,63520,53586
1688.87,0.079100,53714,44770
1691.75,0.079743,45653,37995
1694.62,0.089192,39137,31871
1697.49,0.094630,33776,27163
1701.31,0.100703,28175,22344