File: samples/wool/wool-000811/Column 1_050555_20150331_120217.csv
Method:,Column 1,,
Host Date-Time:,31/3/15 @ 12:2:17,,
Header Version:,1,,
System Temp (C):,33.5,,
Detector Temp (C):,32.6,,
Humidity (%):,2.44,,
Lamp PD:,3820,,
Shift Vector Coefficients:,-10.5391,0.0761263,-0.000134223,,
Pixel to Wavelength Coefficients:,1775.68,-0.916766,-0.000235065,,
Serial Number:,5510004,,
Scan Config Name:,Column 1,,
Scan Config Type:,Slew,,
Section 1,,
Start wavelength (nm):,900,,
End wavelength (nm):,1700,,
Pattern Pixel Width (nm):,   7.03,,,,
Exposure (ms):,  0.635,,,,
Digital Resolution:,228,,
Num Repeats:,6,,
PGA Gain:,64,,
Total Measurement Time in sec:,  2.725,,
Wavelength (nm),Absorbance (AU),Reference Signal (unitless),Sample Signal (unitless)
901.51,0.033537,108485,100423
905.376,0.040606,121306,110478
909.237,0.041879,131909,119783
913.095,0.042838,143299,129839
916.948,0.042712,156982,142278
922.079,0.044588,179937,162380
925.923,0.045718,200504,180470
929.762,0.045953,222660,200304
933.597,0.046118,244426,219801
937.427,0.045686,263972,237614
941.254,0.045269,281845,253946
945.076,0.045318,297271,267815
950.165,0.045674,315605,284099
953.978,0.045089,328029,295681
957.786,0.045770,340470,306414
961.59,0.046181,352317,316776
965.389,0.046591,363056,326124
969.185,0.046175,373162,335523
972.976,0.047001,382632,343384
976.763,0.047641,391202,350558
981.806,0.048541,400190,357870
985.583,0.048625,406088,363074
989.355,0.049345,410162,366109
993.124,0.050256,412868,367752
996.888,0.050506,414263,368782
1000.65,0.051487,415476,369028
1004.4,0.052490,415479,368179
1009.41,0.053822,414358,366061
1013.15,0.054180,412923,364493
1016.89,0.054947,411526,362619
1020.63,0.054856,409066,360527
1024.36,0.054607,406777,358715
1028.09,0.054600,404427,356648
1031.82,0.054460,401911,354544
1036.78,0.054055,398410,351783
1040.49,0.053435,396204,350335
1044.2,0.053638,394236,348432
1047.91,0.052882,392042,347097
1051.61,0.052639,389823,345325
1055.31,0.051751,388234,344622
1059,0.051651,387599,344137
1063.92,0.050532,386688,344214
1067.61,0.049295,386598,345116
1071.29,0.048256,387377,346639
1074.96,0.049138,388536,346971
1078.63,0.048105,389855,348978
1082.3,0.046683,391215,351344
1085.96,0.047035,393215,352854
1090.84,0.045280,396270,357035
1094.49,0.045466,398760,359125
1098.14,0.045088,400987,361445
1101.79,0.044605,403477,364094
1105.43,0.045316,406116,365876
1109.06,0.044050,407701,368376
1112.7,0.043945,409859,370416
1117.53,0.044515,412494,372308
1121.15,0.044608,414909,374408
1124.77,0.045981,416559,374710
1128.38,0.047116,418532,375502
1131.99,0.048478,419956,375600
1135.6,0.050278,421946,375819
1139.2,0.052228,423881,375851
1143.99,0.054224,426786,376692
1147.58,0.055358,428617,377321
1151.17,0.056133,431169,378891
1154.75,0.058234,433579,379170
1158.33,0.059604,436264,380317
1161.91,0.062235,439132,380505
1165.48,0.064149,442389,381641
1169.04,0.066587,446101,382689
1173.79,0.071015,451929,383756
1177.34,0.072283,456026,386106
1180.9,0.075250,461306,387917
1184.44,0.077423,467657,391295
1187.99,0.077906,473969,396136
1191.52,0.077565,479856,401371
1195.06,0.077679,487372,407551
1199.76,0.076549,497347,416975
1203.29,0.075795,504311,423549
1206.81,0.074861,511507,430517
1210.33,0.074043,519078,437713
1213.84,0.073190,527163,445405
1217.35,0.072653,534208,451916
1220.85,0.071779,540472,458136
1225.51,0.071325,549929,466640
1229.01,0.069739,556888,474274
1232.5,0.069350,562180,479210
1235.98,0.068902,567975,484649
1239.46,0.068153,574815,491332
1242.94,0.067074,582782,499381
1246.41,0.066499,591476,507503
1251.03,0.066192,604016,518629
1254.5,0.066399,612289,525482
1257.96,0.066842,619125,530807
1261.41,0.067355,624551,534826
1264.86,0.067841,629900,538804
1268.31,0.068429,634345,541872
1271.75,0.069183,638574,544538
1276.33,0.069625,642499,547328
1279.76,0.069498,645905,550390
1283.19,0.069007,648307,553062
1286.61,0.068447,650446,555602
1290.03,0.068404,652132,557098
1293.44,0.067751,653907,559455
1296.85,0.067492,655963,561548
1301.39,0.067558,657349,562650
1304.8,0.068005,657558,562250
1308.19,0.067805,658515,563327
1311.58,0.067785,658804,563600
1314.97,0.068660,659011,562643
1318.36,0.069217,658272,561292
1321.73,0.069402,658022,560839
1326.23,0.070652,657870,559098
1329.6,0.071393,656482,556968
1332.97,0.072618,654926,554082
1336.33,0.073845,653727,551508
1339.69,0.075894,652497,547879
1343.04,0.077369,649913,543859
1346.39,0.079614,647671,539188
1349.73,0.081958,645338,534354
1354.18,0.085393,641175,526725
1357.52,0.087443,638376,521956
1360.85,0.089417,635805,517496
1364.17,0.091946,633413,512556
1367.49,0.094511,631026,507617
1370.81,0.096754,628050,502620
1374.12,0.099068,625034,497549
1378.54,0.103284,620272,488988
1381.84,0.106758,616892,482449
1385.14,0.110126,613613,476177
1388.43,0.115460,611526,468765
1391.72,0.120724,610663,462464
1395.01,0.125263,610634,457634
1398.29,0.131248,611700,452158
1402.66,0.139022,614051,445844
1405.93,0.145723,616268,440602
1409.2,0.150824,617795,436536
1412.46,0.156977,618872,431145
1415.72,0.161543,619795,427273
1418.98,0.165815,620495,423568
1422.23,0.170255,621087,419660
1426.56,0.174464,621375,415805
1429.8,0.177815,621616,412769
1433.04,0.180514,622129,410550
1436.27,0.182973,621526,407837
1439.5,0.185264,621113,405421
1442.72,0.187961,620921,402787
1445.94,0.190116,620270,400373
1450.23,0.194301,618860,395632
1453.44,0.197158,617697,392299
1456.64,0.199876,616264,388947
1459.85,0.202418,614413,385516
1463.04,0.204974,612307,381940
1466.24,0.208108,610032,377785
1469.43,0.211453,607345,373235
1473.67,0.217080,603789,366273
1476.85,0.221993,601175,360585
1480.02,0.228293,597737,353360
1483.19,0.234067,594479,346792
1486.36,0.240084,591232,340153
1489.52,0.245433,587853,334069
1492.68,0.248059,583875,329808
1496.89,0.250448,578062,324733
1500.03,0.250536,574159,322475
1503.18,0.250691,570285,320185
1506.32,0.250151,565444,317862
1509.45,0.248695,560571,316181
1512.58,0.247020,555821,314713
1515.71,0.245093,550344,312998
1519.87,0.241686,543983,311817
1522.99,0.239088,538764,310678
1526.1,0.236328,533692,309715
1529.21,0.233602,527902,308284
1532.32,0.230293,521886,307102
1535.42,0.227666,515888,305414
1538.51,0.224149,509987,304376
1541.6,0.221531,503936,302583
1545.72,0.216348,494694,300600
1548.8,0.213599,488378,298646
1551.88,0.211223,481832,296260
1554.95,0.209096,474989,293486
1558.02,0.206763,467818,290612
1561.08,0.205126,460730,287290
1564.15,0.204696,454170,283480
1568.22,0.203033,444181,278309
1571.27,0.203181,436947,273683
1574.32,0.202521,429598,269489
1577.36,0.200526,422039,265966
1580.4,0.199256,414375,261901
1583.43,0.197149,406354,258081
1586.46,0.194985,398475,254341
1590.49,0.193796,388982,248962
1593.51,0.190978,380708,245253
1596.53,0.189082,372727,241162
1599.54,0.186463,365060,237630
1602.55,0.183884,357543,234123
1605.55,0.181949,349495,229875
1608.55,0.180135,341154,225328
1612.54,0.177617,330877,219811
1615.53,0.176140,322904,215245
1618.51,0.175053,315116,210580
1621.49,0.173357,307217,206105
1624.47,0.171928,299481,201577
1627.44,0.171271,292112,196915
1630.41,0.170315,284245,192034
1634.36,0.168459,274079,185959
1637.32,0.166977,266916,181718
1640.27,0.167191,259612,176658
1643.22,0.165168,251804,172145
1646.16,0.164087,244348,167464
1649.1,0.163107,236703,162591
1652.04,0.163136,228171,156720
1655.95,0.160711,215408,148782
1658.88,0.157446,204937,142618
1661.8,0.153977,193395,135665
1664.72,0.148520,179728,127672
1667.63,0.140994,163642,118277
1670.54,0.130724,146312,108282
1673.44,0.120647,128451,97295
1677.31,0.107574,105080,82025
1680.21,0.101655,88906,70352
1683.1,0.100159,75033,59579
1685.99,0.104740,63520,49908
1688.87,0.109046,53714,41787
1691.75,0.114918,45653,35039
1694.62,0.117018,39137,29893
1697.49,0.121489,33776,25534
1701.31,0.129261,28175,20922