File: samples/wool/wool-000811/Column 1_050531_20150331_115053.csv
Method:,Column 1,,
Host Date-Time:,31/3/15 @ 11:50:53,,
Header Version:,1,,
System Temp (C):,30.14,,
Detector Temp (C):,31.9,,
Humidity (%):,4.96,,
Lamp PD:,3832,,
Shift Vector Coefficients:,-10.5391,0.0761263,-0.000134223,,
Pixel to Wavelength Coefficients:,1775.68,-0.916766,-0.000235065,,
Serial Number:,5510004,,
Scan Config Name:,Column 1,,
Scan Config Type:,Slew,,
Section 1,,
Start wavelength (nm):,900,,
End wavelength (nm):,1700,,
Pattern Pixel Width (nm):,   7.03,,,,
Exposure (ms):,  0.635,,,,
Digital Resolution:,228,,
Num Repeats:,6,,
PGA Gain:,64,,
Total Measurement Time in sec:,  2.685,,
Wavelength (nm),Absorbance (AU),Reference Signal (unitless),Sample Signal (unitless)
901.51,0.045778,108485,97632
905.376,0.050567,121306,107973
909.237,0.052765,131909,116818
913.095,0.052429,143299,127003
916.948,0.052404,156982,139138
922.079,0.052681,179937,159382
925.923,0.053179,200504,177396
929.762,0.053699,222660,196763
933.597,0.054205,244426,215746
937.427,0.054252,263972,232973
941.254,0.054803,281845,248432
945.076,0.054778,297271,262044
950.165,0.053941,315605,278742
953.978,0.054247,328029,289511
957.786,0.054704,340470,300175
961.59,0.055915,352317,309755
965.389,0.056175,363056,319006
969.185,0.056312,373162,327782
972.976,0.056954,382632,335604
976.763,0.057034,391202,343058
981.806,0.057834,400190,350294
985.583,0.058884,406088,354598
989.355,0.059952,410162,357276
993.124,0.060045,412868,359556
996.888,0.060141,414263,360691
1000.65,0.061786,415476,360379
1004.4,0.062134,415479,360093
1009.41,0.064044,414358,357546
1013.15,0.064446,412923,355978
1016.89,0.064651,411526,354606
1020.63,0.064608,409066,352521
1024.36,0.064480,406777,350652
1028.09,0.063878,404427,349110
1031.82,0.063366,401911,347347
1036.78,0.063229,398410,344430
1040.49,0.062517,396204,343085
1044.2,0.062236,394236,341602
1047.91,0.060995,392042,340673
1051.61,0.060663,389823,339004
1055.31,0.060463,388234,337777
1059,0.059160,387599,338238
1063.92,0.057975,386688,338365
1067.61,0.057105,386598,338965
1071.29,0.057261,387377,339526
1074.96,0.056438,388536,341188
1078.63,0.055491,389855,343093
1082.3,0.054160,391215,345347
1085.96,0.053873,393215,347342
1090.84,0.052663,396270,351017
1094.49,0.052116,398760,353668
1098.14,0.052155,400987,355611
1101.79,0.052181,403477,357798
1105.43,0.051639,406116,360588
1109.06,0.051103,407701,362442
1112.7,0.051376,409859,364132
1117.53,0.051130,412494,366680
1121.15,0.052503,414909,367663
1124.77,0.052504,416559,369124
1128.38,0.053716,418532,369839
1131.99,0.055596,419956,369494
1135.6,0.058246,421946,368987
1139.2,0.060040,423881,369151
1143.99,0.063392,426786,368823
1147.58,0.064426,428617,369525
1151.17,0.065206,431169,371058
1154.75,0.066765,433579,371795
1158.33,0.069310,436264,371911
1161.91,0.072054,439132,371998
1165.48,0.074524,442389,372632
1169.04,0.077417,446101,373264
1173.79,0.082171,451929,374024
1177.34,0.084372,456026,375507
1180.9,0.087214,461306,377377
1184.44,0.088914,467657,381078
1187.99,0.089874,473969,385368
1191.52,0.089439,479856,390546
1195.06,0.088938,487372,397121
1199.76,0.087480,497347,406611
1203.29,0.085996,504311,413716
1206.81,0.085210,511507,420380
1210.33,0.084092,519078,427701
1213.84,0.082558,527163,435900
1217.35,0.081619,534208,442682
1220.85,0.080571,540472,448954
1225.51,0.079414,549929,458029
1229.01,0.078456,556888,464849
1232.5,0.077512,562180,470287
1235.98,0.076653,567975,476076
1239.46,0.075541,574815,483045
1242.94,0.074276,582782,491168
1246.41,0.073733,591476,499119
1251.03,0.073118,604016,510423
1254.5,0.073180,612289,517340
1257.96,0.073461,619125,522778
1261.41,0.074080,624551,526609
1264.86,0.074695,629900,530367
1268.31,0.075367,634345,533284
1271.75,0.076165,638574,535854
1276.33,0.076534,642499,538689
1279.76,0.076277,645905,541866
1283.19,0.075931,648307,544314
1286.61,0.075871,650446,546185
1290.03,0.075097,652132,548578
1293.44,0.074439,653907,550905
1296.85,0.074458,655963,552613
1301.39,0.074184,657349,554130
1304.8,0.074353,657558,554091
1308.19,0.074269,658515,555005
1311.58,0.074565,658804,554870
1314.97,0.075271,659011,554143
1318.36,0.075767,658272,552890
1321.73,0.076561,658022,551670
1326.23,0.077846,657870,549913
1329.6,0.078693,656482,547684
1332.97,0.079794,654926,545002
1336.33,0.081335,653727,542077
1339.69,0.083550,652497,538305
1343.04,0.085594,649913,533656
1346.39,0.087749,647671,529182
1349.73,0.090308,645338,524179
1354.18,0.093809,641175,516616
1357.52,0.096334,638376,511379
1360.85,0.098698,635805,506554
1364.17,0.101089,633413,501878
1367.49,0.103920,631026,496738
1370.81,0.106791,628050,491138
1374.12,0.109486,625034,485755
1378.54,0.112804,620272,478386
1381.84,0.117529,616892,470631
1385.14,0.122493,613613,462809
1388.43,0.127878,611526,455551
1391.72,0.134231,610663,448302
1395.01,0.139873,610634,442495
1398.29,0.146844,611700,436209
1402.66,0.156306,614051,428448
1405.93,0.163549,616268,422883
1409.2,0.170790,617795,416922
1412.46,0.177003,618872,411716
1415.72,0.183021,619795,406656
1418.98,0.187906,620495,402562
1422.23,0.192684,621087,398537
1426.56,0.197545,621375,394284
1429.8,0.201443,621616,390912
1433.04,0.204369,622129,388608
1436.27,0.207405,621526,385527
1439.5,0.209602,621113,383326
1442.72,0.212460,620921,380694
1445.94,0.214761,620270,378286
1450.23,0.218863,618860,373878
1453.44,0.221969,617697,370516
1456.64,0.224561,616264,367456
1459.85,0.227318,614413,364034
1463.04,0.229335,612307,361106
1466.24,0.232163,610032,357429
1469.43,0.235125,607345,353436
1473.67,0.240247,603789,347247
1476.85,0.243744,601175,342971
1480.02,0.249538,597737,336490
1483.19,0.254645,594479,330744
1486.36,0.260611,591232,324449
1489.52,0.265067,587853,319302
1492.68,0.268187,583875,314871
1496.89,0.271701,578062,309224
1500.03,0.272157,574159,306814
1503.18,0.272185,570285,304724
1506.32,0.271887,565444,302345
1509.45,0.270770,560571,300511
1512.58,0.269339,555821,298948
1515.71,0.267188,550344,297472
1519.87,0.264088,543983,296140
1522.99,0.261310,538764,295181
1526.1,0.258751,533692,294130
1529.21,0.255792,527902,292928
1532.32,0.253511,521886,291115
1535.42,0.248828,515888,290889
1538.51,0.245435,509987,289817
1541.6,0.243356,503936,287753
1545.72,0.237706,494694,286174
1548.8,0.235132,488378,284200
1551.88,0.232214,481832,282281
1554.95,0.229764,474989,279846
1558.02,0.228228,467818,276598
1561.08,0.225661,460730,274022
1564.15,0.225059,454170,270495
1568.22,0.224580,444181,264838
1571.27,0.223273,436947,261310
1574.32,0.221771,429598,257805
1577.36,0.220625,422039,253938
1580.4,0.218348,414375,250637
1583.43,0.216771,406354,246680
1586.46,0.214945,398475,242916
1590.49,0.212099,388982,238688
1593.51,0.209624,380708,234946
1596.53,0.205978,372727,231960
1599.54,0.205095,365060,227651
1602.55,0.202573,357543,224262
1605.55,0.200622,349495,220201
1608.55,0.197960,341154,216267
1612.54,0.195078,330877,211149
1615.53,0.193019,322904,207040
1618.51,0.191263,315116,202865
1621.49,0.190241,307217,198246
1624.47,0.187590,299481,194437
1627.44,0.185714,292112,190474
1630.41,0.184413,284245,185900
1634.36,0.182374,274079,180095
1637.32,0.182006,266916,175537
1640.27,0.180773,259612,171219
1643.22,0.180612,251804,166131
1646.16,0.177516,244348,162365
1649.1,0.178033,236703,157098
1652.04,0.176937,228171,151818
1655.95,0.175829,215408,143692
1658.88,0.174811,204937,137028
1661.8,0.172545,193395,129987
1664.72,0.171343,179728,121136
1667.63,0.165997,163642,111660
1670.54,0.159349,146312,101375
1673.44,0.156037,128451,89681
1677.31,0.153081,105080,73865
1680.21,0.152745,88906,62544
1683.1,0.156759,75033,52299
1685.99,0.160446,63520,43900
1688.87,0.165481,53714,36695
1691.75,0.166737,45653,31098
1694.62,0.168818,39137,26532
1697.49,0.176348,33776,22504
1701.31,0.182434,28175,18511