File: samples/wool/wool-000811/Column 1_050543_20150331_115632.csv
Method:,Column 1,,
Host Date-Time:,31/3/15 @ 11:56:32,,
Header Version:,1,,
System Temp (C):,32.64,,
Detector Temp (C):,30.97,,
Humidity (%):,2.74,,
Lamp PD:,3824,,
Shift Vector Coefficients:,-10.5391,0.0761263,-0.000134223,,
Pixel to Wavelength Coefficients:,1775.68,-0.916766,-0.000235065,,
Serial Number:,5510004,,
Scan Config Name:,Column 1,,
Scan Config Type:,Slew,,
Section 1,,
Start wavelength (nm):,900,,
End wavelength (nm):,1700,,
Pattern Pixel Width (nm):,   7.03,,,,
Exposure (ms):,  0.635,,,,
Digital Resolution:,228,,
Num Repeats:,6,,
PGA Gain:,64,,
Total Measurement Time in sec:,  2.725,,
Wavelength (nm),Absorbance (AU),Reference Signal (unitless),Sample Signal (unitless)
901.51,0.045875,108485,97610
905.376,0.053137,121306,107336
909.237,0.053773,131909,116547
913.095,0.053162,143299,126789
916.948,0.052173,156982,139212
922.079,0.053000,179937,159265
925.923,0.054579,200504,176825
929.762,0.054908,222660,196216
933.597,0.054884,244426,215409
937.427,0.054730,263972,232717
941.254,0.054336,281845,248699
945.076,0.055110,297271,261844
950.165,0.054987,315605,278072
953.978,0.054723,328029,289194
957.786,0.055114,340470,299892
961.59,0.055555,352317,310012
965.389,0.055397,363056,319578
969.185,0.055967,373162,328043
972.976,0.056918,382632,335632
976.763,0.056863,391202,343193
981.806,0.057954,400190,350197
985.583,0.058196,406088,355160
989.355,0.059406,410162,357725
993.124,0.059170,412868,360281
996.888,0.060400,414263,360476
1000.65,0.060691,415476,361289
1004.4,0.061999,415479,360205
1009.41,0.063732,414358,357803
1013.15,0.063667,412923,356617
1016.89,0.064335,411526,354864
1020.63,0.064347,409066,352733
1024.36,0.064553,406777,350593
1028.09,0.063775,404427,349193
1031.82,0.064055,401911,346797
1036.78,0.062966,398410,344639
1040.49,0.062330,396204,343233
1044.2,0.061200,394236,342418
1047.91,0.061435,392042,340328
1051.61,0.060555,389823,339088
1055.31,0.060064,388234,338088
1059,0.059639,387599,337865
1063.92,0.057702,386688,338578
1067.61,0.056735,386598,339254
1071.29,0.056059,387377,340467
1074.96,0.055880,388536,341626
1078.63,0.055289,389855,343253
1082.3,0.053810,391215,345625
1085.96,0.053261,393215,347832
1090.84,0.052486,396270,351160
1094.49,0.052508,398760,353349
1098.14,0.051834,400987,355874
1101.79,0.051297,403477,358527
1105.43,0.051680,406116,360554
1109.06,0.050436,407701,362999
1112.7,0.050800,409859,364615
1117.53,0.050593,412494,367134
1121.15,0.051191,414909,368775
1124.77,0.052147,416559,369428
1128.38,0.053770,418532,369793
1131.99,0.055526,419956,369554
1135.6,0.057779,421946,369384
1139.2,0.059182,423881,369881
1143.99,0.061966,426786,370036
1147.58,0.063688,428617,370153
1151.17,0.064427,431169,371724
1154.75,0.066330,433579,372167
1158.33,0.068229,436264,372838
1161.91,0.070961,439132,372936
1165.48,0.073661,442389,373373
1169.04,0.076742,446101,373845
1173.79,0.080478,451929,375485
1177.34,0.083304,456026,376431
1180.9,0.086271,461306,378197
1184.44,0.087791,467657,382064
1187.99,0.089027,473969,386121
1191.52,0.088290,479856,391580
1195.06,0.087458,487372,398476
1199.76,0.086196,497347,407815
1203.29,0.084933,504311,414730
1206.81,0.083497,511507,422041
1210.33,0.082529,519078,429243
1213.84,0.081450,527163,437014
1217.35,0.080812,534208,443505
1220.85,0.079157,540472,450418
1225.51,0.078113,549929,459403
1229.01,0.077133,556888,466267
1232.5,0.076454,562180,471435
1235.98,0.075512,567975,477328
1239.46,0.074557,574815,484140
1242.94,0.072930,582782,492693
1246.41,0.072545,591476,500486
1251.03,0.071938,604016,511812
1254.5,0.071931,612289,518830
1257.96,0.072348,619125,524120
1261.41,0.073098,624551,527801
1264.86,0.073396,629900,531956
1268.31,0.074034,634345,534923
1271.75,0.075045,638574,537237
1276.33,0.075347,642499,540164
1279.76,0.075070,645905,543374
1283.19,0.074685,648307,545878
1286.61,0.074404,650446,548034
1290.03,0.073577,652132,550501
1293.44,0.073313,653907,552335
1296.85,0.072971,655963,554509
1301.39,0.072557,657349,556210
1304.8,0.072763,657558,556123
1308.19,0.073471,658515,556025
1311.58,0.073021,658804,556846
1314.97,0.073957,659011,555822
1318.36,0.074227,658272,554853
1321.73,0.074991,658022,553668
1326.23,0.075933,657870,552341
1329.6,0.076981,656482,549847
1332.97,0.078122,654926,547104
1336.33,0.079618,653727,544225
1339.69,0.081376,652497,541006
1343.04,0.083717,649913,535967
1346.39,0.085720,647671,531661
1349.73,0.087970,645338,527008
1354.18,0.091511,641175,519356
1357.52,0.093922,638376,514227
1360.85,0.096516,635805,509106
1364.17,0.099325,633413,503921
1367.49,0.102059,631026,498871
1370.81,0.104693,628050,493516
1374.12,0.107324,625034,488180
1378.54,0.111450,620272,479879
1381.84,0.115407,616892,472936
1385.14,0.119689,613613,465807
1388.43,0.125074,611526,458502
1391.72,0.130710,610663,451951
1395.01,0.136028,610634,446430
1398.29,0.142412,611700,440683
1402.66,0.150934,614051,433781
1405.93,0.157386,616268,428927
1409.2,0.163890,617795,423598
1412.46,0.169532,618872,418860
1415.72,0.174683,619795,414539
1418.98,0.179278,620495,410639
1422.23,0.183697,621087,406870
1426.56,0.188777,621375,402325
1429.8,0.191201,621616,400241
1433.04,0.194379,622129,397650
1436.27,0.197205,621526,394688
1439.5,0.198654,621113,393112
1442.72,0.201590,620921,390343
1445.94,0.204298,620270,387510
1450.23,0.208320,618860,383065
1453.44,0.210771,617697,380193
1456.64,0.214001,616264,376501
1459.85,0.217163,614413,372647
1463.04,0.219234,612307,369603
1466.24,0.222773,610032,365241
1469.43,0.226041,607345,360906
1473.67,0.230827,603789,354861
1476.85,0.236299,601175,348901
1480.02,0.242240,597737,342192
1483.19,0.248012,594479,335834
1486.36,0.254326,591232,329179
1489.52,0.259313,587853,323561
1492.68,0.263365,583875,318387
1496.89,0.266320,578062,313079
1500.03,0.267068,574159,310430
1503.18,0.266941,570285,308426
1506.32,0.266323,565444,306243
1509.45,0.265500,560571,304180
1512.58,0.263617,555821,302913
1515.71,0.261955,550344,301078
1519.87,0.258655,543983,299868
1522.99,0.255931,538764,298860
1526.1,0.253171,533692,297934
1529.21,0.249725,527902,297049
1532.32,0.246735,521886,295693
1535.42,0.243504,515888,294477
1538.51,0.240745,509987,292964
1541.6,0.236717,503936,292185
1545.72,0.231904,494694,290023
1548.8,0.228654,488378,288471
1551.88,0.225526,481832,286662
1554.95,0.223924,474989,283635
1558.02,0.222211,467818,280457
1561.08,0.220173,460730,277507
1564.15,0.219558,454170,273943
1568.22,0.219012,444181,268255
1571.27,0.217294,436947,264932
1574.32,0.216738,429598,260810
1577.36,0.214773,422039,257383
1580.4,0.212960,414375,253766
1583.43,0.211255,406354,249833
1586.46,0.209798,398475,245812
1590.49,0.207550,388982,241201
1593.51,0.204526,380708,237720
1596.53,0.201991,372727,234099
1599.54,0.201549,365060,229517
1602.55,0.198224,357543,226519
1605.55,0.195536,349495,222795
1608.55,0.192681,341154,218912
1612.54,0.190490,330877,213391
1615.53,0.188086,322904,209405
1618.51,0.187126,315116,204807
1621.49,0.185680,307217,200339
1624.47,0.183648,299481,196210
1627.44,0.182386,292112,191939
1630.41,0.181058,284245,187342
1634.36,0.178564,274079,181682
1637.32,0.177509,266916,177364
1640.27,0.177347,259612,172575
1643.22,0.175818,251804,167975
1646.16,0.175411,244348,163154
1649.1,0.174495,236703,158383
1652.04,0.172945,228171,153220
1655.95,0.171864,215408,145010
1658.88,0.169892,204937,138589
1661.8,0.167444,193395,131523
1664.72,0.164128,179728,123165
1667.63,0.158669,163642,113560
1670.54,0.152793,146312,102917
1673.44,0.145677,128451,91846
1677.31,0.139662,105080,76183
1680.21,0.135510,88906,65076
1683.1,0.138362,75033,54562
1685.99,0.144003,63520,45594
1688.87,0.151402,53714,37904
1691.75,0.155883,45653,31885
1694.62,0.158402,39137,27176
1697.49,0.168659,33776,22906
1701.31,0.167264,28175,19169