File: samples/wool/wool-000811/Column 1_050598_20150331_122232.csv
Method:,Column 1,,
Host Date-Time:,31/3/15 @ 12:22:32,,
Header Version:,1,,
System Temp (C):,33.93,,
Detector Temp (C):,34.72,,
Humidity (%):,1.76,,
Lamp PD:,3818,,
Shift Vector Coefficients:,-10.5391,0.0761263,-0.000134223,,
Pixel to Wavelength Coefficients:,1775.68,-0.916766,-0.000235065,,
Serial Number:,5510004,,
Scan Config Name:,Column 1,,
Scan Config Type:,Slew,,
Section 1,,
Start wavelength (nm):,900,,
End wavelength (nm):,1700,,
Pattern Pixel Width (nm):,   7.03,,,,
Exposure (ms):,  0.635,,,,
Digital Resolution:,228,,
Num Repeats:,6,,
PGA Gain:,64,,
Total Measurement Time in sec:,  2.669,,
Wavelength (nm),Absorbance (AU),Reference Signal (unitless),Sample Signal (unitless)
901.51,0.069712,108485,92397
905.376,0.076660,121306,101677
909.237,0.078057,131909,110209
913.095,0.079272,143299,119391
916.948,0.079388,156982,130756
922.079,0.081046,179937,149305
925.923,0.081842,200504,166066
929.762,0.083183,222660,183848
933.597,0.083862,244426,201505
937.427,0.082166,263972,218470
941.254,0.081543,281845,233597
945.076,0.080313,297271,247081
950.165,0.079618,315605,262740
953.978,0.079009,328029,273466
957.786,0.078871,340470,283928
961.59,0.078670,352317,293943
965.389,0.078922,363056,302727
969.185,0.078763,373162,311268
972.976,0.078495,382632,319364
976.763,0.079613,391202,325678
981.806,0.080164,400190,332738
985.583,0.081239,406088,336807
989.355,0.081095,410162,340299
993.124,0.081968,412868,341856
996.888,0.082107,414263,342901
1000.65,0.082466,415476,343621
1004.4,0.083773,415479,342591
1009.41,0.085148,414358,340587
1013.15,0.085176,412923,339385
1016.89,0.086013,411526,337586
1020.63,0.085291,409066,336126
1024.36,0.085587,406777,334018
1028.09,0.086459,404427,331422
1031.82,0.086361,401911,329434
1036.78,0.084729,398410,327794
1040.49,0.085447,396204,325441
1044.2,0.084468,394236,324555
1047.91,0.084788,392042,322511
1051.61,0.084337,389823,321019
1055.31,0.084094,388234,319889
1059,0.083425,387599,319858
1063.92,0.083213,386688,319262
1067.61,0.081845,386598,320195
1071.29,0.081701,387377,320947
1074.96,0.081486,388536,322066
1078.63,0.080811,389855,323662
1082.3,0.079843,391215,325516
1085.96,0.079420,393215,327499
1090.84,0.078262,396270,330925
1094.49,0.077739,398760,333405
1098.14,0.076945,400987,335881
1101.79,0.076689,403477,338166
1105.43,0.076112,406116,340830
1109.06,0.075532,407701,342618
1112.7,0.074842,409859,344979
1117.53,0.074828,412494,347208
1121.15,0.075258,414909,348895
1124.77,0.075572,416559,350029
1128.38,0.076506,418532,350932
1131.99,0.076410,419956,352204
1135.6,0.079387,421946,351455
1139.2,0.080355,423881,352281
1143.99,0.082327,426786,353088
1147.58,0.082882,428617,354150
1151.17,0.084605,431169,354848
1154.75,0.084676,433579,356773
1158.33,0.086360,436264,357593
1161.91,0.087580,439132,358934
1165.48,0.090304,442389,359336
1169.04,0.092721,446101,360340
1173.79,0.095532,451929,362692
1177.34,0.097196,456026,364581
1180.9,0.099615,461306,366753
1184.44,0.101531,467657,370166
1187.99,0.102752,473969,374109
1191.52,0.102299,479856,379151
1195.06,0.102425,487372,384978
1199.76,0.101968,497347,393271
1203.29,0.100888,504311,399770
1206.81,0.100870,511507,405491
1210.33,0.100169,519078,412158
1213.84,0.099539,527163,419185
1217.35,0.099247,534208,425073
1220.85,0.098067,540472,431227
1225.51,0.097544,549929,439301
1229.01,0.097367,556888,445042
1232.5,0.096412,562180,450260
1235.98,0.096004,567975,455329
1239.46,0.094792,574815,462100
1242.94,0.093593,582782,469800
1246.41,0.093277,591476,477156
1251.03,0.093453,604016,487074
1254.5,0.093228,612289,494002
1257.96,0.093599,619125,499091
1261.41,0.094466,624551,502460
1264.86,0.094612,629900,506593
1268.31,0.095268,634345,509398
1271.75,0.095720,638574,512261
1276.33,0.095896,642499,515201
1279.76,0.096514,645905,517195
1283.19,0.095162,648307,520737
1286.61,0.094739,650446,522964
1290.03,0.094525,652132,524578
1293.44,0.094212,653907,526386
1296.85,0.094081,655963,528200
1301.39,0.094153,657349,529228
1304.8,0.093916,657558,529685
1308.19,0.093726,658515,530688
1311.58,0.094419,658804,530075
1314.97,0.094320,659011,530362
1318.36,0.094945,658272,529006
1321.73,0.095249,658022,528435
1326.23,0.096417,657870,526894
1329.6,0.096845,656482,525264
1332.97,0.097954,654926,522683
1336.33,0.098865,653727,520633
1339.69,0.100364,652497,517862
1343.04,0.101762,649913,514154
1346.39,0.103838,647671,509937
1349.73,0.106018,645338,505556
1354.18,0.108703,641175,499199
1357.52,0.110803,638376,494622
1360.85,0.113032,635805,490108
1364.17,0.114840,633413,486236
1367.49,0.117075,631026,481917
1370.81,0.119238,628050,477261
1374.12,0.121399,625034,472612
1378.54,0.124434,620272,465745
1381.84,0.126913,616892,460571
1385.14,0.130585,613613,454265
1388.43,0.134349,611526,448814
1391.72,0.138819,610663,443591
1395.01,0.143264,610634,439053
1398.29,0.147279,611700,435772
1402.66,0.154180,614051,430551
1405.93,0.159479,616268,426865
1409.2,0.163918,617795,423571
1412.46,0.168008,618872,420332
1415.72,0.172655,619795,416479
1418.98,0.176158,620495,413600
1422.23,0.179892,621087,410450
1426.56,0.183286,621375,407444
1429.8,0.186389,621616,404700
1433.04,0.188423,622129,403141
1436.27,0.190806,621526,400547
1439.5,0.192545,621113,398681
1442.72,0.195249,620921,396084
1445.94,0.197325,620270,393782
1450.23,0.201046,618860,389535
1453.44,0.204105,617697,386074
1456.64,0.206150,616264,383369
1459.85,0.209377,614413,379388
1463.04,0.212492,612307,375385
1466.24,0.215504,610032,371406
1469.43,0.219462,607345,366415
1473.67,0.224802,603789,359818
1476.85,0.230236,601175,353806
1480.02,0.236118,597737,347050
1483.19,0.242604,594479,340042
1486.36,0.248136,591232,333904
1489.52,0.252842,587853,328418
1492.68,0.256482,583875,323473
1496.89,0.258193,578062,318993
1500.03,0.258346,574159,316728
1503.18,0.258554,570285,314440
1506.32,0.257452,565444,312563
1509.45,0.255891,560571,310985
1512.58,0.254752,555821,309160
1515.71,0.252840,550344,307464
1519.87,0.249356,543983,306358
1522.99,0.246419,538764,305478
1526.1,0.243960,533692,304320
1529.21,0.241631,527902,302637
1532.32,0.239084,521886,300948
1535.42,0.235675,515888,299834
1538.51,0.233502,509987,297891
1541.6,0.230745,503936,296231
1545.72,0.226552,494694,293619
1548.8,0.223360,488378,292009
1551.88,0.220970,481832,289685
1554.95,0.219248,474989,286705
1558.02,0.217395,467818,283584
1561.08,0.216048,460730,280155
1564.15,0.216037,454170,276173
1568.22,0.214544,444181,271029
1571.27,0.214868,436947,266416
1574.32,0.214039,429598,262436
1577.36,0.212655,422039,258641
1580.4,0.210950,414375,254943
1583.43,0.209037,406354,251112
1586.46,0.208156,398475,246743
1590.49,0.206567,388982,241748
1593.51,0.203997,380708,238010
1596.53,0.201784,372727,234211
1599.54,0.199720,365060,230486
1602.55,0.197965,357543,226654
1605.55,0.196203,349495,222453
1608.55,0.194526,341154,217984
1612.54,0.192081,330877,212611
1615.53,0.190516,322904,208237
1618.51,0.189844,315116,203529
1621.49,0.189260,307217,198694
1624.47,0.188409,299481,194071
1627.44,0.186428,292112,190161
1630.41,0.185223,284245,185554
1634.36,0.184509,274079,179212
1637.32,0.184417,266916,174565
1640.27,0.183725,259612,170059
1643.22,0.182955,251804,165237
1646.16,0.180911,244348,161101
1649.1,0.181854,236703,155722
1652.04,0.179229,228171,151019
1655.95,0.176135,215408,143591
1658.88,0.172415,204937,137786
1661.8,0.166296,193395,131871
1664.72,0.159876,179728,124377
1667.63,0.147036,163642,116643
1670.54,0.132766,146312,107774
1673.44,0.116529,128451,98222
1677.31,0.098603,105080,83737
1680.21,0.085995,88906,72935
1683.1,0.083218,75033,61949
1685.99,0.082677,63520,52509
1688.87,0.083752,53714,44293
1691.75,0.090916,45653,37030
1694.62,0.096350,39137,31350
1697.49,0.092509,33776,27296
1701.31,0.103218,28175,22215