File: samples/wool/wool-000811/Column 1_050609_20150331_122746.csv
Method:,Column 1,,
Host Date-Time:,31/3/15 @ 12:27:46,,
Header Version:,1,,
System Temp (C):,34.07,,
Detector Temp (C):,34.87,,
Humidity (%):,1.66,,
Lamp PD:,3818,,
Shift Vector Coefficients:,-10.5391,0.0761263,-0.000134223,,
Pixel to Wavelength Coefficients:,1775.68,-0.916766,-0.000235065,,
Serial Number:,5510004,,
Scan Config Name:,Column 1,,
Scan Config Type:,Slew,,
Section 1,,
Start wavelength (nm):,900,,
End wavelength (nm):,1700,,
Pattern Pixel Width (nm):,   7.03,,,,
Exposure (ms):,  0.635,,,,
Digital Resolution:,228,,
Num Repeats:,6,,
PGA Gain:,64,,
Total Measurement Time in sec:,  2.680,,
Wavelength (nm),Absorbance (AU),Reference Signal (unitless),Sample Signal (unitless)
901.51,0.068585,108485,92637
905.376,0.074236,121306,102246
909.237,0.074971,131909,110995
913.095,0.076823,143299,120066
916.948,0.078509,156982,131021
922.079,0.080354,179937,149543
925.923,0.080542,200504,166564
929.762,0.081215,222660,184683
933.597,0.081532,244426,202589
937.427,0.080179,263972,219472
941.254,0.079553,281845,234670
945.076,0.078108,297271,248339
950.165,0.077981,315605,263732
953.978,0.077103,328029,274669
957.786,0.077388,340470,284899
961.59,0.077823,352317,294517
965.389,0.077376,363056,303807
969.185,0.077046,373162,312501
972.976,0.078158,382632,319612
976.763,0.077940,391202,326935
981.806,0.078665,400190,333888
985.583,0.079266,406088,338341
989.355,0.079640,410162,341441
993.124,0.079394,412868,343888
996.888,0.080382,414263,344266
1000.65,0.081185,415476,344636
1004.4,0.082509,415479,343590
1009.41,0.083824,414358,341627
1013.15,0.083668,412923,340566
1016.89,0.084717,411526,338595
1020.63,0.084794,409066,336511
1024.36,0.084697,406777,334703
1028.09,0.084554,404427,332879
1031.82,0.084307,401911,330996
1036.78,0.083997,398410,328347
1040.49,0.083585,396204,326839
1044.2,0.083896,394236,324983
1047.91,0.082986,392042,323852
1051.61,0.082423,389823,322437
1055.31,0.082800,388234,320844
1059,0.082381,387599,320628
1063.92,0.081884,386688,320241
1067.61,0.079988,386598,321567
1071.29,0.080231,387377,322035
1074.96,0.079811,388536,323311
1078.63,0.079278,389855,324807
1082.3,0.077799,391215,327052
1085.96,0.077598,393215,328876
1090.84,0.076487,396270,332280
1094.49,0.076065,398760,334693
1098.14,0.075312,400987,337146
1101.79,0.074585,403477,339808
1105.43,0.075038,406116,341674
1109.06,0.073600,407701,344145
1112.7,0.073830,409859,345784
1117.53,0.073382,412494,348366
1121.15,0.073200,414909,350552
1124.77,0.073963,416559,351329
1128.38,0.074997,418532,352153
1131.99,0.076027,419956,352514
1135.6,0.076866,421946,353501
1139.2,0.078548,423881,353750
1143.99,0.080413,426786,354648
1147.58,0.080959,428617,355722
1151.17,0.082187,431169,356829
1154.75,0.083252,433579,357945
1158.33,0.084048,436264,359502
1161.91,0.086028,439132,360219
1165.48,0.088292,442389,361004
1169.04,0.090503,446101,362185
1173.79,0.094148,451929,363850
1177.34,0.095710,456026,365830
1180.9,0.098014,461306,368108
1184.44,0.099816,467657,371631
1187.99,0.100769,473969,375821
1191.52,0.100697,479856,380552
1195.06,0.100648,487372,386556
1199.76,0.099935,497347,395116
1203.29,0.099175,504311,401350
1206.81,0.098891,511507,407343
1210.33,0.097973,519078,414247
1213.84,0.098182,527163,420497
1217.35,0.097570,534208,426717
1220.85,0.096331,540472,432954
1225.51,0.095764,549929,441106
1229.01,0.095343,556888,447121
1232.5,0.094877,562180,451854
1235.98,0.093942,567975,457496
1239.46,0.093545,574815,463429
1242.94,0.091979,582782,471549
1246.41,0.092075,591476,478478
1251.03,0.091559,604016,489203
1254.5,0.091357,612289,496134
1257.96,0.092186,619125,500717
1261.41,0.092765,624551,504432
1264.86,0.093413,629900,507994
1268.31,0.093651,634345,511299
1271.75,0.094040,638574,514246
1276.33,0.094161,642499,517263
1279.76,0.094573,645905,519512
1283.19,0.095829,648307,519938
1286.61,0.093766,650446,524137
1290.03,0.093152,652132,526239
1293.44,0.092672,653907,528256
1296.85,0.092862,655963,529684
1301.39,0.091913,657349,531965
1304.8,0.092326,657558,531628
1308.19,0.092333,658515,532394
1311.58,0.092356,658804,532599
1314.97,0.093095,659011,531860
1318.36,0.092887,658272,531518
1321.73,0.093591,658022,530456
1326.23,0.094421,657870,529321
1329.6,0.094916,656482,527602
1332.97,0.095908,654926,525151
1336.33,0.097257,653727,522564
1339.69,0.098487,652497,520105
1343.04,0.099718,649913,516579
1346.39,0.101936,647671,512175
1349.73,0.103744,645338,508210
1354.18,0.106457,641175,501787
1357.52,0.108397,638376,497370
1360.85,0.110781,635805,492655
1364.17,0.112288,633413,489102
1367.49,0.114935,631026,484297
1370.81,0.117177,628050,479532
1374.12,0.118999,625034,475231
1378.54,0.121650,620272,468740
1381.84,0.124823,616892,462792
1385.14,0.127535,613613,457467
1388.43,0.131376,611526,451896
1391.72,0.135421,610663,447075
1395.01,0.139287,610634,443092
1398.29,0.144033,611700,439041
1402.66,0.150021,614051,434694
1405.93,0.154890,616268,431399
1409.2,0.159928,617795,427481
1412.46,0.163921,618872,424307
1415.72,0.167742,619795,421217
1418.98,0.171277,620495,418274
1422.23,0.174741,621087,415347
1426.56,0.178420,621375,412035
1429.8,0.181213,621616,409552
1433.04,0.183435,622129,407798
1436.27,0.185475,621526,405494
1439.5,0.187546,621113,403297
1442.72,0.190267,620921,400654
1445.94,0.192984,620270,397738
1450.23,0.195837,618860,394235
1453.44,0.199128,617697,390524
1456.64,0.202131,616264,386933
1459.85,0.204255,614413,383889
1463.04,0.207708,612307,379543
1466.24,0.210419,610032,375780
1469.43,0.214959,607345,370234
1473.67,0.220907,603789,363060
1476.85,0.226338,601175,356996
1480.02,0.232643,597737,349838
1483.19,0.238750,594479,343073
1486.36,0.244624,591232,336615
1489.52,0.249450,587853,330993
1492.68,0.252855,583875,326186
1496.89,0.255407,578062,321046
1500.03,0.256116,574159,318358
1503.18,0.255893,570285,316373
1506.32,0.254660,565444,314579
1509.45,0.253009,560571,313056
1512.58,0.251581,555821,311425
1515.71,0.249041,550344,310165
1519.87,0.246178,543983,308608
1522.99,0.243955,538764,307216
1526.1,0.241652,533692,305942
1529.21,0.238259,527902,304996
1532.32,0.235506,521886,303438
1535.42,0.232202,515888,302241
1538.51,0.229997,509987,300305
1541.6,0.226778,503936,298949
1545.72,0.223402,494694,295757
1548.8,0.220388,488378,294014
1551.88,0.218391,481832,291410
1554.95,0.216153,474989,288756
1558.02,0.214433,467818,285525
1561.08,0.213140,460730,282037
1564.15,0.212063,454170,278712
1568.22,0.211741,444181,272784
1571.27,0.210744,436947,268958
1574.32,0.210070,429598,264845
1577.36,0.210057,422039,260193
1580.4,0.208487,414375,256393
1583.43,0.206095,406354,252819
1586.46,0.204952,398475,248570
1590.49,0.202962,388982,243763
1593.51,0.201165,380708,239567
1596.53,0.199463,372727,235466
1599.54,0.197588,365060,231620
1602.55,0.195015,357543,228199
1605.55,0.193185,349495,224004
1608.55,0.191652,341154,219431
1612.54,0.189178,330877,214037
1615.53,0.187009,322904,209925
1618.51,0.186791,315116,204965
1621.49,0.186378,307217,200017
1624.47,0.183954,299481,196072
1627.44,0.184014,292112,191221
1630.41,0.182400,284245,186764
1634.36,0.180922,274079,180698
1637.32,0.180751,266916,176045
1640.27,0.179716,259612,171636
1643.22,0.178468,251804,166953
1646.16,0.178387,244348,162040
1649.1,0.177795,236703,157184
1652.04,0.175199,228171,152427
1655.95,0.173175,215408,144573
1658.88,0.169597,204937,138683
1661.8,0.164069,193395,132549
1664.72,0.155028,179728,125773
1667.63,0.143406,163642,117622
1670.54,0.131069,146312,108196
1673.44,0.113638,128451,98878
1677.31,0.094057,105080,84618
1680.21,0.080057,88906,73939
1683.1,0.073952,75033,63285
1685.99,0.075540,63520,53379
1688.87,0.078064,53714,44877
1691.75,0.083381,45653,37678
1694.62,0.084260,39137,32235
1697.49,0.094694,33776,27159
1701.31,0.099829,28175,22389