File: samples/wool/wool-000811/Column 1_050608_20150331_122723.csv
Method:,Column 1,,
Host Date-Time:,31/3/15 @ 12:27:23,,
Header Version:,1,,
System Temp (C):,34.07,,
Detector Temp (C):,34.85,,
Humidity (%):,1.66,,
Lamp PD:,3818,,
Shift Vector Coefficients:,-10.5391,0.0761263,-0.000134223,,
Pixel to Wavelength Coefficients:,1775.68,-0.916766,-0.000235065,,
Serial Number:,5510004,,
Scan Config Name:,Column 1,,
Scan Config Type:,Slew,,
Section 1,,
Start wavelength (nm):,900,,
End wavelength (nm):,1700,,
Pattern Pixel Width (nm):,   7.03,,,,
Exposure (ms):,  0.635,,,,
Digital Resolution:,228,,
Num Repeats:,6,,
PGA Gain:,64,,
Total Measurement Time in sec:,  2.691,,
Wavelength (nm),Absorbance (AU),Reference Signal (unitless),Sample Signal (unitless)
901.51,0.069134,108485,92520
905.376,0.074614,121306,102157
909.237,0.078886,131909,109999
913.095,0.078843,143299,119509
916.948,0.079983,156982,130577
922.079,0.081404,179937,149182
925.923,0.081837,200504,166068
929.762,0.082364,222660,184195
933.597,0.082313,244426,202225
937.427,0.080927,263972,219094
941.254,0.080140,281845,234353
945.076,0.079305,297271,247655
950.165,0.078296,315605,263541
953.978,0.077675,328029,274307
957.786,0.077042,340470,285126
961.59,0.077607,352317,294664
965.389,0.077620,363056,303636
969.185,0.078491,373162,311463
972.976,0.077949,382632,319766
976.763,0.078377,391202,326606
981.806,0.078505,400190,334011
985.583,0.079908,406088,337841
989.355,0.080191,410162,341008
993.124,0.080646,412868,342898
996.888,0.080831,414263,343910
1000.65,0.081053,415476,344741
1004.4,0.082893,415479,343286
1009.41,0.083671,414358,341747
1013.15,0.084328,412923,340049
1016.89,0.085691,411526,337836
1020.63,0.084684,409066,336596
1024.36,0.084603,406777,334775
1028.09,0.084619,404427,332829
1031.82,0.084570,401911,330796
1036.78,0.084147,398410,328234
1040.49,0.083953,396204,326562
1044.2,0.084150,394236,324793
1047.91,0.084027,392042,323077
1051.61,0.083084,389823,321946
1055.31,0.082976,388234,320714
1059,0.082559,387599,320497
1063.92,0.080741,386688,321085
1067.61,0.080864,386598,320919
1071.29,0.081111,387377,321383
1074.96,0.080104,388536,323093
1078.63,0.079501,389855,324640
1082.3,0.078346,391215,326640
1085.96,0.077771,393215,328745
1090.84,0.076616,396270,332181
1094.49,0.075889,398760,334829
1098.14,0.075646,400987,336887
1101.79,0.075158,403477,339360
1105.43,0.075067,406116,341651
1109.06,0.073836,407701,343958
1112.7,0.073911,409859,345719
1117.53,0.073206,412494,348507
1121.15,0.073660,414909,350181
1124.77,0.074400,416559,350975
1128.38,0.074854,418532,352269
1131.99,0.076297,419956,352295
1135.6,0.076993,421946,353398
1139.2,0.078769,423881,353570
1143.99,0.080986,426786,354180
1147.58,0.081680,428617,355132
1151.17,0.082640,431169,356457
1154.75,0.082843,433579,358282
1158.33,0.084280,436264,359310
1161.91,0.086976,439132,359434
1165.48,0.088626,442389,360727
1169.04,0.091272,446101,361544
1173.79,0.094167,451929,363834
1177.34,0.095906,456026,365665
1180.9,0.098257,461306,367902
1184.44,0.100346,467657,371177
1187.99,0.101555,473969,375141
1191.52,0.101415,479856,379923
1195.06,0.101582,487372,385726
1199.76,0.100211,497347,394865
1203.29,0.099542,504311,401011
1206.81,0.099711,511507,406575
1210.33,0.099100,519078,413174
1213.84,0.098092,527163,420584
1217.35,0.097844,534208,426448
1220.85,0.096659,540472,432628
1225.51,0.095668,549929,441203
1229.01,0.095843,556888,446606
1232.5,0.094925,562180,451804
1235.98,0.094234,567975,457188
1239.46,0.093563,574815,463410
1242.94,0.092761,582782,470701
1246.41,0.091866,591476,478708
1251.03,0.091858,604016,488867
1254.5,0.091672,612289,495775
1257.96,0.092038,619125,500888
1261.41,0.092741,624551,504460
1264.86,0.093381,629900,508031
1268.31,0.093899,634345,511007
1271.75,0.094778,638574,513373
1276.33,0.095262,642499,515953
1279.76,0.094650,645905,519420
1283.19,0.094245,648307,521838
1286.61,0.093587,650446,524353
1290.03,0.093358,652132,525990
1293.44,0.092564,653907,528387
1296.85,0.092487,655963,530142
1301.39,0.092478,657349,531273
1304.8,0.092324,657558,531631
1308.19,0.092380,658515,532336
1311.58,0.092474,658804,532454
1314.97,0.092999,659011,531978
1318.36,0.093451,658272,530829
1321.73,0.093607,658022,530436
1326.23,0.095183,657870,528393
1329.6,0.095392,656482,527024
1332.97,0.095999,654926,525041
1336.33,0.096872,653727,523027
1339.69,0.098443,652497,520158
1343.04,0.100041,649913,516195
1346.39,0.101949,647671,512160
1349.73,0.103538,645338,508451
1354.18,0.106568,641175,501659
1357.52,0.108827,638376,496878
1360.85,0.110780,635805,492656
1364.17,0.112718,633413,488617
1367.49,0.114927,631026,484306
1370.81,0.116929,628050,479805
1374.12,0.119138,625034,475079
1378.54,0.121703,620272,468683
1381.84,0.124739,616892,462882
1385.14,0.128146,613613,456824
1388.43,0.131354,611526,451919
1391.72,0.135573,610663,446919
1395.01,0.140042,610634,442322
1398.29,0.144324,611700,438747
1402.66,0.150370,614051,434345
1405.93,0.155917,616268,430381
1409.2,0.160210,617795,427203
1412.46,0.164874,618872,423377
1415.72,0.168389,619795,420590
1418.98,0.172460,620495,417137
1422.23,0.175196,621087,414912
1426.56,0.178577,621375,411886
1429.8,0.181636,621616,409153
1433.04,0.184110,622129,407165
1436.27,0.186071,621526,404938
1439.5,0.188270,621113,402625
1442.72,0.190675,620921,400278
1445.94,0.193351,620270,397402
1450.23,0.196751,618860,393406
1453.44,0.199601,617697,390099
1456.64,0.202425,616264,386671
1459.85,0.204872,614413,383344
1463.04,0.208220,612307,379096
1466.24,0.211298,610032,375020
1469.43,0.214951,607345,370241
1473.67,0.221556,603789,362518
1476.85,0.226703,601175,356696
1480.02,0.232848,597737,349673
1483.19,0.239500,594479,342481
1486.36,0.244874,591232,336422
1489.52,0.249932,587853,330626
1492.68,0.253531,583875,325678
1496.89,0.255120,578062,321258
1500.03,0.255960,574159,318473
1503.18,0.255861,570285,316396
1506.32,0.254837,565444,314451
1509.45,0.253596,560571,312633
1512.58,0.251634,555821,311387
1515.71,0.250156,550344,309370
1519.87,0.245722,543983,308932
1522.99,0.244533,538764,306807
1526.1,0.241957,533692,305727
1529.21,0.239100,527902,304406
1532.32,0.236540,521886,302716
1535.42,0.233705,515888,301197
1538.51,0.229835,509987,300417
1541.6,0.227129,503936,298708
1545.72,0.223741,494694,295526
1548.8,0.220452,488378,293971
1551.88,0.218305,481832,291468
1554.95,0.216438,474989,288566
1558.02,0.215215,467818,285011
1561.08,0.212942,460730,282166
1564.15,0.212889,454170,278182
1568.22,0.211556,444181,272900
1571.27,0.211627,436947,268412
1574.32,0.210788,429598,264408
1577.36,0.209902,422039,260286
1580.4,0.208404,414375,256442
1583.43,0.206989,406354,252299
1586.46,0.205741,398475,248119
1590.49,0.203161,388982,243651
1593.51,0.201736,380708,239252
1596.53,0.199151,372727,235635
1599.54,0.196887,365060,231994
1602.55,0.195643,357543,227869
1605.55,0.193478,349495,223853
1608.55,0.192049,341154,219231
1612.54,0.190444,330877,213414
1615.53,0.188200,322904,209350
1618.51,0.187361,315116,204696
1621.49,0.186387,307217,200013
1624.47,0.184643,299481,195761
1627.44,0.185579,292112,190533
1630.41,0.182314,284245,186801
1634.36,0.181772,274079,180345
1637.32,0.182142,266916,175482
1640.27,0.181214,259612,171045
1643.22,0.178786,251804,166831
1646.16,0.178612,244348,161956
1649.1,0.178703,236703,156856
1652.04,0.176523,228171,151963
1655.95,0.173935,215408,144320
1658.88,0.170647,204937,138348
1661.8,0.164246,193395,132495
1664.72,0.156609,179728,125316
1667.63,0.144256,163642,117392
1670.54,0.129718,146312,108533
1673.44,0.113708,128451,98862
1677.31,0.096414,105080,84160
1680.21,0.083407,88906,73371
1683.1,0.076388,75033,62931
1685.99,0.076827,63520,53221
1688.87,0.079227,53714,44757
1691.75,0.088670,45653,37222
1694.62,0.085812,39137,32120
1697.49,0.094870,33776,27148
1701.31,0.103491,28175,22201