File: samples/wool/wool-000811/Column 1_050623_20150331_123440.csv
Method:,Column 1,,
Host Date-Time:,31/3/15 @ 12:34:40,,
Header Version:,1,,
System Temp (C):,34.12,,
Detector Temp (C):,35,,
Humidity (%):,1.56,,
Lamp PD:,3818,,
Shift Vector Coefficients:,-10.5391,0.0761263,-0.000134223,,
Pixel to Wavelength Coefficients:,1775.68,-0.916766,-0.000235065,,
Serial Number:,5510004,,
Scan Config Name:,Column 1,,
Scan Config Type:,Slew,,
Section 1,,
Start wavelength (nm):,900,,
End wavelength (nm):,1700,,
Pattern Pixel Width (nm):,   7.03,,,,
Exposure (ms):,  0.635,,,,
Digital Resolution:,228,,
Num Repeats:,6,,
PGA Gain:,64,,
Total Measurement Time in sec:,  2.687,,
Wavelength (nm),Absorbance (AU),Reference Signal (unitless),Sample Signal (unitless)
901.51,0.069458,108485,92451
905.376,0.074346,121306,102220
909.237,0.076987,131909,110481
913.095,0.076830,143299,120064
916.948,0.078416,156982,131049
922.079,0.081515,179937,149144
925.923,0.083071,200504,165597
929.762,0.082673,222660,184064
933.597,0.082444,244426,202164
937.427,0.080842,263972,219137
941.254,0.079858,281845,234505
945.076,0.079986,297271,247267
950.165,0.078526,315605,263401
953.978,0.077326,328029,274528
957.786,0.077551,340470,284792
961.59,0.078192,352317,294267
965.389,0.077249,363056,303896
969.185,0.076577,373162,312839
972.976,0.077775,382632,319894
976.763,0.078374,391202,326608
981.806,0.078933,400190,333682
985.583,0.079348,406088,338277
989.355,0.079973,410162,341179
993.124,0.080383,412868,343106
996.888,0.081089,414263,343706
1000.65,0.081363,415476,344495
1004.4,0.082323,415479,343737
1009.41,0.083665,414358,341752
1013.15,0.084707,412923,339752
1016.89,0.085126,411526,338276
1020.63,0.084531,409066,336715
1024.36,0.085026,406777,334449
1028.09,0.084345,404427,333039
1031.82,0.084282,401911,331015
1036.78,0.084372,398410,328064
1040.49,0.083912,396204,326593
1044.2,0.083590,394236,325212
1047.91,0.083496,392042,323472
1051.61,0.083035,389823,321983
1055.31,0.082861,388234,320799
1059,0.081790,387599,321065
1063.92,0.081750,386688,320340
1067.61,0.080941,386598,320862
1071.29,0.079922,387377,322264
1074.96,0.079421,388536,323601
1078.63,0.078576,389855,325332
1082.3,0.078276,391215,326693
1085.96,0.077375,393215,329045
1090.84,0.076827,396270,332020
1094.49,0.076287,398760,334522
1098.14,0.075592,400987,336929
1101.79,0.075138,403477,339376
1105.43,0.074943,406116,341749
1109.06,0.074119,407701,343734
1112.7,0.073395,409859,346130
1117.53,0.073398,412494,348353
1121.15,0.072617,414909,351023
1124.77,0.074209,416559,351130
1128.38,0.075165,418532,352017
1131.99,0.075710,419956,352772
1135.6,0.076704,421946,353633
1139.2,0.079131,423881,353275
1143.99,0.080686,426786,354425
1147.58,0.080740,428617,355901
1151.17,0.081912,431169,357055
1154.75,0.082319,433579,358715
1158.33,0.084250,436264,359335
1161.91,0.086065,439132,360189
1165.48,0.088420,442389,360898
1169.04,0.090648,446101,362064
1173.79,0.094224,451929,363786
1177.34,0.096076,456026,365522
1180.9,0.097480,461306,368561
1184.44,0.099884,467657,371572
1187.99,0.101097,473969,375537
1191.52,0.100268,479856,380928
1195.06,0.100598,487372,386601
1199.76,0.100523,497347,394581
1203.29,0.099250,504311,401281
1206.81,0.098960,511507,407279
1210.33,0.097778,519078,414433
1213.84,0.097458,527163,421199
1217.35,0.096955,534208,427322
1220.85,0.096148,540472,433137
1225.51,0.095209,549929,441670
1229.01,0.095393,556888,447069
1232.5,0.094655,562180,452085
1235.98,0.094088,567975,457342
1239.46,0.092839,574815,464183
1242.94,0.091945,582782,471586
1246.41,0.091601,591476,479001
1251.03,0.090794,604016,490066
1254.5,0.091185,612289,496331
1257.96,0.091670,619125,501312
1261.41,0.092486,624551,504757
1264.86,0.093079,629900,508385
1268.31,0.093191,634345,511840
1271.75,0.094102,638574,514173
1276.33,0.094259,642499,517146
1279.76,0.094146,645905,520023
1283.19,0.093660,648307,522541
1286.61,0.093380,650446,524604
1290.03,0.092626,652132,526877
1293.44,0.092010,653907,529061
1296.85,0.092297,655963,530374
1301.39,0.091929,657349,531945
1304.8,0.091598,657558,532520
1308.19,0.091836,658515,533003
1311.58,0.092080,658804,532938
1314.97,0.092535,659011,532547
1318.36,0.092562,658272,531917
1321.73,0.093090,658022,531068
1326.23,0.093905,657870,529950
1329.6,0.094761,656482,527791
1332.97,0.095372,654926,525799
1336.33,0.096214,653727,523820
1339.69,0.097668,652497,521087
1343.04,0.099390,649913,516970
1346.39,0.101119,647671,513140
1349.73,0.102854,645338,509253
1354.18,0.105727,641175,502631
1357.52,0.107726,638376,498139
1360.85,0.109371,635805,494257
1364.17,0.111489,633413,490002
1367.49,0.113727,631026,485647
1370.81,0.115708,628050,481156
1374.12,0.117754,625034,476595
1378.54,0.120798,620272,469661
1381.84,0.123744,616892,463944
1385.14,0.126539,613613,458517
1388.43,0.129906,611526,453429
1391.72,0.133907,610663,448637
1395.01,0.137574,610634,444843
1398.29,0.141642,611700,441465
1402.66,0.148279,614051,436441
1405.93,0.152370,616268,433910
1409.2,0.157028,617795,430345
1412.46,0.161127,618872,427045
1415.72,0.165151,619795,423738
1418.98,0.168208,620495,421241
1422.23,0.171300,621087,418651
1426.56,0.175418,621375,414893
1429.8,0.178169,621616,412433
1433.04,0.180409,622129,410650
1436.27,0.182558,621526,408227
1439.5,0.183945,621113,406655
1442.72,0.186760,620921,403902
1445.94,0.189824,620270,400642
1450.23,0.193207,618860,396630
1453.44,0.196082,617697,393272
1456.64,0.198777,616264,389933
1459.85,0.201565,614413,386274
1463.04,0.204269,612307,382561
1466.24,0.207938,610032,377933
1469.43,0.211911,607345,372842
1473.67,0.218212,603789,365320
1476.85,0.224420,601175,358576
1480.02,0.230299,597737,351731
1483.19,0.237110,594479,344371
1486.36,0.243453,591232,337524
1489.52,0.248433,587853,331769
1492.68,0.251718,583875,327041
1496.89,0.254059,578062,322044
1500.03,0.254181,574159,319780
1503.18,0.253565,570285,318073
1506.32,0.253580,565444,315362
1509.45,0.251960,560571,313813
1512.58,0.250688,555821,312066
1515.71,0.247838,550344,311026
1519.87,0.244843,543983,309558
1522.99,0.242572,538764,308196
1526.1,0.240335,533692,306871
1529.21,0.237122,527902,305796
1532.32,0.233943,521886,304532
1535.42,0.231580,515888,302674
1538.51,0.228706,509987,301199
1541.6,0.225411,503936,299892
1545.72,0.220952,494694,297430
1548.8,0.218153,488378,295531
1551.88,0.215825,481832,293137
1554.95,0.214759,474989,289684
1558.02,0.212760,467818,286627
1561.08,0.212247,460730,282618
1564.15,0.211216,454170,279256
1568.22,0.209615,444181,274123
1571.27,0.209815,436947,269534
1574.32,0.209111,429598,265431
1577.36,0.208085,422039,261377
1580.4,0.206793,414375,257395
1583.43,0.204971,406354,253474
1586.46,0.203165,398475,249595
1590.49,0.202113,388982,244240
1593.51,0.200254,380708,240070
1596.53,0.197527,372727,236518
1599.54,0.196532,365060,232184
1602.55,0.194988,357543,228213
1605.55,0.192304,349495,224459
1608.55,0.189528,341154,220507
1612.54,0.187946,330877,214645
1615.53,0.186689,322904,210080
1618.51,0.185327,315116,205657
1621.49,0.184695,307217,200794
1624.47,0.183794,299481,196144
1627.44,0.182941,292112,191694
1630.41,0.182067,284245,186907
1634.36,0.180008,274079,181079
1637.32,0.178905,266916,176795
1640.27,0.179135,259612,171866
1643.22,0.178838,251804,166811
1646.16,0.177546,244348,162354
1649.1,0.177050,236703,157454
1652.04,0.174538,228171,152659
1655.95,0.171705,215408,145063
1658.88,0.168887,204937,138910
1661.8,0.162884,193395,132911
1664.72,0.154228,179728,126005
1667.63,0.142388,163642,117898
1670.54,0.126537,146312,109331
1673.44,0.111823,128451,99292
1677.31,0.090571,105080,85300
1680.21,0.078873,88906,74141
1683.1,0.071065,75033,63707
1685.99,0.071475,63520,53881
1688.87,0.077841,53714,44900
1691.75,0.077497,45653,38192
1694.62,0.082700,39137,32351
1697.49,0.088991,33776,27518
1701.31,0.106160,28175,22065