File: samples/wool/wool-000811/Column 1_050606_20150331_122638.csv
Method:,Column 1,,
Host Date-Time:,31/3/15 @ 12:26:38,,
Header Version:,1,,
System Temp (C):,33.98,,
Detector Temp (C):,34.85,,
Humidity (%):,1.66,,
Lamp PD:,3818,,
Shift Vector Coefficients:,-10.5391,0.0761263,-0.000134223,,
Pixel to Wavelength Coefficients:,1775.68,-0.916766,-0.000235065,,
Serial Number:,5510004,,
Scan Config Name:,Column 1,,
Scan Config Type:,Slew,,
Section 1,,
Start wavelength (nm):,900,,
End wavelength (nm):,1700,,
Pattern Pixel Width (nm):,   7.03,,,,
Exposure (ms):,  0.635,,,,
Digital Resolution:,228,,
Num Repeats:,6,,
PGA Gain:,64,,
Total Measurement Time in sec:,  2.707,,
Wavelength (nm),Absorbance (AU),Reference Signal (unitless),Sample Signal (unitless)
901.51,0.069341,108485,92476
905.376,0.076024,121306,101826
909.237,0.078554,131909,110083
913.095,0.078026,143299,119734
916.948,0.079701,156982,130662
922.079,0.080758,179937,149404
925.923,0.082766,200504,165713
929.762,0.082334,222660,184208
933.597,0.082351,244426,202207
937.427,0.080290,263972,219416
941.254,0.080442,281845,234190
945.076,0.079007,297271,247825
950.165,0.077535,315605,264003
953.978,0.076696,328029,274926
957.786,0.077239,340470,284997
961.59,0.077804,352317,294530
965.389,0.077319,363056,303847
969.185,0.077732,373162,312008
972.976,0.077696,382632,319952
976.763,0.078678,391202,326380
981.806,0.079044,400190,333597
985.583,0.079174,406088,338412
989.355,0.079991,410162,341165
993.124,0.080115,412868,343318
996.888,0.080930,414263,343832
1000.65,0.081657,415476,344262
1004.4,0.082995,415479,343205
1009.41,0.084443,414358,341140
1013.15,0.084347,412923,340034
1016.89,0.085237,411526,338190
1020.63,0.084802,409066,336505
1024.36,0.084712,406777,334691
1028.09,0.083963,404427,333332
1031.82,0.084677,401911,330714
1036.78,0.084188,398410,328203
1040.49,0.083561,396204,326857
1044.2,0.084107,394236,324825
1047.91,0.083720,392042,323305
1051.61,0.083294,389823,321791
1055.31,0.082846,388234,320810
1059,0.082123,387599,320819
1063.92,0.081254,386688,320706
1067.61,0.080778,386598,320983
1071.29,0.080224,387377,322040
1074.96,0.079976,388536,323188
1078.63,0.079171,389855,324887
1082.3,0.078652,391215,326410
1085.96,0.078133,393215,328471
1090.84,0.076449,396270,332309
1094.49,0.076021,398760,334727
1098.14,0.075865,400987,336717
1101.79,0.075035,403477,339456
1105.43,0.075081,406116,341640
1109.06,0.074727,407701,343253
1112.7,0.073707,409859,345882
1117.53,0.073493,412494,348277
1121.15,0.074468,414909,349530
1124.77,0.073869,416559,351405
1128.38,0.075006,418532,352146
1131.99,0.075759,419956,352732
1135.6,0.077688,421946,352833
1139.2,0.078755,423881,353581
1143.99,0.081374,426786,353864
1147.58,0.081395,428617,355365
1151.17,0.082559,431169,356524
1154.75,0.083425,433579,357802
1158.33,0.084761,436264,358912
1161.91,0.086439,439132,359879
1165.48,0.088836,442389,360552
1169.04,0.090636,446101,362074
1173.79,0.094064,451929,363920
1177.34,0.096346,456026,365295
1180.9,0.098513,461306,367685
1184.44,0.100360,467657,371165
1187.99,0.100881,473969,375724
1191.52,0.100966,479856,380316
1195.06,0.101360,487372,385923
1199.76,0.100905,497347,394234
1203.29,0.100123,504311,400475
1206.81,0.099467,511507,406803
1210.33,0.098219,519078,414013
1213.84,0.098368,527163,420317
1217.35,0.097536,534208,426751
1220.85,0.096690,540472,432597
1225.51,0.096033,549929,440833
1229.01,0.095656,556888,446799
1232.5,0.095076,562180,451647
1235.98,0.094343,567975,457074
1239.46,0.093426,574815,463556
1242.94,0.092371,582782,471124
1246.41,0.091921,591476,478648
1251.03,0.092090,604016,488606
1254.5,0.091681,612289,495764
1257.96,0.092387,619125,500485
1261.41,0.092472,624551,504773
1264.86,0.093416,629900,507991
1268.31,0.093762,634345,511168
1271.75,0.094206,638574,514050
1276.33,0.094221,642499,517192
1279.76,0.094885,645905,519139
1283.19,0.093694,648307,522501
1286.61,0.093781,650446,524119
1290.03,0.093169,652132,526219
1293.44,0.092946,653907,527922
1296.85,0.092921,655963,529613
1301.39,0.092301,657349,531490
1304.8,0.092347,657558,531603
1308.19,0.092745,658515,531888
1311.58,0.092369,658804,532583
1314.97,0.092966,659011,532018
1318.36,0.093594,658272,530654
1321.73,0.093524,658022,530538
1326.23,0.094436,657870,529303
1329.6,0.094986,656482,527518
1332.97,0.095894,654926,525168
1336.33,0.097145,653727,522699
1339.69,0.098874,652497,519642
1343.04,0.099996,649913,516249
1346.39,0.102048,647671,512043
1349.73,0.103771,645338,508178
1354.18,0.107051,641175,501101
1357.52,0.109321,638376,496313
1360.85,0.110829,635805,492601
1364.17,0.113022,633413,488276
1367.49,0.115348,631026,483837
1370.81,0.117322,628050,479372
1374.12,0.119133,625034,475084
1378.54,0.122205,620272,468142
1381.84,0.124648,616892,462979
1385.14,0.128424,613613,456531
1388.43,0.131483,611526,451785
1391.72,0.136238,610663,446235
1395.01,0.140239,610634,442122
1398.29,0.144500,611700,438570
1402.66,0.150624,614051,434091
1405.93,0.155695,616268,430601
1409.2,0.160280,617795,427134
1412.46,0.164967,618872,423286
1415.72,0.168724,619795,420266
1418.98,0.172441,620495,417155
1422.23,0.175846,621087,414292
1426.56,0.179134,621375,411358
1429.8,0.182076,621616,408739
1433.04,0.185074,622129,406262
1436.27,0.186792,621526,404266
1439.5,0.188742,621113,402188
1442.72,0.190816,620921,400148
1445.94,0.193426,620270,397333
1450.23,0.196917,618860,393256
1453.44,0.199899,617697,389831
1456.64,0.202406,616264,386688
1459.85,0.204905,614413,383315
1463.04,0.208541,612307,378816
1466.24,0.211431,610032,374905
1469.43,0.215487,607345,369784
1473.67,0.221813,603789,362303
1476.85,0.227381,601175,356139
1480.02,0.233165,597737,349418
1483.19,0.239122,594479,342779
1486.36,0.245262,591232,336121
1489.52,0.250045,587853,330540
1492.68,0.252860,583875,326182
1496.89,0.255878,578062,320698
1500.03,0.255936,574159,318490
1503.18,0.256358,570285,316034
1506.32,0.255250,565444,314152
1509.45,0.253728,560571,312538
1512.58,0.252057,555821,311084
1515.71,0.250162,550344,309366
1519.87,0.246966,543983,308049
1522.99,0.244074,538764,307132
1526.1,0.241637,533692,305952
1529.21,0.238821,527902,304602
1532.32,0.236223,521886,302937
1535.42,0.233229,515888,301527
1538.51,0.230729,509987,299799
1541.6,0.227169,503936,298680
1545.72,0.223274,494694,295844
1548.8,0.220521,488378,293924
1551.88,0.218370,481832,291424
1554.95,0.216297,474989,288660
1558.02,0.214774,467818,285301
1561.08,0.214034,460730,281457
1564.15,0.213500,454170,277791
1568.22,0.212009,444181,272616
1571.27,0.211116,436947,268728
1574.32,0.211129,429598,264200
1577.36,0.208780,422039,260959
1580.4,0.208172,414375,256579
1583.43,0.206480,406354,252595
1586.46,0.205276,398475,248385
1590.49,0.203190,388982,243635
1593.51,0.202060,380708,239074
1596.53,0.199286,372727,235562
1599.54,0.198012,365060,231394
1602.55,0.195533,357543,227927
1605.55,0.194467,349495,223344
1608.55,0.191528,341154,219494
1612.54,0.189746,330877,213757
1615.53,0.188296,322904,209304
1618.51,0.187079,315116,204829
1621.49,0.186893,307217,199780
1624.47,0.185487,299481,195381
1627.44,0.184482,292112,191015
1630.41,0.183923,284245,186110
1634.36,0.181921,274079,180283
1637.32,0.180975,266916,175954
1640.27,0.179904,259612,171562
1643.22,0.180170,251804,166300
1646.16,0.179653,244348,161568
1649.1,0.178481,236703,156936
1652.04,0.177644,228171,151571
1655.95,0.173127,215408,144589
1658.88,0.171071,204937,138213
1661.8,0.165056,193395,132248
1664.72,0.156665,179728,125300
1667.63,0.144408,163642,117351
1670.54,0.130134,146312,108429
1673.44,0.114187,128451,98753
1677.31,0.092745,105080,84874
1680.21,0.082484,88906,73527
1683.1,0.078588,75033,62613
1685.99,0.075451,63520,53390
1688.87,0.081757,53714,44497
1691.75,0.085496,45653,37495
1694.62,0.090885,39137,31747
1697.49,0.094583,33776,27166
1701.31,0.100606,28175,22349