File: samples/wool/wool-000811/Column 1_050578_20150331_121306.csv
Method:,Column 1,,
Host Date-Time:,31/3/15 @ 12:13:6,,
Header Version:,1,,
System Temp (C):,33.83,,
Detector Temp (C):,34.65,,
Humidity (%):,2.1,,
Lamp PD:,3819,,
Shift Vector Coefficients:,-10.5391,0.0761263,-0.000134223,,
Pixel to Wavelength Coefficients:,1775.68,-0.916766,-0.000235065,,
Serial Number:,5510004,,
Scan Config Name:,Column 1,,
Scan Config Type:,Slew,,
Section 1,,
Start wavelength (nm):,900,,
End wavelength (nm):,1700,,
Pattern Pixel Width (nm):,   7.03,,,,
Exposure (ms):,  0.635,,,,
Digital Resolution:,228,,
Num Repeats:,6,,
PGA Gain:,64,,
Total Measurement Time in sec:,  2.670,,
Wavelength (nm),Absorbance (AU),Reference Signal (unitless),Sample Signal (unitless)
901.51,0.072589,108485,91787
905.376,0.077746,121306,101423
909.237,0.078109,131909,110196
913.095,0.080135,143299,119154
916.948,0.081863,156982,130013
922.079,0.083324,179937,148524
925.923,0.083404,200504,165470
929.762,0.085222,222660,182987
933.597,0.084830,244426,201056
937.427,0.082908,263972,218097
941.254,0.082906,281845,232865
945.076,0.081820,297271,246225
950.165,0.081734,315605,261463
953.978,0.080283,328029,272665
957.786,0.080753,340470,282700
961.59,0.081135,352317,292280
965.389,0.081140,363056,301185
969.185,0.081623,373162,309225
972.976,0.081473,382632,317182
976.763,0.082482,391202,323533
981.806,0.082744,400190,330767
985.583,0.083080,406088,335382
989.355,0.083348,410162,338538
993.124,0.084102,412868,340180
996.888,0.084398,414263,341097
1000.65,0.085692,415476,341078
1004.4,0.086120,415479,340745
1009.41,0.087645,414358,338634
1013.15,0.087886,412923,337274
1016.89,0.088898,411526,335351
1020.63,0.088258,409066,333838
1024.36,0.088608,406777,331702
1028.09,0.088128,404427,330151
1031.82,0.088388,401911,327900
1036.78,0.087883,398410,325422
1040.49,0.088104,396204,323456
1044.2,0.087218,394236,322506
1047.91,0.087557,392042,320461
1051.61,0.086663,389823,319304
1055.31,0.086933,388234,317805
1059,0.086136,387599,317868
1063.92,0.085408,386688,317653
1067.61,0.084131,386598,318514
1071.29,0.084737,387377,318711
1074.96,0.083943,388536,320249
1078.63,0.083375,389855,321757
1082.3,0.082729,391215,323360
1085.96,0.081906,393215,325630
1090.84,0.080735,396270,329046
1094.49,0.080524,398760,331274
1098.14,0.080105,400987,333446
1101.79,0.079292,403477,336145
1105.43,0.079319,406116,338323
1109.06,0.078424,407701,340344
1112.7,0.078149,409859,342362
1117.53,0.076953,412494,345513
1121.15,0.078473,414909,346322
1124.77,0.078386,416559,347769
1128.38,0.079394,418532,348606
1131.99,0.080404,419956,348979
1135.6,0.082212,421946,349176
1139.2,0.083322,423881,349882
1143.99,0.085404,426786,350595
1147.58,0.086522,428617,351194
1151.17,0.088094,431169,352009
1154.75,0.088493,433579,353651
1158.33,0.090129,436264,354503
1161.91,0.091873,439132,355404
1165.48,0.093751,442389,356495
1169.04,0.095895,446101,357716
1173.79,0.099621,451929,359293
1177.34,0.101284,456026,361165
1180.9,0.103536,461306,363457
1184.44,0.105290,467657,366976
1187.99,0.106278,473969,371084
1191.52,0.106131,479856,375820
1195.06,0.105893,487372,381916
1199.76,0.105497,497347,390088
1203.29,0.104883,504311,396110
1206.81,0.104270,511507,402329
1210.33,0.103498,519078,409011
1213.84,0.103092,527163,415770
1217.35,0.103111,534208,421308
1220.85,0.101683,540472,427652
1225.51,0.100882,549929,435938
1229.01,0.100813,556888,441525
1232.5,0.100293,562180,446254
1235.98,0.099243,567975,451946
1239.46,0.098181,574815,458508
1242.94,0.097544,582782,465545
1246.41,0.096879,591476,473215
1251.03,0.096823,604016,483310
1254.5,0.096789,612289,489968
1257.96,0.097265,619125,494895
1261.41,0.097939,624551,498458
1264.86,0.098487,629900,502094
1268.31,0.098751,634345,505329
1271.75,0.099728,638574,507555
1276.33,0.099753,642499,510645
1279.76,0.099434,645905,513730
1283.19,0.099038,648307,516111
1286.61,0.099240,650446,517572
1290.03,0.098382,652132,519940
1293.44,0.098060,653907,521742
1296.85,0.097676,655963,523846
1301.39,0.097609,657349,525034
1304.8,0.097688,657558,525105
1308.19,0.097938,658515,525567
1311.58,0.098194,658804,525487
1314.97,0.098639,659011,525114
1318.36,0.099077,658272,523997
1321.73,0.099669,658022,523084
1326.23,0.100632,657870,521805
1329.6,0.101536,656482,519621
1332.97,0.102366,654926,517400
1336.33,0.103784,653727,514769
1339.69,0.105569,652497,511693
1343.04,0.107033,649913,507952
1346.39,0.109095,647671,503801
1349.73,0.111310,645338,499433
1354.18,0.113910,641175,493249
1357.52,0.116213,638376,488499
1360.85,0.118442,635805,484041
1364.17,0.120518,633413,479920
1367.49,0.122564,631026,475864
1370.81,0.124797,628050,471191
1374.12,0.127059,625034,466493
1378.54,0.130267,620272,459531
1381.84,0.133469,616892,453670
1385.14,0.137363,613613,447231
1388.43,0.141684,611526,441297
1391.72,0.147098,610663,435215
1395.01,0.152363,610634,429950
1398.29,0.157392,611700,425742
1402.66,0.165474,614051,419499
1405.93,0.171066,616268,415627
1409.2,0.176681,617795,411304
1412.46,0.182742,618872,406311
1415.72,0.186766,619795,403164
1418.98,0.191438,620495,399301
1422.23,0.195398,621087,396054
1426.56,0.199598,621375,392424
1429.8,0.202164,621616,390264
1433.04,0.204581,622129,388418
1436.27,0.207372,621526,385556
1439.5,0.209215,621113,383668
1442.72,0.211394,620921,381630
1445.94,0.214193,620270,378781
1450.23,0.217826,618860,374771
1453.44,0.219985,617697,372212
1456.64,0.222566,616264,369148
1459.85,0.224775,614413,366172
1463.04,0.227792,612307,362391
1466.24,0.229889,610032,359305
1469.43,0.233333,607345,354897
1473.67,0.237981,603789,349063
1476.85,0.243161,601175,343431
1480.02,0.247838,597737,337810
1483.19,0.253303,594479,331767
1486.36,0.257840,591232,326526
1489.52,0.261513,587853,321926
1492.68,0.265514,583875,316815
1496.89,0.266688,578062,312814
1500.03,0.266945,574159,310518
1503.18,0.267114,570285,308303
1506.32,0.265737,565444,306657
1509.45,0.264731,560571,304719
1512.58,0.263264,555821,303159
1515.71,0.261155,550344,301633
1519.87,0.258468,543983,299997
1522.99,0.256143,538764,298714
1526.1,0.253408,533692,297771
1529.21,0.250877,527902,296262
1532.32,0.248172,521886,294716
1535.42,0.245474,515888,293144
1538.51,0.242447,509987,291818
1541.6,0.239422,503936,290371
1545.72,0.235056,494694,287926
1548.8,0.232563,488378,285886
1551.88,0.230623,481832,283317
1554.95,0.227766,474989,281137
1558.02,0.226360,467818,277790
1561.08,0.224751,460730,274597
1564.15,0.224179,454170,271044
1568.22,0.222473,444181,266126
1571.27,0.222708,436947,261650
1574.32,0.221015,429598,258254
1577.36,0.220066,422039,254265
1580.4,0.219848,414375,249773
1583.43,0.216890,406354,246612
1586.46,0.216006,398475,242323
1590.49,0.214297,388982,237483
1593.51,0.211488,380708,233940
1596.53,0.209436,372727,230120
1599.54,0.207258,365060,226520
1602.55,0.205729,357543,222638
1605.55,0.204200,349495,218394
1608.55,0.202245,341154,214144
1612.54,0.199861,330877,208836
1615.53,0.197394,322904,204965
1618.51,0.197280,315116,200074
1621.49,0.195679,307217,195779
1624.47,0.194155,299481,191520
1627.44,0.193255,292112,187195
1630.41,0.192454,284245,182490
1634.36,0.191655,274079,176287
1637.32,0.190223,266916,172247
1640.27,0.189727,259612,167725
1643.22,0.188806,251804,163026
1646.16,0.188852,244348,158182
1649.1,0.186813,236703,153954
1652.04,0.186134,228171,148637
1655.95,0.182272,215408,141576
1658.88,0.178711,204937,135803
1661.8,0.172846,193395,129897
1664.72,0.166097,179728,122608
1667.63,0.154464,163642,114665
1670.54,0.140175,146312,105951
1673.44,0.124030,128451,96540
1677.31,0.107267,105080,82083
1680.21,0.094328,88906,71549
1683.1,0.089545,75033,61053
1685.99,0.087751,63520,51899
1688.87,0.094222,53714,43238
1691.75,0.097034,45653,36512
1694.62,0.099004,39137,31159
1697.49,0.104691,33776,26541
1701.31,0.118680,28175,21438