File: samples/wool/wool-000811/Column 1_050627_20150331_123631.csv
Method:,Column 1,,
Host Date-Time:,31/3/15 @ 12:36:31,,
Header Version:,1,,
System Temp (C):,34.15,,
Detector Temp (C):,35.06,,
Humidity (%):,1.56,,
Lamp PD:,3818,,
Shift Vector Coefficients:,-10.5391,0.0761263,-0.000134223,,
Pixel to Wavelength Coefficients:,1775.68,-0.916766,-0.000235065,,
Serial Number:,5510004,,
Scan Config Name:,Column 1,,
Scan Config Type:,Slew,,
Section 1,,
Start wavelength (nm):,900,,
End wavelength (nm):,1700,,
Pattern Pixel Width (nm):,   7.03,,,,
Exposure (ms):,  0.635,,,,
Digital Resolution:,228,,
Num Repeats:,6,,
PGA Gain:,64,,
Total Measurement Time in sec:,  2.666,,
Wavelength (nm),Absorbance (AU),Reference Signal (unitless),Sample Signal (unitless)
901.51,0.068459,108485,92664
905.376,0.074402,121306,102207
909.237,0.075919,131909,110753
913.095,0.076299,143299,120211
916.948,0.078197,156982,131115
922.079,0.080770,179937,149400
925.923,0.081455,200504,166214
929.762,0.081439,222660,184588
933.597,0.080932,244426,202869
937.427,0.081015,263972,219050
941.254,0.079586,281845,234652
945.076,0.078361,297271,248194
950.165,0.077505,315605,264021
953.978,0.077122,328029,274657
957.786,0.076584,340470,285427
961.59,0.076875,352317,295161
965.389,0.076264,363056,304586
969.185,0.077003,373162,312532
972.976,0.077596,382632,320026
976.763,0.077634,391202,327165
981.806,0.078353,400190,334128
985.583,0.079226,406088,338372
989.355,0.079542,410162,341518
993.124,0.079859,412868,343520
996.888,0.080301,414263,344330
1000.65,0.081552,415476,344345
1004.4,0.081852,415479,344110
1009.41,0.083944,414358,341532
1013.15,0.083780,412923,340478
1016.89,0.084236,411526,338970
1020.63,0.084429,409066,336794
1024.36,0.084071,406777,335186
1028.09,0.084370,404427,333020
1031.82,0.084529,401911,330827
1036.78,0.083597,398410,328650
1040.49,0.083673,396204,326773
1044.2,0.083289,394236,325437
1047.91,0.083234,392042,323667
1051.61,0.082221,389823,322587
1055.31,0.082167,388234,321312
1059,0.082047,387599,320875
1063.92,0.081393,386688,320603
1067.61,0.080343,386598,321304
1071.29,0.079662,387377,322457
1074.96,0.078859,388536,324020
1078.63,0.078602,389855,325313
1082.3,0.078002,391215,326899
1085.96,0.077162,393215,329206
1090.84,0.076137,396270,332548
1094.49,0.075402,398760,335204
1098.14,0.075073,400987,337332
1101.79,0.073938,403477,340315
1105.43,0.074116,406116,342400
1109.06,0.073840,407701,343955
1112.7,0.072852,409859,346563
1117.53,0.072628,412494,348971
1121.15,0.073669,414909,350174
1124.77,0.073431,416559,351759
1128.38,0.074360,418532,352670
1131.99,0.075456,419956,352978
1135.6,0.076457,421946,353834
1139.2,0.078277,423881,353970
1143.99,0.080224,426786,354802
1147.58,0.081288,428617,355452
1151.17,0.081706,431169,357225
1154.75,0.082937,433579,358205
1158.33,0.084032,436264,359515
1161.91,0.085736,439132,360462
1165.48,0.087396,442389,361750
1169.04,0.089866,446101,362716
1173.79,0.093333,451929,364533
1177.34,0.095214,456026,366248
1180.9,0.097490,461306,368552
1184.44,0.099689,467657,371739
1187.99,0.100882,473969,375723
1191.52,0.100286,479856,380912
1195.06,0.100510,487372,386679
1199.76,0.099394,497347,395608
1203.29,0.099237,504311,401293
1206.81,0.098349,511507,407852
1210.33,0.098025,519078,414198
1213.84,0.097218,527163,421431
1217.35,0.096340,534208,427928
1220.85,0.095892,540472,433392
1225.51,0.095268,549929,441610
1229.01,0.094647,556888,447838
1232.5,0.093808,562180,452968
1235.98,0.093902,567975,457538
1239.46,0.092468,574815,464580
1242.94,0.091480,582782,472091
1246.41,0.091164,591476,479483
1251.03,0.090657,604016,490220
1254.5,0.090931,612289,496621
1257.96,0.091500,619125,501509
1261.41,0.091909,624551,505428
1264.86,0.092557,629900,508996
1268.31,0.092961,634345,512112
1271.75,0.093685,638574,514667
1276.33,0.093736,642499,517769
1279.76,0.093947,645905,520262
1283.19,0.093069,648307,523253
1286.61,0.092734,650446,525385
1290.03,0.092492,652132,527040
1293.44,0.091796,653907,529322
1296.85,0.091663,655963,531149
1301.39,0.091603,657349,532345
1304.8,0.091477,657558,532668
1308.19,0.091596,658515,533298
1311.58,0.091598,658804,533529
1314.97,0.091937,659011,533281
1318.36,0.092414,658272,532098
1321.73,0.092847,658022,531366
1326.23,0.093250,657870,530750
1329.6,0.094083,656482,528615
1332.97,0.094913,654926,526356
1336.33,0.095696,653727,524446
1339.69,0.097306,652497,521522
1343.04,0.098812,649913,517658
1346.39,0.100855,647671,513451
1349.73,0.102392,645338,509795
1354.18,0.105512,641175,502880
1357.52,0.107325,638376,498599
1360.85,0.109238,635805,494408
1364.17,0.110890,633413,490678
1367.49,0.113243,631026,486188
1370.81,0.115638,628050,481234
1374.12,0.117470,625034,476907
1378.54,0.120038,620272,470483
1381.84,0.123014,616892,464724
1385.14,0.126362,613613,458704
1388.43,0.129711,611526,453632
1391.72,0.133404,610663,449156
1395.01,0.136744,610634,445694
1398.29,0.141509,611700,441600
1402.66,0.146954,614051,437774
1405.93,0.151576,616268,434704
1409.2,0.155995,617795,431369
1412.46,0.159974,618872,428180
1415.72,0.164164,619795,424702
1418.98,0.167527,620495,421902
1422.23,0.170743,621087,419189
1426.56,0.174540,621375,415732
1429.8,0.176683,621616,413846
1433.04,0.179362,622129,411641
1436.27,0.181252,621526,409456
1439.5,0.183759,621113,406829
1442.72,0.185735,620921,404857
1445.94,0.188500,620270,401866
1450.23,0.192124,618860,397620
1453.44,0.194880,617697,394362
1456.64,0.197447,616264,391129
1459.85,0.200341,614413,387364
1463.04,0.203606,612307,383145
1466.24,0.207010,610032,378741
1469.43,0.211581,607345,373125
1473.67,0.217019,603789,366325
1476.85,0.223108,601175,359661
1480.02,0.229681,597737,352232
1483.19,0.236736,594479,344668
1486.36,0.242580,591232,338203
1489.52,0.247269,587853,332659
1492.68,0.250972,583875,327603
1496.89,0.252788,578062,322988
1500.03,0.253486,574159,320292
1503.18,0.253541,570285,318091
1506.32,0.252896,565444,315859
1509.45,0.251006,560571,314503
1512.58,0.249267,555821,313089
1515.71,0.247687,550344,311134
1519.87,0.244493,543983,309808
1522.99,0.241748,538764,308781
1526.1,0.239618,533692,307378
1529.21,0.236762,527902,306049
1532.32,0.233353,521886,304946
1535.42,0.230158,515888,303667
1538.51,0.227844,509987,301797
1541.6,0.224654,503936,300415
1545.72,0.220838,494694,297508
1548.8,0.217467,488378,295998
1551.88,0.215893,481832,293091
1554.95,0.214007,474989,290186
1558.02,0.212516,467818,286788
1561.08,0.210939,460730,283470
1564.15,0.210223,454170,279895
1568.22,0.209773,444181,274023
1571.27,0.208750,436947,270196
1574.32,0.207885,429598,266181
1577.36,0.206645,422039,262245
1580.4,0.205602,414375,258102
1583.43,0.204861,406354,253538
1586.46,0.203130,398475,249615
1590.49,0.201134,388982,244791
1593.51,0.199212,380708,240647
1596.53,0.197506,372727,236529
1599.54,0.194980,365060,233015
1602.55,0.193963,357543,228752
1605.55,0.192070,349495,224580
1608.55,0.189306,341154,220620
1612.54,0.188013,330877,214612
1615.53,0.185865,322904,210479
1618.51,0.185069,315116,205779
1621.49,0.183930,307217,201148
1624.47,0.182543,299481,196710
1627.44,0.181525,292112,192320
1630.41,0.180606,284245,187537
1634.36,0.178975,274079,181510
1637.32,0.178612,266916,176914
1640.27,0.178075,259612,172286
1643.22,0.177175,251804,167451
1646.16,0.176258,244348,162836
1649.1,0.175978,236703,157843
1652.04,0.174615,228171,152632
1655.95,0.171325,215408,145190
1658.88,0.166101,204937,139804
1661.8,0.161948,193395,133198
1664.72,0.154659,179728,125880
1667.63,0.141424,163642,118160
1670.54,0.125077,146312,109699
1673.44,0.108811,128451,99983
1677.31,0.087335,105080,85938
1680.21,0.077195,88906,74428
1683.1,0.071188,75033,63689
1685.99,0.069480,63520,54129
1688.87,0.074402,53714,45257
1691.75,0.075670,45653,38353
1694.62,0.074653,39137,32956
1697.49,0.095783,33776,27091
1701.31,0.096313,28175,22571