File: samples/wool/wool-000811/Column 1_050542_20150331_115615.csv
Method:,Column 1,,
Host Date-Time:,31/3/15 @ 11:56:15,,
Header Version:,1,,
System Temp (C):,32.57,,
Detector Temp (C):,30.91,,
Humidity (%):,2.83,,
Lamp PD:,3824,,
Shift Vector Coefficients:,-10.5391,0.0761263,-0.000134223,,
Pixel to Wavelength Coefficients:,1775.68,-0.916766,-0.000235065,,
Serial Number:,5510004,,
Scan Config Name:,Column 1,,
Scan Config Type:,Slew,,
Section 1,,
Start wavelength (nm):,900,,
End wavelength (nm):,1700,,
Pattern Pixel Width (nm):,   7.03,,,,
Exposure (ms):,  0.635,,,,
Digital Resolution:,228,,
Num Repeats:,6,,
PGA Gain:,64,,
Total Measurement Time in sec:,  2.663,,
Wavelength (nm),Absorbance (AU),Reference Signal (unitless),Sample Signal (unitless)
901.51,0.043356,108485,98178
905.376,0.051255,121306,107802
909.237,0.052018,131909,117019
913.095,0.052932,143299,126856
916.948,0.052211,156982,139200
922.079,0.053781,179937,158979
925.923,0.053801,200504,177142
929.762,0.054266,222660,196506
933.597,0.054791,244426,215455
937.427,0.054403,263972,232892
941.254,0.055097,281845,248264
945.076,0.054634,297271,262131
950.165,0.054351,315605,278479
953.978,0.054564,328029,289300
957.786,0.055349,340470,299730
961.59,0.055318,352317,310181
965.389,0.055591,363056,319435
969.185,0.055695,373162,328248
972.976,0.056349,382632,336072
976.763,0.056973,391202,343106
981.806,0.057676,400190,350421
985.583,0.058970,406088,354528
989.355,0.059264,410162,357842
993.124,0.059161,412868,360288
996.888,0.060122,414263,360707
1000.65,0.060608,415476,361358
1004.4,0.061986,415479,360216
1009.41,0.063232,414358,358215
1013.15,0.063046,412923,357127
1016.89,0.064040,411526,355105
1020.63,0.064219,409066,352837
1024.36,0.064320,406777,350781
1028.09,0.063724,404427,349234
1031.82,0.063321,401911,347383
1036.78,0.062555,398410,344965
1040.49,0.061585,396204,343822
1044.2,0.061757,394236,341979
1047.91,0.061329,392042,340411
1051.61,0.060419,389823,339194
1055.31,0.059670,388234,338395
1059,0.058996,387599,338366
1063.92,0.057560,386688,338689
1067.61,0.057283,386598,338826
1071.29,0.056169,387377,340381
1074.96,0.055603,388536,341844
1078.63,0.054780,389855,343655
1082.3,0.053930,391215,345530
1085.96,0.053323,393215,347782
1090.84,0.052114,396270,351461
1094.49,0.051519,398760,354154
1098.14,0.051686,400987,355995
1101.79,0.051049,403477,358732
1105.43,0.050883,406116,361216
1109.06,0.050381,407701,363045
1112.7,0.050883,409859,364545
1117.53,0.050877,412494,366894
1121.15,0.051545,414909,368475
1124.77,0.052674,416559,368980
1128.38,0.053331,418532,370167
1131.99,0.055239,419956,369798
1135.6,0.057032,421946,370020
1139.2,0.059028,423881,370012
1143.99,0.062025,426786,369986
1147.58,0.063040,428617,370706
1151.17,0.064910,431169,371311
1154.75,0.065968,433579,372478
1158.33,0.067759,436264,373242
1161.91,0.070314,439132,373492
1165.48,0.073486,442389,373524
1169.04,0.076190,446101,374320
1173.79,0.080658,451929,375329
1177.34,0.083420,456026,376331
1180.9,0.085799,461306,378608
1184.44,0.087962,467657,381914
1187.99,0.088845,473969,386282
1191.52,0.088632,479856,391272
1195.06,0.087412,487372,398519
1199.76,0.086015,497347,407985
1203.29,0.084725,504311,414929
1206.81,0.083809,511507,421738
1210.33,0.082258,519078,429511
1213.84,0.081439,527163,437025
1217.35,0.080603,534208,443718
1220.85,0.079020,540472,450561
1225.51,0.078326,549929,459177
1229.01,0.077231,556888,466162
1232.5,0.076268,562180,471636
1235.98,0.075742,567975,477076
1239.46,0.074112,574815,484637
1242.94,0.073144,582782,492450
1246.41,0.072244,591476,500833
1251.03,0.072115,604016,511603
1254.5,0.072149,612289,518570
1257.96,0.072039,619125,524492
1261.41,0.073028,624551,527886
1264.86,0.073241,629900,532146
1268.31,0.074439,634345,534425
1271.75,0.074980,638574,537318
1276.33,0.075427,642499,540064
1279.76,0.075336,645905,543041
1283.19,0.074528,648307,546075
1286.61,0.074221,650446,548265
1290.03,0.074117,652132,549817
1293.44,0.073277,653907,552381
1296.85,0.073297,655963,554092
1301.39,0.072788,657349,555914
1304.8,0.073108,657558,555682
1308.19,0.073024,658515,556598
1311.58,0.073261,658804,556539
1314.97,0.074113,659011,555622
1318.36,0.074299,658272,554761
1321.73,0.074906,658022,553776
1326.23,0.076151,657870,552064
1329.6,0.076856,656482,550005
1332.97,0.077819,654926,547486
1336.33,0.079225,653727,544718
1339.69,0.081461,652497,540901
1343.04,0.083392,649913,536368
1346.39,0.085686,647671,531702
1349.73,0.087898,645338,527096
1354.18,0.091741,641175,519082
1357.52,0.094224,638376,513869
1360.85,0.096769,635805,508809
1364.17,0.099270,633413,503984
1367.49,0.101926,631026,499024
1370.81,0.104212,628050,494063
1374.12,0.107277,625034,488233
1378.54,0.111193,620272,480164
1381.84,0.115171,616892,473193
1385.14,0.120015,613613,465457
1388.43,0.124423,611526,459189
1391.72,0.131014,610663,451635
1395.01,0.136179,610634,446274
1398.29,0.142463,611700,440631
1402.66,0.151101,614051,433614
1405.93,0.157864,616268,428455
1409.2,0.163710,617795,423774
1412.46,0.169602,618872,418792
1415.72,0.174862,619795,414368
1418.98,0.179936,620495,410017
1422.23,0.184048,621087,406541
1426.56,0.189005,621375,402114
1429.8,0.191934,621616,399566
1433.04,0.195071,622129,397017
1436.27,0.197045,621526,394834
1439.5,0.199465,621113,392379
1442.72,0.202033,620921,389945
1445.94,0.203841,620270,387918
1450.23,0.207974,618860,383370
1453.44,0.210665,617697,380286
1456.64,0.213883,616264,376603
1459.85,0.217360,614413,372478
1463.04,0.219151,612307,369673
1466.24,0.222262,610032,365671
1469.43,0.226242,607345,360739
1473.67,0.231445,603789,354356
1476.85,0.236320,601175,348884
1480.02,0.241922,597737,342443
1483.19,0.247945,594479,335886
1486.36,0.254139,591232,329321
1489.52,0.259643,587853,323315
1492.68,0.262736,583875,318848
1496.89,0.265622,578062,313583
1500.03,0.266636,574159,310739
1503.18,0.267176,570285,308259
1506.32,0.266633,565444,306025
1509.45,0.265703,560571,304038
1512.58,0.263740,555821,302827
1515.71,0.261942,550344,301087
1519.87,0.258804,543983,299765
1522.99,0.255389,538764,299233
1526.1,0.252958,533692,298080
1529.21,0.249630,527902,297114
1532.32,0.247027,521886,295494
1535.42,0.243612,515888,294404
1538.51,0.240222,509987,293317
1541.6,0.236954,503936,292026
1545.72,0.232156,494694,289855
1548.8,0.228150,488378,288806
1551.88,0.225886,481832,286424
1554.95,0.223393,474989,283982
1558.02,0.221239,467818,281085
1561.08,0.219963,460730,277641
1564.15,0.218877,454170,274373
1568.22,0.217762,444181,269028
1571.27,0.218090,436947,264447
1574.32,0.216001,429598,261253
1577.36,0.214493,422039,257549
1580.4,0.213196,414375,253628
1583.43,0.211484,406354,249701
1586.46,0.209069,398475,246225
1590.49,0.207500,388982,241229
1593.51,0.204652,380708,237651
1596.53,0.202251,372727,233959
1599.54,0.199533,365060,230585
1602.55,0.196865,357543,227229
1605.55,0.194710,349495,223219
1608.55,0.194040,341154,218228
1612.54,0.189742,330877,213759
1615.53,0.188165,322904,209367
1618.51,0.186350,315116,205173
1621.49,0.184480,307217,200893
1624.47,0.183515,299481,196270
1627.44,0.183487,292112,191453
1630.41,0.180759,284245,187471
1634.36,0.180144,274079,181022
1637.32,0.178279,266916,177050
1640.27,0.175993,259612,173114
1643.22,0.176115,251804,167860
1646.16,0.175129,244348,163260
1649.1,0.174597,236703,158346
1652.04,0.172087,228171,153523
1655.95,0.170772,215408,145375
1658.88,0.169556,204937,138696
1661.8,0.167516,193395,131501
1664.72,0.163086,179728,123461
1667.63,0.157836,163642,113778
1670.54,0.151470,146312,103231
1673.44,0.145044,128451,91980
1677.31,0.141731,105080,75821
1680.21,0.137966,88906,64709
1683.1,0.141726,75033,54141
1685.99,0.144689,63520,45522
1688.87,0.149539,53714,38067
1691.75,0.155515,45653,31912
1694.62,0.158258,39137,27185
1697.49,0.164827,33776,23109
1701.31,0.160922,28175,19451