File: samples/wool/wool-000811/Column 1_050532_20150331_115121.csv
Method:,Column 1,,
Host Date-Time:,31/3/15 @ 11:51:21,,
Header Version:,1,,
System Temp (C):,30.44,,
Detector Temp (C):,31.29,,
Humidity (%):,4.77,,
Lamp PD:,3830,,
Shift Vector Coefficients:,-10.5391,0.0761263,-0.000134223,,
Pixel to Wavelength Coefficients:,1775.68,-0.916766,-0.000235065,,
Serial Number:,5510004,,
Scan Config Name:,Column 1,,
Scan Config Type:,Slew,,
Section 1,,
Start wavelength (nm):,900,,
End wavelength (nm):,1700,,
Pattern Pixel Width (nm):,   7.03,,,,
Exposure (ms):,  0.635,,,,
Digital Resolution:,228,,
Num Repeats:,6,,
PGA Gain:,64,,
Total Measurement Time in sec:,  2.678,,
Wavelength (nm),Absorbance (AU),Reference Signal (unitless),Sample Signal (unitless)
901.51,0.044929,108485,97823
905.376,0.050756,121306,107926
909.237,0.051302,131909,117212
913.095,0.052337,143299,127030
916.948,0.052398,156982,139140
922.079,0.052030,179937,159621
925.923,0.053838,200504,177127
929.762,0.052291,222660,197402
933.597,0.053682,244426,216006
937.427,0.053857,263972,233185
941.254,0.054434,281845,248643
945.076,0.053800,297271,262635
950.165,0.054217,315605,278565
953.978,0.053887,328029,289751
957.786,0.055044,340470,299940
961.59,0.055582,352317,309993
965.389,0.056041,363056,319104
969.185,0.055883,373162,328106
972.976,0.056571,382632,335900
976.763,0.057221,391202,342910
981.806,0.058408,400190,349831
985.583,0.058632,406088,354804
989.355,0.059321,410162,357795
993.124,0.060435,412868,359233
996.888,0.060415,414263,360463
1000.65,0.061211,415476,360857
1004.4,0.062257,415479,359991
1009.41,0.063801,414358,357746
1013.15,0.064180,412923,356196
1016.89,0.064532,411526,354703
1020.63,0.064004,409066,353012
1024.36,0.064538,406777,350605
1028.09,0.063924,404427,349073
1031.82,0.062990,401911,347648
1036.78,0.063086,398410,344544
1040.49,0.062832,396204,342836
1044.2,0.062214,394236,341619
1047.91,0.061971,392042,339908
1051.61,0.060772,389823,338919
1055.31,0.059875,388234,338235
1059,0.059646,387599,337860
1063.92,0.057938,386688,338394
1067.61,0.057280,386598,338828
1071.29,0.056511,387377,340113
1074.96,0.056488,388536,341148
1078.63,0.054840,389855,343608
1082.3,0.054059,391215,345427
1085.96,0.053782,393215,347415
1090.84,0.052976,396270,350764
1094.49,0.052244,398760,353564
1098.14,0.052254,400987,355530
1101.79,0.051852,403477,358069
1105.43,0.052074,406116,360227
1109.06,0.050891,407701,362619
1112.7,0.051326,409859,364174
1117.53,0.050768,412494,366986
1121.15,0.052660,414909,367530
1124.77,0.052676,416559,368978
1128.38,0.054599,418532,369088
1131.99,0.055713,419956,369395
1135.6,0.057831,421946,369340
1139.2,0.061581,423881,367843
1143.99,0.063183,426786,369001
1147.58,0.064776,428617,369227
1151.17,0.065993,431169,370386
1154.75,0.067084,433579,371522
1158.33,0.069258,436264,371956
1161.91,0.071728,439132,372278
1165.48,0.074684,442389,372495
1169.04,0.077391,446101,373286
1173.79,0.082095,451929,374089
1177.34,0.084686,456026,375235
1180.9,0.087155,461306,377428
1184.44,0.089032,467657,380974
1187.99,0.090122,473969,385148
1191.52,0.089039,479856,390906
1195.06,0.088922,487372,397135
1199.76,0.086889,497347,407165
1203.29,0.085923,504311,413786
1206.81,0.084965,511507,420617
1210.33,0.083597,519078,428189
1213.84,0.082721,527163,435736
1217.35,0.081674,534208,442625
1220.85,0.080332,540472,449202
1225.51,0.079076,549929,458385
1229.01,0.078089,556888,465242
1232.5,0.077643,562180,470146
1235.98,0.076392,567975,476362
1239.46,0.075256,574815,483362
1242.94,0.074320,582782,491118
1246.41,0.073484,591476,499405
1251.03,0.072833,604016,510758
1254.5,0.072802,612289,517791
1257.96,0.073273,619125,523004
1261.41,0.073864,624551,526871
1264.86,0.074499,629900,530606
1268.31,0.075106,634345,533605
1271.75,0.076044,638574,536003
1276.33,0.076086,642499,539246
1279.76,0.076342,645905,541784
1283.19,0.075891,648307,544364
1286.61,0.075132,650446,547116
1290.03,0.074573,652132,549240
1293.44,0.074044,653907,551407
1296.85,0.074371,655963,552724
1301.39,0.073997,657349,554369
1304.8,0.073950,657558,554606
1308.19,0.074428,658515,554802
1311.58,0.074288,658804,555224
1314.97,0.075070,659011,554399
1318.36,0.075821,658272,552821
1321.73,0.076460,658022,551799
1326.23,0.077482,657870,550374
1329.6,0.078661,656482,547724
1332.97,0.079710,654926,545107
1336.33,0.081108,653727,542361
1339.69,0.083349,652497,538554
1343.04,0.085051,649913,534323
1346.39,0.087751,647671,529180
1349.73,0.089900,645338,524671
1354.18,0.093641,641175,516815
1357.52,0.095826,638376,511977
1360.85,0.098387,635805,506917
1364.17,0.100864,633413,502138
1367.49,0.103572,631026,497136
1370.81,0.106702,628050,491238
1374.12,0.109911,625034,485280
1378.54,0.113074,620272,478088
1381.84,0.117453,616892,470713
1385.14,0.121855,613613,463489
1388.43,0.127853,611526,455577
1391.72,0.133773,610663,448775
1395.01,0.139360,610634,443018
1398.29,0.146487,611700,436568
1402.66,0.155924,614051,428825
1405.93,0.162991,616268,423427
1409.2,0.169583,617795,418082
1412.46,0.176434,618872,412256
1415.72,0.182081,619795,407537
1418.98,0.186971,620495,403429
1422.23,0.192046,621087,399123
1426.56,0.196629,621375,395116
1429.8,0.200047,621616,392171
1433.04,0.203114,622129,389732
1436.27,0.206232,621526,386569
1439.5,0.208643,621113,384174
1442.72,0.211561,620921,381483
1445.94,0.213984,620270,378963
1450.23,0.217256,618860,375264
1453.44,0.220479,617697,371789
1456.64,0.223682,616264,368201
1459.85,0.225905,614413,365221
1463.04,0.228226,612307,362029
1466.24,0.230886,610032,358481
1469.43,0.233912,607345,354424
1473.67,0.238558,603789,348600
1476.85,0.242876,601175,343657
1480.02,0.247703,597737,337915
1483.19,0.253433,594479,331668
1486.36,0.258858,591232,325762
1489.52,0.264278,587853,319883
1492.68,0.267581,583875,315311
1496.89,0.272870,578062,308393
1500.03,0.271277,574159,307436
1503.18,0.271942,570285,304895
1506.32,0.271518,565444,302602
1509.45,0.269849,560571,301149
1512.58,0.269174,555821,299062
1515.71,0.266634,550344,297852
1519.87,0.263449,543983,296576
1522.99,0.260356,538764,295830
1526.1,0.258292,533692,294441
1529.21,0.255277,527902,293276
1532.32,0.252258,521886,291956
1535.42,0.248930,515888,290821
1538.51,0.245563,509987,289732
1541.6,0.242555,503936,288284
1545.72,0.236644,494694,286875
1548.8,0.233713,488378,285130
1551.88,0.230868,481832,283157
1554.95,0.228827,474989,280451
1558.02,0.227115,467818,277308
1561.08,0.224985,460730,274449
1564.15,0.224632,454170,270761
1568.22,0.223549,444181,265467
1571.27,0.222416,436947,261826
1574.32,0.221496,429598,257968
1577.36,0.219400,422039,254655
1580.4,0.217976,414375,250852
1583.43,0.216691,406354,246725
1586.46,0.214605,398475,243106
1590.49,0.211103,388982,239236
1593.51,0.209495,380708,235016
1596.53,0.207371,372727,231217
1599.54,0.205223,365060,227584
1602.55,0.201123,357543,225012
1605.55,0.199745,349495,220646
1608.55,0.196701,341154,216895
1612.54,0.195460,330877,210963
1615.53,0.192273,322904,207396
1618.51,0.190900,315116,203035
1621.49,0.188935,307217,198843
1624.47,0.186961,299481,194719
1627.44,0.186015,292112,190342
1630.41,0.184589,284245,185825
1634.36,0.182331,274079,180113
1637.32,0.181526,266916,175731
1640.27,0.181042,259612,171113
1643.22,0.180330,251804,166239
1646.16,0.179452,244348,161643
1649.1,0.177365,236703,157340
1652.04,0.177344,228171,151676
1655.95,0.176910,215408,143335
1658.88,0.174504,204937,137125
1661.8,0.174306,193395,129461
1664.72,0.170662,179728,121326
1667.63,0.167158,163642,111362
1670.54,0.165054,146312,100052
1673.44,0.162118,128451,88434
1677.31,0.158239,105080,72993
1680.21,0.158266,88906,61754
1683.1,0.158731,75033,52062
1685.99,0.166212,63520,43321
1688.87,0.174606,53714,35932
1691.75,0.178816,45653,30245
1694.62,0.182942,39137,25683
1697.49,0.186403,33776,21989
1701.31,0.191490,28175,18129