File: samples/wool/wool-000811/Column 1_050586_20150331_121648.csv
Method:,Column 1,,
Host Date-Time:,31/3/15 @ 12:16:48,,
Header Version:,1,,
System Temp (C):,33.8,,
Detector Temp (C):,34.49,,
Humidity (%):,1.86,,
Lamp PD:,3819,,
Shift Vector Coefficients:,-10.5391,0.0761263,-0.000134223,,
Pixel to Wavelength Coefficients:,1775.68,-0.916766,-0.000235065,,
Serial Number:,5510004,,
Scan Config Name:,Column 1,,
Scan Config Type:,Slew,,
Section 1,,
Start wavelength (nm):,900,,
End wavelength (nm):,1700,,
Pattern Pixel Width (nm):,   7.03,,,,
Exposure (ms):,  0.635,,,,
Digital Resolution:,228,,
Num Repeats:,6,,
PGA Gain:,64,,
Total Measurement Time in sec:,  2.734,,
Wavelength (nm),Absorbance (AU),Reference Signal (unitless),Sample Signal (unitless)
901.51,0.069594,108485,92422
905.376,0.075849,121306,101867
909.237,0.076417,131909,110626
913.095,0.077670,143299,119832
916.948,0.080366,156982,130462
922.079,0.081518,179937,149143
925.923,0.081602,200504,166158
929.762,0.082013,222660,184344
933.597,0.082540,244426,202119
937.427,0.082393,263972,218356
941.254,0.081716,281845,233504
945.076,0.080027,297271,247244
950.165,0.079996,315605,262511
953.978,0.079691,328029,273037
957.786,0.079483,340470,283528
961.59,0.079151,352317,293618
965.389,0.079717,363056,302174
969.185,0.079240,373162,310926
972.976,0.079470,382632,318648
976.763,0.080777,391202,324806
981.806,0.080583,400190,332417
985.583,0.081256,406088,336794
989.355,0.082137,410162,339483
993.124,0.082479,412868,341454
996.888,0.082871,414263,342299
1000.65,0.083439,415476,342852
1004.4,0.084611,415479,341931
1009.41,0.086266,414358,339711
1013.15,0.086595,412923,338278
1016.89,0.086792,411526,336981
1020.63,0.086511,409066,335183
1024.36,0.086577,406777,333257
1028.09,0.086595,404427,331318
1031.82,0.086073,401911,329653
1036.78,0.085934,398410,326886
1040.49,0.085624,396204,325308
1044.2,0.085538,394236,323756
1047.91,0.085338,392042,322103
1051.61,0.085174,389823,320401
1055.31,0.084351,388234,319700
1059,0.084098,387599,319363
1063.92,0.082833,386688,319542
1067.61,0.082919,386598,319404
1071.29,0.082783,387377,320148
1074.96,0.081894,388536,321764
1078.63,0.081261,389855,323327
1082.3,0.080312,391215,325165
1085.96,0.079960,393215,327092
1090.84,0.078692,396270,330597
1094.49,0.078151,398760,333089
1098.14,0.078040,400987,335035
1101.79,0.076900,403477,338002
1105.43,0.076994,406116,340139
1109.06,0.075831,407701,342382
1112.7,0.075890,409859,344147
1117.53,0.076138,412494,346162
1121.15,0.076997,414909,347501
1124.77,0.076377,416559,349381
1128.38,0.077353,418532,350248
1131.99,0.077957,419956,350951
1135.6,0.079885,421946,351052
1139.2,0.080941,423881,351806
1143.99,0.083659,426786,352007
1147.58,0.083560,428617,353598
1151.17,0.085220,431169,354346
1154.75,0.085705,433579,355929
1158.33,0.087687,436264,356502
1161.91,0.089635,439132,357240
1165.48,0.090934,442389,358815
1169.04,0.093681,446101,359544
1173.79,0.097070,451929,361410
1177.34,0.098943,456026,363117
1180.9,0.101391,461306,365257
1184.44,0.103471,467657,368516
1187.99,0.103846,473969,373168
1191.52,0.104040,479856,377634
1195.06,0.103467,487372,384055
1199.76,0.103144,497347,392207
1203.29,0.102039,504311,398712
1206.81,0.102363,511507,404100
1210.33,0.101220,519078,411162
1213.84,0.100726,527163,418041
1217.35,0.100296,534208,424047
1220.85,0.099563,540472,429744
1225.51,0.098977,549929,437854
1229.01,0.098294,556888,444093
1232.5,0.097591,562180,449039
1235.98,0.097324,567975,453947
1239.46,0.096334,574815,460462
1242.94,0.095253,582782,468008
1246.41,0.094727,591476,475565
1251.03,0.094543,604016,485854
1254.5,0.094340,612289,492739
1257.96,0.095163,619125,497297
1261.41,0.095546,624551,501213
1264.86,0.095898,629900,505096
1268.31,0.096720,634345,507698
1271.75,0.098403,638574,509106
1276.33,0.097770,642499,512982
1279.76,0.097258,645905,516310
1283.19,0.097025,648307,518508
1286.61,0.096771,650446,520523
1290.03,0.095937,652132,522876
1293.44,0.095770,653907,524500
1296.85,0.095818,655963,526091
1301.39,0.095390,657349,527723
1304.8,0.095592,657558,527645
1308.19,0.095728,658515,528248
1311.58,0.095855,658804,528325
1314.97,0.096394,659011,527836
1318.36,0.096909,658272,526619
1321.73,0.096981,658022,526331
1326.23,0.098001,657870,524975
1329.6,0.098975,656482,522694
1332.97,0.099660,654926,520634
1336.33,0.100701,653727,518436
1339.69,0.102582,652497,515225
1343.04,0.104416,649913,511022
1346.39,0.106483,647671,506841
1349.73,0.108080,645338,503161
1354.18,0.110902,641175,496678
1357.52,0.113316,638376,491768
1360.85,0.114809,635805,488107
1364.17,0.117295,633413,483495
1367.49,0.119720,631026,478991
1370.81,0.121554,628050,474723
1374.12,0.123576,625034,470249
1378.54,0.127158,620272,462833
1381.84,0.129819,616892,457499
1385.14,0.133665,613613,451055
1388.43,0.137567,611526,445500
1391.72,0.142289,610663,440061
1395.01,0.146838,610634,435455
1398.29,0.151892,611700,431168
1402.66,0.159169,614051,425633
1405.93,0.164326,616268,422127
1409.2,0.169968,617795,417711
1412.46,0.174715,618872,413891
1415.72,0.179243,619795,410209
1418.98,0.182883,620495,407245
1422.23,0.186712,621087,404055
1426.56,0.191006,621375,400265
1429.8,0.193258,621616,398349
1433.04,0.195987,622129,396181
1436.27,0.198248,621526,393742
1439.5,0.200474,621113,391468
1442.72,0.202866,620921,389198
1445.94,0.205298,620270,386619
1450.23,0.208311,618860,383073
1453.44,0.211500,617697,379556
1456.64,0.213519,616264,376919
1459.85,0.215478,614413,374095
1463.04,0.218683,612307,370072
1466.24,0.222660,610032,365336
1469.43,0.224995,607345,361777
1473.67,0.230833,603789,354856
1476.85,0.236213,601175,348970
1480.02,0.241239,597737,342982
1483.19,0.246486,594479,337016
1486.36,0.252434,591232,330616
1489.52,0.256622,587853,325572
1492.68,0.259360,583875,321336
1496.89,0.260945,578062,316978
1500.03,0.261630,574159,314342
1503.18,0.261972,570285,311975
1506.32,0.260928,565444,310071
1509.45,0.259633,560571,308317
1512.58,0.257748,555821,307034
1515.71,0.255661,550344,305473
1519.87,0.253405,543983,303515
1522.99,0.250482,538764,302633
1526.1,0.247970,533692,301523
1529.21,0.245493,527902,299958
1532.32,0.242118,521886,298853
1535.42,0.239879,515888,296945
1538.51,0.236875,509987,295586
1541.6,0.234395,503936,293752
1545.72,0.229564,494694,291590
1548.8,0.226929,488378,289619
1551.88,0.224938,481832,287050
1554.95,0.222543,474989,284538
1558.02,0.220734,467818,281412
1561.08,0.219814,460730,277736
1564.15,0.218826,454170,274405
1568.22,0.217856,444181,268970
1571.27,0.217704,436947,264682
1574.32,0.216913,429598,260705
1577.36,0.214926,422039,257292
1580.4,0.213983,414375,253169
1583.43,0.212798,406354,248947
1586.46,0.210151,398475,245612
1590.49,0.207920,388982,240996
1593.51,0.206221,380708,236794
1596.53,0.204544,372727,232727
1599.54,0.203552,365060,228461
1602.55,0.201074,357543,225037
1605.55,0.199066,349495,220991
1608.55,0.197778,341154,216358
1612.54,0.195314,330877,211034
1615.53,0.193307,322904,206903
1618.51,0.191820,315116,202605
1621.49,0.190888,307217,197951
1624.47,0.189915,299481,193399
1627.44,0.189633,292112,188763
1630.41,0.188222,284245,184277
1634.36,0.186062,274079,178572
1637.32,0.186120,266916,173882
1640.27,0.185183,259612,169489
1643.22,0.184778,251804,164545
1646.16,0.184660,244348,159716
1649.1,0.183533,236703,155121
1652.04,0.180926,228171,150430
1655.95,0.178078,215408,142950
1658.88,0.174599,204937,137095
1661.8,0.169071,193395,131031
1664.72,0.162271,179728,123693
1667.63,0.149328,163642,116029
1670.54,0.135933,146312,106991
1673.44,0.119951,128451,97451
1677.31,0.102029,105080,83079
1680.21,0.090171,88906,72237
1683.1,0.085157,75033,61673
1685.99,0.083372,63520,52425
1688.87,0.085964,53714,44068
1691.75,0.090845,45653,37036
1694.62,0.097654,39137,31256
1697.49,0.104233,33776,26569
1701.31,0.109737,28175,21884