File: samples/wool/wool-000811/Column 1_050555_20150331_120205.csv
Method:,Column 1,,
Host Date-Time:,31/3/15 @ 12:2:5,,
Header Version:,1,,
System Temp (C):,33.46,,
Detector Temp (C):,32.52,,
Humidity (%):,2.44,,
Lamp PD:,3821,,
Shift Vector Coefficients:,-10.5391,0.0761263,-0.000134223,,
Pixel to Wavelength Coefficients:,1775.68,-0.916766,-0.000235065,,
Serial Number:,5510004,,
Scan Config Name:,Column 1,,
Scan Config Type:,Slew,,
Section 1,,
Start wavelength (nm):,900,,
End wavelength (nm):,1700,,
Pattern Pixel Width (nm):,   7.03,,,,
Exposure (ms):,  0.635,,,,
Digital Resolution:,228,,
Num Repeats:,6,,
PGA Gain:,64,,
Total Measurement Time in sec:,  2.736,,
Wavelength (nm),Absorbance (AU),Reference Signal (unitless),Sample Signal (unitless)
901.51,0.033865,108485,100347
905.376,0.039456,121306,110771
909.237,0.041252,131909,119956
913.095,0.042801,143299,129850
916.948,0.041883,156982,142550
922.079,0.043597,179937,162751
925.923,0.045223,200504,180676
929.762,0.046213,222660,200184
933.597,0.045954,244426,219884
937.427,0.046440,263972,237202
941.254,0.046121,281845,253448
945.076,0.045921,297271,267443
950.165,0.046471,315605,283578
953.978,0.045389,328029,295477
957.786,0.046016,340470,306241
961.59,0.045989,352317,316916
965.389,0.046162,363056,326446
969.185,0.046431,373162,335325
972.976,0.046807,382632,343538
976.763,0.047978,391202,350286
981.806,0.048313,400190,358058
985.583,0.049100,406088,362677
989.355,0.049555,410162,365932
993.124,0.049599,412868,368309
996.888,0.050833,414263,368505
1000.65,0.051084,415476,369370
1004.4,0.052255,415479,368378
1009.41,0.053888,414358,366006
1013.15,0.054311,412923,364383
1016.89,0.055186,411526,362419
1020.63,0.054699,409066,360657
1024.36,0.054860,406777,358506
1028.09,0.054114,404427,357048
1031.82,0.054032,401911,354893
1036.78,0.053906,398410,351904
1040.49,0.053755,396204,350077
1044.2,0.053070,394236,348888
1047.91,0.053300,392042,346763
1051.61,0.052262,389823,345625
1055.31,0.051379,388234,344917
1059,0.051299,387599,344416
1063.92,0.050609,386688,344153
1067.61,0.049755,386598,344750
1071.29,0.049407,387377,345722
1074.96,0.048847,388536,347204
1078.63,0.048129,389855,348959
1082.3,0.047134,391215,350979
1085.96,0.046185,393215,353545
1090.84,0.046001,396270,356443
1094.49,0.044934,398760,359565
1098.14,0.045100,400987,361435
1101.79,0.044731,403477,363989
1105.43,0.044940,406116,366193
1109.06,0.044112,407701,368324
1112.7,0.043309,409859,370959
1117.53,0.044171,412494,372603
1121.15,0.044906,414909,374151
1124.77,0.046017,416559,374679
1128.38,0.046830,418532,375750
1131.99,0.048250,419956,375797
1135.6,0.050209,421946,375879
1139.2,0.052422,423881,375683
1143.99,0.054360,426786,376574
1147.58,0.055761,428617,376971
1151.17,0.056405,431169,378654
1154.75,0.058073,433579,379311
1158.33,0.059733,436264,380204
1161.91,0.061842,439132,380849
1165.48,0.064330,442389,381482
1169.04,0.067557,446101,381835
1173.79,0.071158,451929,383630
1177.34,0.073548,456026,384983
1180.9,0.075545,461306,387654
1184.44,0.076879,467657,391786
1187.99,0.077922,473969,396121
1191.52,0.078241,479856,400747
1195.06,0.077791,487372,407446
1199.76,0.077084,497347,416462
1203.29,0.075588,504311,423751
1206.81,0.075092,511507,430288
1210.33,0.073797,519078,437961
1213.84,0.074078,527163,444495
1217.35,0.072916,534208,451642
1220.85,0.071820,540472,458092
1225.51,0.070760,549929,467247
1229.01,0.070166,556888,473807
1232.5,0.069498,562180,479046
1235.98,0.068930,567975,484618
1239.46,0.068055,574815,491443
1242.94,0.066985,582782,499483
1246.41,0.066177,591476,507879
1251.03,0.066234,604016,518578
1254.5,0.066403,612289,525477
1257.96,0.066942,619125,530685
1261.41,0.067361,624551,534819
1264.86,0.067419,629900,539328
1268.31,0.068500,634345,541783
1271.75,0.069580,638574,544040
1276.33,0.069724,642499,547203
1279.76,0.069601,645905,550259
1283.19,0.069121,648307,552917
1286.61,0.068800,650446,555151
1290.03,0.068191,652132,557371
1293.44,0.067738,653907,559471
1296.85,0.067936,655963,560975
1301.39,0.067602,657349,562593
1304.8,0.067404,657558,563028
1308.19,0.067612,658515,563578
1311.58,0.068074,658804,563225
1314.97,0.068688,659011,562606
1318.36,0.069333,658272,561141
1321.73,0.069661,658022,560505
1326.23,0.070961,657870,558701
1329.6,0.071751,656482,556508
1332.97,0.072791,654926,553862
1336.33,0.073717,653727,551670
1339.69,0.075479,652497,548402
1343.04,0.077517,649913,543674
1346.39,0.080061,647671,538634
1349.73,0.082342,645338,533882
1354.18,0.085179,641175,526984
1357.52,0.087634,638376,521726
1360.85,0.089560,635805,517326
1364.17,0.091667,633413,512885
1367.49,0.094752,631026,507335
1370.81,0.096972,628050,502368
1374.12,0.099578,625034,496965
1378.54,0.103086,620272,489211
1381.84,0.106712,616892,482500
1385.14,0.110734,613613,475511
1388.43,0.115917,611526,468272
1391.72,0.120787,610663,462397
1395.01,0.125958,610634,456902
1398.29,0.131811,611700,451573
1402.66,0.139684,614051,445164
1405.93,0.145782,616268,440542
1409.2,0.151843,617795,435513
1412.46,0.157479,618872,430647
1415.72,0.161910,619795,426912
1418.98,0.166571,620495,422831
1422.23,0.170591,621087,419335
1426.56,0.175046,621375,415248
1429.8,0.178051,621616,412545
1433.04,0.180633,622129,410438
1436.27,0.183288,621526,407541
1439.5,0.185427,621113,405269
1442.72,0.187747,620921,402985
1445.94,0.190472,620270,400045
1450.23,0.194344,618860,395593
1453.44,0.196794,617697,392628
1456.64,0.200281,616264,388585
1459.85,0.202732,614413,385237
1463.04,0.205700,612307,381302
1466.24,0.208743,610032,377233
1469.43,0.211515,607345,373182
1473.67,0.217340,603789,366054
1476.85,0.222739,601175,359966
1480.02,0.228059,597737,353550
1483.19,0.234727,594479,346266
1486.36,0.240343,591232,339950
1489.52,0.245065,587853,334352
1492.68,0.248218,583875,329687
1496.89,0.250526,578062,324675
1500.03,0.251031,574159,322108
1503.18,0.251231,570285,319787
1506.32,0.250779,565444,317403
1509.45,0.249082,560571,315899
1512.58,0.247803,555821,314146
1515.71,0.245608,550344,312627
1519.87,0.241889,543983,311671
1522.99,0.238965,538764,310766
1526.1,0.236564,533692,309547
1529.21,0.233569,527902,308308
1532.32,0.231002,521886,306601
1535.42,0.226992,515888,305889
1538.51,0.224428,509987,304180
1541.6,0.221601,503936,302534
1545.72,0.217499,494694,299804
1548.8,0.214001,488378,298370
1551.88,0.212199,481832,295595
1554.95,0.208618,474989,293809
1558.02,0.207341,467818,290226
1561.08,0.206104,460730,286644
1564.15,0.205434,454170,282999
1568.22,0.203432,444181,278053
1571.27,0.202905,436947,273857
1574.32,0.201964,429598,269835
1577.36,0.200628,422039,265904
1580.4,0.199101,414375,261995
1583.43,0.197728,406354,257737
1586.46,0.195323,398475,254143
1590.49,0.193477,388982,249145
1593.51,0.191061,380708,245206
1596.53,0.188395,372727,241544
1599.54,0.186532,365060,237592
1602.55,0.184370,357543,233861
1605.55,0.181893,349495,229905
1608.55,0.180106,341154,225343
1612.54,0.178485,330877,219372
1615.53,0.175463,322904,215581
1618.51,0.173811,315116,211183
1621.49,0.173388,307217,206090
1624.47,0.172103,299481,201496
1627.44,0.170863,292112,197100
1630.41,0.169752,284245,192283
1634.36,0.168669,274079,185869
1637.32,0.168355,266916,181142
1640.27,0.166715,259612,176852
1643.22,0.165678,251804,171943
1646.16,0.165370,244348,166970
1649.1,0.164654,236703,162013
1652.04,0.162759,228171,156856
1655.95,0.161342,215408,148566
1658.88,0.157565,204937,142579
1661.8,0.153750,193395,135736
1664.72,0.150231,179728,127170
1667.63,0.141255,163642,118206
1670.54,0.131005,146312,108212
1673.44,0.119599,128451,97530
1677.31,0.108305,105080,81887
1680.21,0.101661,88906,70351
1683.1,0.105816,75033,58808
1685.99,0.109500,63520,49364
1688.87,0.111015,53714,41598
1691.75,0.119240,45653,34692
1694.62,0.120387,39137,29662
1697.49,0.122392,33776,25481
1701.31,0.126158,28175,21072