File: samples/wool/wool-000811/Column 1_050596_20150331_122153.csv
Method:,Column 1,,
Host Date-Time:,31/3/15 @ 12:21:53,,
Header Version:,1,,
System Temp (C):,33.93,,
Detector Temp (C):,34.69,,
Humidity (%):,1.76,,
Lamp PD:,3819,,
Shift Vector Coefficients:,-10.5391,0.0761263,-0.000134223,,
Pixel to Wavelength Coefficients:,1775.68,-0.916766,-0.000235065,,
Serial Number:,5510004,,
Scan Config Name:,Column 1,,
Scan Config Type:,Slew,,
Section 1,,
Start wavelength (nm):,900,,
End wavelength (nm):,1700,,
Pattern Pixel Width (nm):,   7.03,,,,
Exposure (ms):,  0.635,,,,
Digital Resolution:,228,,
Num Repeats:,6,,
PGA Gain:,64,,
Total Measurement Time in sec:,  2.676,,
Wavelength (nm),Absorbance (AU),Reference Signal (unitless),Sample Signal (unitless)
901.51,0.070408,108485,92249
905.376,0.076143,121306,101798
909.237,0.078428,131909,110115
913.095,0.079872,143299,119226
916.948,0.078698,156982,130964
922.079,0.082272,179937,148884
925.923,0.082504,200504,165813
929.762,0.083762,222660,183603
933.597,0.082897,244426,201953
937.427,0.081924,263972,218592
941.254,0.081558,281845,233589
945.076,0.080289,297271,247095
950.165,0.079447,315605,262843
953.978,0.079165,328029,273368
957.786,0.078501,340470,284170
961.59,0.079548,352317,293350
965.389,0.078904,363056,302740
969.185,0.079168,373162,310978
972.976,0.079101,382632,318919
976.763,0.080006,391202,325383
981.806,0.080114,400190,332776
985.583,0.080928,406088,337048
989.355,0.081345,410162,340103
993.124,0.081714,412868,342056
996.888,0.082400,414263,342670
1000.65,0.082910,415476,343270
1004.4,0.084367,415479,342123
1009.41,0.085811,414358,340067
1013.15,0.085470,412923,339156
1016.89,0.086201,411526,337440
1020.63,0.086392,409066,335275
1024.36,0.086408,406777,333387
1028.09,0.086066,404427,331722
1031.82,0.085341,401911,330209
1036.78,0.085213,398410,327429
1040.49,0.085208,396204,325620
1044.2,0.084812,394236,324298
1047.91,0.084760,392042,322532
1051.61,0.084510,389823,320891
1055.31,0.084322,388234,319721
1059,0.083206,387599,320020
1063.92,0.083113,386688,319336
1067.61,0.082506,386598,319708
1071.29,0.081921,387377,320784
1074.96,0.081237,388536,322251
1078.63,0.080815,389855,323659
1082.3,0.079668,391215,325647
1085.96,0.078836,393215,327940
1090.84,0.077919,396270,331186
1094.49,0.077790,398760,333366
1098.14,0.077015,400987,335827
1101.79,0.075998,403477,338704
1105.43,0.076507,406116,340520
1109.06,0.076146,407701,342134
1112.7,0.075177,409859,344713
1117.53,0.075032,412494,347045
1121.15,0.075582,414909,348635
1124.77,0.075540,416559,350055
1128.38,0.076397,418532,351020
1131.99,0.077903,419956,350995
1135.6,0.078619,421946,352077
1139.2,0.080064,423881,352517
1143.99,0.082680,426786,352801
1147.58,0.083254,428617,353847
1151.17,0.084414,431169,355004
1154.75,0.084880,433579,356606
1158.33,0.085990,436264,357898
1161.91,0.087886,439132,358682
1165.48,0.090056,442389,359541
1169.04,0.092624,446101,360420
1173.79,0.095875,451929,362406
1177.34,0.098015,456026,363894
1180.9,0.100226,461306,366238
1184.44,0.101558,467657,370143
1187.99,0.102341,473969,374463
1191.52,0.102544,479856,378937
1195.06,0.102725,487372,384712
1199.76,0.102438,497347,392845
1203.29,0.101572,504311,399141
1206.81,0.100770,511507,405585
1210.33,0.100179,519078,412148
1213.84,0.100137,527163,418608
1217.35,0.099080,534208,425236
1220.85,0.098675,540472,430624
1225.51,0.097403,549929,439444
1229.01,0.097539,556888,444866
1232.5,0.096293,562180,450383
1235.98,0.095949,567975,455387
1239.46,0.095118,574815,461753
1242.94,0.094031,582782,469327
1246.41,0.093699,591476,476692
1251.03,0.093642,604016,486863
1254.5,0.093521,612289,493668
1257.96,0.094029,619125,498597
1261.41,0.094136,624551,502842
1264.86,0.094714,629900,506474
1268.31,0.095437,634345,509200
1271.75,0.096361,638574,511505
1276.33,0.096488,642499,514499
1279.76,0.096170,645905,517605
1283.19,0.095621,648307,520187
1286.61,0.095471,650446,522084
1290.03,0.095025,652132,523975
1293.44,0.094785,653907,525691
1296.85,0.094561,655963,527616
1301.39,0.093702,657349,529778
1304.8,0.094349,657558,529158
1308.19,0.094359,658515,529915
1311.58,0.094112,658804,530450
1314.97,0.094303,659011,530383
1318.36,0.095262,658272,528620
1321.73,0.095708,658022,527877
1326.23,0.096600,657870,526672
1329.6,0.097287,656482,524730
1332.97,0.098177,654926,522415
1336.33,0.099431,653727,519954
1339.69,0.100724,652497,517434
1343.04,0.102019,649913,513850
1346.39,0.104408,647671,509268
1349.73,0.105610,645338,506031
1354.18,0.108883,641175,498992
1357.52,0.110913,638376,494497
1360.85,0.113141,635805,489985
1364.17,0.114972,633413,486088
1367.49,0.117234,631026,481741
1370.81,0.119913,628050,476520
1374.12,0.121798,625034,472178
1378.54,0.124170,620272,466028
1381.84,0.127731,616892,459704
1385.14,0.131456,613613,453355
1388.43,0.134608,611526,448546
1391.72,0.138873,610663,443536
1395.01,0.143470,610634,438845
1398.29,0.148492,611700,434557
1402.66,0.154423,614051,430310
1405.93,0.159742,616268,426607
1409.2,0.164539,617795,422966
1412.46,0.169557,618872,418836
1415.72,0.173155,619795,416000
1418.98,0.176610,620495,413170
1422.23,0.180280,621087,410084
1426.56,0.184375,621375,406423
1429.8,0.187107,621616,404031
1433.04,0.189846,622129,401823
1436.27,0.191605,621526,399811
1439.5,0.193588,621113,397725
1442.72,0.196282,620921,395143
1445.94,0.198469,620270,392746
1450.23,0.201524,618860,389106
1453.44,0.204926,617697,385345
1456.64,0.207746,616264,381963
1459.85,0.210157,614413,378707
1463.04,0.212837,612307,375087
1466.24,0.215729,610032,371213
1469.43,0.219712,607345,366204
1473.67,0.225741,603789,359041
1476.85,0.231063,601175,353133
1480.02,0.236327,597737,346883
1483.19,0.242989,594479,339741
1486.36,0.248171,591232,333877
1489.52,0.252805,587853,328446
1492.68,0.256330,583875,323586
1496.89,0.258695,578062,318625
1500.03,0.259568,574159,315838
1503.18,0.259310,570285,313893
1506.32,0.258289,565444,311961
1509.45,0.256419,560571,310607
1512.58,0.254610,555821,309261
1515.71,0.252682,550344,307576
1519.87,0.250303,543983,305691
1522.99,0.247022,538764,305054
1526.1,0.244440,533692,303984
1529.21,0.242342,527902,302142
1532.32,0.238307,521886,301487
1535.42,0.236347,515888,299370
1538.51,0.233516,509987,297881
1541.6,0.230422,503936,296451
1545.72,0.226215,494694,293847
1548.8,0.223957,488378,291608
1551.88,0.221993,481832,289003
1554.95,0.219329,474989,286652
1558.02,0.218042,467818,283162
1561.08,0.217003,460730,279540
1564.15,0.216612,454170,275808
1568.22,0.215112,444181,270675
1571.27,0.214113,436947,266880
1574.32,0.213379,429598,262835
1577.36,0.211860,422039,259115
1580.4,0.211303,414375,254736
1583.43,0.209726,406354,250714
1586.46,0.208260,398475,246684
1590.49,0.206344,388982,241872
1593.51,0.204070,380708,237970
1596.53,0.202138,372727,234020
1599.54,0.200197,365060,230233
1602.55,0.198354,357543,226451
1605.55,0.196697,349495,222200
1608.55,0.194124,341154,218186
1612.54,0.192809,330877,212255
1615.53,0.190026,322904,208472
1618.51,0.190444,315116,203248
1621.49,0.189700,307217,198493
1624.47,0.187251,299481,194589
1627.44,0.187045,292112,189891
1630.41,0.186127,284245,185168
1634.36,0.184732,274079,179120
1637.32,0.183985,266916,174739
1640.27,0.182794,259612,170424
1643.22,0.181104,251804,165943
1646.16,0.180380,244348,161298
1649.1,0.179928,236703,156414
1652.04,0.179410,228171,150956
1655.95,0.176080,215408,143609
1658.88,0.172554,204937,137742
1661.8,0.166718,193395,131743
1664.72,0.159279,179728,124548
1667.63,0.148248,163642,116318
1670.54,0.133880,146312,107498
1673.44,0.117684,128451,97961
1677.31,0.098795,105080,83700
1680.21,0.084586,88906,73172
1683.1,0.083064,75033,61971
1685.99,0.082189,63520,52568
1688.87,0.084931,53714,44173
1691.75,0.089335,45653,37165
1694.62,0.095105,39137,31440
1697.49,0.103988,33776,26584
1701.31,0.102475,28175,22253