File: samples/wool/wool-000811/Column 1_050574_20150331_121106.csv
Method:,Column 1,,
Host Date-Time:,31/3/15 @ 12:11:6,,
Header Version:,1,,
System Temp (C):,34.17,,
Detector Temp (C):,34.36,,
Humidity (%):,1.66,,
Lamp PD:,3818,,
Shift Vector Coefficients:,-10.5391,0.0761263,-0.000134223,,
Pixel to Wavelength Coefficients:,1775.68,-0.916766,-0.000235065,,
Serial Number:,5510004,,
Scan Config Name:,Column 1,,
Scan Config Type:,Slew,,
Section 1,,
Start wavelength (nm):,900,,
End wavelength (nm):,1700,,
Pattern Pixel Width (nm):,   7.03,,,,
Exposure (ms):,  0.635,,,,
Digital Resolution:,228,,
Num Repeats:,6,,
PGA Gain:,64,,
Total Measurement Time in sec:,  2.726,,
Wavelength (nm),Absorbance (AU),Reference Signal (unitless),Sample Signal (unitless)
901.51,0.036287,108485,99789
905.376,0.040135,121306,110598
909.237,0.043016,131909,119470
913.095,0.045182,143299,129140
916.948,0.047173,156982,140824
922.079,0.047707,179937,161218
925.923,0.048543,200504,179300
929.762,0.049433,222660,198705
933.597,0.049317,244426,218188
937.427,0.049176,263972,235712
941.254,0.048811,281845,251883
945.076,0.047640,297271,266387
950.165,0.047043,315605,283205
953.978,0.045908,328029,295124
957.786,0.046145,340470,306150
961.59,0.047365,352317,315914
965.389,0.047208,363056,325661
969.185,0.047479,373162,334517
972.976,0.047148,382632,343268
976.763,0.047849,391202,350390
981.806,0.048473,400190,357926
985.583,0.048956,406088,362797
989.355,0.049462,410162,366010
993.124,0.050334,412868,367686
996.888,0.050975,414263,368384
1000.65,0.051288,415476,369197
1004.4,0.053070,415479,367688
1009.41,0.055716,414358,364468
1013.15,0.054579,412923,364158
1016.89,0.054874,411526,362680
1020.63,0.055057,409066,360360
1024.36,0.054786,406777,358567
1028.09,0.054273,404427,356917
1031.82,0.054629,401911,354406
1036.78,0.053888,398410,351919
1040.49,0.053616,396204,350189
1044.2,0.053931,394236,348197
1047.91,0.053211,392042,346834
1051.61,0.052486,389823,345447
1055.31,0.052038,388234,344394
1059,0.051653,387599,344136
1063.92,0.050294,386688,344403
1067.61,0.049695,386598,344798
1071.29,0.049213,387377,345876
1074.96,0.048883,388536,347175
1078.63,0.048196,389855,348905
1082.3,0.047184,391215,350939
1085.96,0.046709,393215,353119
1090.84,0.045846,396270,356570
1094.49,0.045929,398760,358742
1098.14,0.045096,400987,361438
1101.79,0.044562,403477,364130
1105.43,0.044449,406116,366607
1109.06,0.044253,407701,368204
1112.7,0.044522,409859,369924
1117.53,0.043927,412494,372813
1121.15,0.044965,414909,374100
1124.77,0.045602,416559,375037
1128.38,0.046936,418532,375658
1131.99,0.048010,419956,376005
1135.6,0.049954,421946,376100
1139.2,0.051537,423881,376450
1143.99,0.054031,426786,376859
1147.58,0.054990,428617,377641
1151.17,0.056330,431169,378719
1154.75,0.057264,433579,380018
1158.33,0.058945,436264,380894
1161.91,0.061104,439132,381497
1165.48,0.063168,442389,382504
1169.04,0.065985,446101,383220
1173.79,0.069896,451929,384746
1177.34,0.072041,456026,386321
1180.9,0.074435,461306,388646
1184.44,0.076467,467657,392157
1187.99,0.077595,473969,396419
1191.52,0.077244,479856,401668
1195.06,0.076764,487372,408410
1199.76,0.075908,497347,417591
1203.29,0.074904,504311,424419
1206.81,0.073941,511507,431430
1210.33,0.073432,519078,438329
1213.84,0.072901,527163,445701
1217.35,0.072023,534208,452572
1220.85,0.070955,540472,459006
1225.51,0.070418,549929,467615
1229.01,0.069739,556888,474273
1232.5,0.069162,562180,479417
1235.98,0.068400,567975,485209
1239.46,0.067330,574815,492264
1242.94,0.066435,582782,500116
1246.41,0.065965,591476,508127
1251.03,0.065776,604016,519126
1254.5,0.065792,612289,526217
1257.96,0.066198,619125,531594
1261.41,0.066889,624551,535401
1264.86,0.067346,629900,539418
1268.31,0.067987,634345,542424
1271.75,0.068583,638574,545291
1276.33,0.069424,642499,547581
1279.76,0.069008,645905,551011
1283.19,0.068580,648307,553606
1286.61,0.067798,650446,556434
1290.03,0.067530,652132,558220
1293.44,0.067350,653907,559972
1296.85,0.066748,655963,562511
1301.39,0.066415,657349,564132
1304.8,0.066392,657558,564341
1308.19,0.066876,658515,564533
1311.58,0.067141,658804,564437
1314.97,0.067537,659011,564100
1318.36,0.067821,658272,563099
1321.73,0.068292,658022,562275
1326.23,0.069472,657870,560619
1329.6,0.069993,656482,558766
1332.97,0.070850,654926,556343
1336.33,0.072065,653727,553772
1339.69,0.073920,652497,550375
1343.04,0.075216,649913,546562
1346.39,0.077803,647671,541441
1349.73,0.079814,645338,536999
1354.18,0.083068,641175,529552
1357.52,0.085192,638376,524668
1360.85,0.087465,635805,519827
1364.17,0.089485,633413,515468
1367.49,0.092208,631026,510316
1370.81,0.094364,628050,505394
1374.12,0.096868,625034,500076
1378.54,0.100366,620272,492284
1381.84,0.103433,616892,486157
1385.14,0.107237,613613,479355
1388.43,0.111138,611526,473453
1391.72,0.116246,610663,467257
1395.01,0.121099,610634,462043
1398.29,0.125928,611700,457731
1402.66,0.132618,614051,452467
1405.93,0.138208,616268,448293
1409.2,0.143305,617795,444160
1412.46,0.148276,618872,439870
1415.72,0.152915,619795,435846
1418.98,0.157079,620495,432175
1422.23,0.160661,621087,429034
1426.56,0.164814,621375,425148
1429.8,0.167609,621616,422584
1433.04,0.170221,622129,420397
1436.27,0.172272,621526,418011
1439.5,0.175081,621113,415040
1442.72,0.177185,620921,412906
1445.94,0.179209,620270,410555
1450.23,0.183348,618860,405737
1453.44,0.186584,617697,401968
1456.64,0.189600,616264,398260
1459.85,0.191955,614413,394917
1463.04,0.195574,612307,390297
1466.24,0.198706,610032,386053
1469.43,0.202325,607345,381163
1473.67,0.209087,603789,373077
1476.85,0.214625,601175,366755
1480.02,0.220933,597737,359399
1483.19,0.228413,594479,351337
1486.36,0.234341,591232,344681
1489.52,0.239666,587853,338534
1492.68,0.243270,583875,333465
1496.89,0.246291,578062,327856
1500.03,0.247158,574159,324993
1503.18,0.246848,570285,323031
1506.32,0.246121,565444,320825
1509.45,0.244437,560571,319296
1512.58,0.243046,555821,317606
1515.71,0.240322,550344,316455
1519.87,0.237352,543983,314944
1522.99,0.234723,538764,313816
1526.1,0.231578,533692,313121
1529.21,0.228285,527902,312082
1532.32,0.225739,521886,310339
1535.42,0.222378,515888,309156
1538.51,0.219346,509987,307761
1541.6,0.216741,503936,305939
1545.72,0.211669,494694,303856
1548.8,0.209260,488378,301645
1551.88,0.205627,481832,300102
1554.95,0.204070,474989,296902
1558.02,0.202052,467818,293782
1561.08,0.201183,460730,289910
1564.15,0.200121,454170,286482
1568.22,0.199372,444181,280665
1571.27,0.198595,436947,276588
1574.32,0.197661,429598,272522
1577.36,0.195935,422039,268793
1580.4,0.195117,414375,264409
1583.43,0.192860,406354,260642
1586.46,0.191153,398475,256595
1590.49,0.187942,388982,252341
1593.51,0.187392,380708,247286
1596.53,0.184835,372727,243532
1599.54,0.182850,365060,239615
1602.55,0.180797,357543,235793
1605.55,0.177818,349495,232072
1608.55,0.175383,341154,227807
1612.54,0.174328,330877,221482
1615.53,0.171482,322904,217566
1618.51,0.170885,315116,212611
1621.49,0.169735,307217,207831
1624.47,0.167897,299481,203457
1627.44,0.165746,292112,199436
1630.41,0.165350,284245,194242
1634.36,0.164504,274079,187660
1637.32,0.162571,266916,183571
1640.27,0.162541,259612,178560
1643.22,0.161553,251804,173584
1646.16,0.160433,244348,168879
1649.1,0.160768,236703,163469
1652.04,0.158215,228171,158506
1655.95,0.155275,215408,150656
1658.88,0.152384,204937,144290
1661.8,0.147530,193395,137694
1664.72,0.140723,179728,129985
1667.63,0.129251,163642,121519
1670.54,0.118465,146312,111382
1673.44,0.103162,128451,101292
1677.31,0.085062,105080,86389
1680.21,0.073893,88906,74996
1683.1,0.071011,75033,63715
1685.99,0.079053,63520,52949
1688.87,0.082089,53714,44463
1691.75,0.084825,45653,37553
1694.62,0.094732,39137,31467
1697.49,0.092843,33776,27275
1701.31,0.102378,28175,22258