File: samples/wool/wool-000811/Column 1_050583_20150331_121545.csv
Method:,Column 1,,
Host Date-Time:,31/3/15 @ 12:15:45,,
Header Version:,1,,
System Temp (C):,33.76,,
Detector Temp (C):,34.48,,
Humidity (%):,1.86,,
Lamp PD:,3819,,
Shift Vector Coefficients:,-10.5391,0.0761263,-0.000134223,,
Pixel to Wavelength Coefficients:,1775.68,-0.916766,-0.000235065,,
Serial Number:,5510004,,
Scan Config Name:,Column 1,,
Scan Config Type:,Slew,,
Section 1,,
Start wavelength (nm):,900,,
End wavelength (nm):,1700,,
Pattern Pixel Width (nm):,   7.03,,,,
Exposure (ms):,  0.635,,,,
Digital Resolution:,228,,
Num Repeats:,6,,
PGA Gain:,64,,
Total Measurement Time in sec:,  2.673,,
Wavelength (nm),Absorbance (AU),Reference Signal (unitless),Sample Signal (unitless)
901.51,0.071119,108485,92098
905.376,0.076976,121306,101603
909.237,0.078412,131909,110119
913.095,0.081547,143299,118767
916.948,0.079940,156982,130590
922.079,0.082520,179937,148799
925.923,0.083244,200504,165531
929.762,0.084425,222660,183323
933.597,0.084069,244426,201409
937.427,0.082703,263972,218200
941.254,0.081625,281845,233553
945.076,0.081052,297271,246661
950.165,0.079953,315605,262537
953.978,0.080366,328029,272613
957.786,0.080481,340470,282877
961.59,0.080294,352317,292846
965.389,0.079310,363056,302457
969.185,0.079270,373162,310905
972.976,0.080545,382632,317860
976.763,0.080982,391202,324653
981.806,0.081102,400190,332020
985.583,0.081822,406088,336355
989.355,0.082328,410162,339334
993.124,0.082688,412868,341290
996.888,0.083574,414263,341745
1000.65,0.084104,415476,342328
1004.4,0.085245,415479,341432
1009.41,0.086108,414358,339835
1013.15,0.086473,412923,338373
1016.89,0.087140,411526,336711
1020.63,0.086953,409066,334842
1024.36,0.087398,406777,332628
1028.09,0.086881,404427,331100
1031.82,0.087178,401911,328815
1036.78,0.086778,398410,326251
1040.49,0.086348,396204,324766
1044.2,0.086703,394236,322889
1047.91,0.086296,392042,321393
1051.61,0.085916,389823,319854
1055.31,0.085069,388234,319172
1059,0.084868,387599,318797
1063.92,0.083868,386688,318781
1067.61,0.083737,386598,318803
1071.29,0.083221,387377,319825
1074.96,0.082088,388536,321620
1078.63,0.082036,389855,322751
1082.3,0.081268,391215,324450
1085.96,0.080497,393215,326688
1090.84,0.079835,396270,329728
1094.49,0.079036,398760,332411
1098.14,0.078310,400987,334827
1101.79,0.077872,403477,337246
1105.43,0.077905,406116,339426
1109.06,0.076993,407701,341467
1112.7,0.076196,409859,343905
1117.53,0.076020,412494,346256
1121.15,0.077128,414909,347396
1124.77,0.076939,416559,348929
1128.38,0.078533,418532,349298
1131.99,0.078957,419956,350144
1135.6,0.080573,421946,350497
1139.2,0.081866,423881,351057
1143.99,0.084032,426786,351705
1147.58,0.084431,428617,352889
1151.17,0.085773,431169,353895
1154.75,0.086972,433579,354892
1158.33,0.088659,436264,355705
1161.91,0.090449,439132,356571
1165.48,0.092215,442389,357758
1169.04,0.093877,446101,359382
1173.79,0.097644,451929,360933
1177.34,0.099549,456026,362611
1180.9,0.102050,461306,364703
1184.44,0.103571,467657,368431
1187.99,0.104723,473969,372415
1191.52,0.104643,479856,377110
1195.06,0.104658,487372,383003
1199.76,0.103143,497347,392208
1203.29,0.103300,504311,397556
1206.81,0.103102,511507,403413
1210.33,0.102479,519078,409971
1213.84,0.101687,527163,417117
1217.35,0.101324,534208,423045
1220.85,0.100117,540472,429197
1225.51,0.099572,549929,437255
1229.01,0.098673,556888,443706
1232.5,0.098400,562180,448204
1235.98,0.097947,567975,453296
1239.46,0.097125,574815,459624
1242.94,0.095495,582782,467747
1246.41,0.095146,591476,475107
1251.03,0.094805,604016,485561
1254.5,0.095484,612289,491442
1257.96,0.095703,619125,496678
1261.41,0.096355,624551,500280
1264.86,0.096367,629900,504550
1268.31,0.097501,634345,506786
1271.75,0.097970,638574,509614
1276.33,0.098113,642499,512577
1279.76,0.097969,645905,515465
1283.19,0.097625,648307,517792
1286.61,0.097192,650446,520019
1290.03,0.096900,652132,521718
1293.44,0.096619,653907,523476
1296.85,0.096586,655963,525162
1301.39,0.095743,657349,527294
1304.8,0.096181,657558,526930
1308.19,0.096100,658515,527795
1311.58,0.096414,658804,527646
1314.97,0.096682,659011,527486
1318.36,0.097170,658272,526302
1321.73,0.097881,658022,525242
1326.23,0.098820,657870,523986
1329.6,0.099976,656482,521491
1332.97,0.100671,654926,519423
1336.33,0.101365,653727,517644
1339.69,0.103181,652497,514514
1343.04,0.104744,649913,510636
1346.39,0.106533,647671,506782
1349.73,0.109130,645338,501946
1354.18,0.111915,641175,495520
1357.52,0.113815,638376,491204
1360.85,0.115855,635805,486933
1364.17,0.118022,633413,482686
1367.49,0.120119,631026,478551
1370.81,0.121986,628050,474251
1374.12,0.124727,625034,469004
1378.54,0.127728,620272,462226
1381.84,0.130858,616892,456406
1385.14,0.134553,613613,450134
1388.43,0.138836,611526,444200
1391.72,0.143410,610663,438926
1395.01,0.147891,610634,434400
1398.29,0.153386,611700,429687
1402.66,0.160657,614051,424177
1405.93,0.166563,616268,419959
1409.2,0.171939,617795,415820
1412.46,0.176233,618872,412447
1415.72,0.181596,619795,407992
1418.98,0.185275,620495,405008
1422.23,0.188869,621087,402053
1426.56,0.192451,621375,398936
1429.8,0.195835,621616,395993
1433.04,0.198556,622129,393844
1436.27,0.200898,621526,391346
1439.5,0.202924,621113,389266
1442.72,0.204982,620921,387306
1445.94,0.207718,620270,384470
1450.23,0.210778,618860,380903
1453.44,0.213225,617697,378051
1456.64,0.215891,616264,374866
1459.85,0.218211,614413,371749
1463.04,0.221082,612307,368033
1466.24,0.224248,610032,364003
1469.43,0.227069,607345,360053
1473.67,0.232715,603789,353322
1476.85,0.237232,601175,348152
1480.02,0.242620,597737,341893
1483.19,0.248127,594479,335745
1486.36,0.252995,591232,330189
1489.52,0.258284,587853,324328
1492.68,0.260873,583875,320219
1496.89,0.262959,578062,315512
1500.03,0.263137,574159,313253
1503.18,0.263191,570285,311101
1506.32,0.261869,565444,309400
1509.45,0.261613,560571,306915
1512.58,0.258927,555821,306202
1515.71,0.257518,550344,304170
1519.87,0.254450,543983,302786
1522.99,0.251989,538764,301585
1526.1,0.249521,533692,300448
1529.21,0.247004,527902,298916
1532.32,0.243953,521886,297593
1535.42,0.242288,515888,295303
1538.51,0.238021,509987,294807
1541.6,0.235126,503936,293258
1545.72,0.231095,494694,290564
1548.8,0.228925,488378,288291
1551.88,0.226738,481832,285863
1554.95,0.223818,474989,283704
1558.02,0.223100,467818,279883
1561.08,0.221288,460730,276795
1564.15,0.220940,454170,273073
1568.22,0.219377,444181,268030
1571.27,0.219464,436947,263612
1574.32,0.217515,429598,260344
1577.36,0.216795,422039,256187
1580.4,0.215218,414375,252450
1583.43,0.213592,406354,248492
1586.46,0.212113,398475,244505
1590.49,0.210258,388982,239702
1593.51,0.208450,380708,235582
1596.53,0.205759,372727,232077
1599.54,0.204028,365060,228211
1602.55,0.202139,357543,224486
1605.55,0.200243,349495,220393
1608.55,0.198748,341154,215875
1612.54,0.196344,330877,210534
1615.53,0.194608,322904,206284
1618.51,0.193429,315116,201856
1621.49,0.192371,307217,197276
1624.47,0.191765,299481,192577
1627.44,0.190771,292112,188269
1630.41,0.189702,284245,183650
1634.36,0.188477,274079,177582
1637.32,0.187807,266916,173208
1640.27,0.186143,259612,169115
1643.22,0.185037,251804,164447
1646.16,0.185158,244348,159533
1649.1,0.184136,236703,154906
1652.04,0.183181,228171,149651
1655.95,0.179999,215408,142319
1658.88,0.175100,204937,136937
1661.8,0.170718,193395,130535
1664.72,0.162615,179728,123595
1667.63,0.150498,163642,115717
1670.54,0.137535,146312,106597
1673.44,0.122979,128451,96774
1677.31,0.103290,105080,82838
1680.21,0.091189,88906,72068
1683.1,0.088231,75033,61238
1685.99,0.087484,63520,51931
1688.87,0.086161,53714,44048
1691.75,0.094425,45653,36732
1694.62,0.096794,39137,31318
1697.49,0.102699,33776,26663
1701.31,0.108647,28175,21939