File: samples/wool/wool-000811/Column 1_050568_20150331_120832.csv
Method:,Column 1,,
Host Date-Time:,31/3/15 @ 12:8:32,,
Header Version:,1,,
System Temp (C):,34.01,,
Detector Temp (C):,33.99,,
Humidity (%):,1.76,,
Lamp PD:,3818,,
Shift Vector Coefficients:,-10.5391,0.0761263,-0.000134223,,
Pixel to Wavelength Coefficients:,1775.68,-0.916766,-0.000235065,,
Serial Number:,5510004,,
Scan Config Name:,Column 1,,
Scan Config Type:,Slew,,
Section 1,,
Start wavelength (nm):,900,,
End wavelength (nm):,1700,,
Pattern Pixel Width (nm):,   7.03,,,,
Exposure (ms):,  0.635,,,,
Digital Resolution:,228,,
Num Repeats:,6,,
PGA Gain:,64,,
Total Measurement Time in sec:,  2.677,,
Wavelength (nm),Absorbance (AU),Reference Signal (unitless),Sample Signal (unitless)
901.51,0.033312,108485,100475
905.376,0.040178,121306,110587
909.237,0.042111,131909,119719
913.095,0.043688,143299,129585
916.948,0.046366,156982,141086
922.079,0.048392,179937,160964
925.923,0.048216,200504,179435
929.762,0.048743,222660,199021
933.597,0.048662,244426,218517
937.427,0.048272,263972,236203
941.254,0.047787,281845,252478
945.076,0.047892,297271,266232
950.165,0.046974,315605,283250
953.978,0.045852,328029,295162
957.786,0.047042,340470,305518
961.59,0.047023,352317,316163
965.389,0.047549,363056,325405
969.185,0.047122,373162,334792
972.976,0.047799,382632,342754
976.763,0.047986,391202,350280
981.806,0.048942,400190,357540
985.583,0.049299,406088,362511
989.355,0.049709,410162,365802
993.124,0.050563,412868,367492
996.888,0.050602,414263,368701
1000.65,0.051799,415476,368763
1004.4,0.052983,415479,367761
1009.41,0.054589,414358,365415
1013.15,0.054623,412923,364121
1016.89,0.055660,411526,362024
1020.63,0.054911,409066,360481
1024.36,0.055056,406777,358344
1028.09,0.054787,404427,356495
1031.82,0.054613,401911,354419
1036.78,0.054448,398410,351465
1040.49,0.053907,396204,349955
1044.2,0.053617,394236,348449
1047.91,0.053173,392042,346864
1051.61,0.052921,389823,345101
1055.31,0.051933,388234,344477
1059,0.051669,387599,344123
1063.92,0.051121,386688,343748
1067.61,0.049842,386598,344681
1071.29,0.049152,387377,345925
1074.96,0.048710,388536,347313
1078.63,0.047836,389855,349194
1082.3,0.047540,391215,350651
1085.96,0.046830,393215,353021
1090.84,0.046172,396270,356303
1094.49,0.045666,398760,358960
1098.14,0.045239,400987,361319
1101.79,0.044299,403477,364351
1105.43,0.045249,406116,365933
1109.06,0.044096,407701,368337
1112.7,0.044666,409859,369801
1117.53,0.043988,412494,372760
1121.15,0.045545,414909,373601
1124.77,0.045715,416559,374940
1128.38,0.047001,418532,375602
1131.99,0.048506,419956,375576
1135.6,0.050053,421946,376014
1139.2,0.051602,423881,376393
1143.99,0.054188,426786,376723
1147.58,0.055471,428617,377223
1151.17,0.056368,431169,378686
1154.75,0.058146,433579,379247
1158.33,0.059465,436264,380438
1161.91,0.061351,439132,381280
1165.48,0.063989,442389,381782
1169.04,0.066622,446101,382658
1173.79,0.070551,451929,384166
1177.34,0.071972,456026,386383
1180.9,0.074616,461306,388484
1184.44,0.076737,467657,391914
1187.99,0.077934,473969,396110
1191.52,0.077242,479856,401670
1195.06,0.077029,487372,408161
1199.76,0.076503,497347,417020
1203.29,0.074948,504311,424376
1206.81,0.074415,511507,430960
1210.33,0.073562,519078,438198
1213.84,0.072817,527163,445788
1217.35,0.072328,534208,452254
1220.85,0.071288,540472,458654
1225.51,0.070485,549929,467543
1229.01,0.069843,556888,474160
1232.5,0.069217,562180,479356
1235.98,0.068559,567975,485032
1239.46,0.067629,574815,491925
1242.94,0.066671,582782,499845
1246.41,0.066236,591476,507810
1251.03,0.065609,604016,519325
1254.5,0.065994,612289,525972
1257.96,0.066621,619125,531077
1261.41,0.066978,624551,535291
1264.86,0.067798,629900,538857
1268.31,0.068430,634345,541871
1271.75,0.069051,638574,544703
1276.33,0.069115,642499,547971
1279.76,0.069293,645905,550650
1283.19,0.068732,648307,553412
1286.61,0.068369,650446,555702
1290.03,0.068079,652132,557515
1293.44,0.067295,653907,560043
1296.85,0.067577,655963,561439
1301.39,0.067214,657349,563095
1304.8,0.066787,657558,563828
1308.19,0.067209,658515,564101
1311.58,0.067435,658804,564055
1314.97,0.067724,659011,563857
1318.36,0.068613,658272,562073
1321.73,0.068897,658022,561492
1326.23,0.069819,657870,560171
1329.6,0.070521,656482,558087
1332.97,0.071549,654926,555448
1336.33,0.072570,653727,553129
1339.69,0.074446,652497,549708
1343.04,0.075992,649913,545586
1346.39,0.078299,647671,540823
1349.73,0.080230,645338,536484
1354.18,0.083474,641175,529057
1357.52,0.086101,638376,523571
1360.85,0.087932,635805,519268
1364.17,0.090404,633413,514379
1367.49,0.092657,631026,509789
1370.81,0.095380,628050,504213
1374.12,0.097573,625034,499264
1378.54,0.101168,620272,491376
1381.84,0.104283,616892,485206
1385.14,0.107993,613613,478522
1388.43,0.112172,611526,472327
1391.72,0.117324,610663,466098
1395.01,0.121981,610634,461105
1398.29,0.127564,611700,456010
1402.66,0.134124,614051,450900
1405.93,0.140069,616268,446376
1409.2,0.145712,617795,441705
1412.46,0.150115,618872,438012
1415.72,0.154598,619795,434160
1418.98,0.158858,620495,430408
1422.23,0.162649,621087,427074
1426.56,0.166765,621375,423242
1429.8,0.169299,621616,420943
1433.04,0.171794,622129,418877
1436.27,0.174924,621526,415466
1439.5,0.176904,621113,413301
1442.72,0.179416,620921,410790
1445.94,0.181947,620270,407975
1450.23,0.185562,618860,403674
1453.44,0.188705,617697,400010
1456.64,0.191331,616264,396676
1459.85,0.194510,614413,392600
1463.04,0.197692,612307,388398
1466.24,0.200587,610032,384384
1469.43,0.204974,607345,378845
1473.67,0.210306,603789,372031
1476.85,0.216712,601175,364997
1480.02,0.222529,597737,358081
1483.19,0.229563,594479,350408
1486.36,0.235532,591232,343737
1489.52,0.240533,587853,337859
1492.68,0.244156,583875,332785
1496.89,0.247259,578062,327126
1500.03,0.247321,574159,324871
1503.18,0.247749,570285,322361
1506.32,0.246734,565444,320373
1509.45,0.245362,560571,318617
1512.58,0.244116,555821,316825
1515.71,0.241537,550344,315571
1519.87,0.238845,543983,313863
1522.99,0.235453,538764,313289
1526.1,0.232659,533692,312343
1529.21,0.230079,527902,310795
1532.32,0.226376,521886,309884
1535.42,0.224146,515888,307900
1538.51,0.220333,509987,307062
1541.6,0.216593,503936,306043
1545.72,0.212387,494694,303354
1548.8,0.209531,488378,301457
1551.88,0.207207,481832,299012
1554.95,0.205232,474989,296109
1558.02,0.202766,467818,293299
1561.08,0.201724,460730,289549
1564.15,0.201146,454170,285807
1568.22,0.199677,444181,280468
1571.27,0.198818,436947,276446
1574.32,0.198369,429598,272078
1577.36,0.196886,422039,268205
1580.4,0.195512,414375,264169
1583.43,0.193612,406354,260191
1586.46,0.192219,398475,255966
1590.49,0.190337,388982,250953
1593.51,0.187776,380708,247068
1596.53,0.185256,372727,243296
1599.54,0.183705,365060,239144
1602.55,0.180562,357543,235921
1605.55,0.178958,349495,231464
1608.55,0.176317,341154,227318
1612.54,0.174703,330877,221291
1615.53,0.172048,322904,217283
1618.51,0.172114,315116,212010
1621.49,0.170926,307217,207262
1624.47,0.168245,299481,203294
1627.44,0.166921,292112,198897
1630.41,0.165555,284245,194150
1634.36,0.165183,274079,187367
1637.32,0.164631,266916,182702
1640.27,0.163612,259612,178120
1643.22,0.161946,251804,173427
1646.16,0.161131,244348,168608
1649.1,0.160633,236703,163520
1652.04,0.159282,228171,158117
1655.95,0.157040,215408,150045
1658.88,0.153225,204937,144011
1661.8,0.150604,193395,136723
1664.72,0.143215,179728,129241
1667.63,0.132576,163642,120592
1670.54,0.119695,146312,111067
1673.44,0.104554,128451,100968
1677.31,0.087436,105080,85918
1680.21,0.080575,88906,73851
1683.1,0.080980,75033,62269
1685.99,0.077669,63520,53118
1688.87,0.083116,53714,44358
1691.75,0.091185,45653,37007
1694.62,0.093107,39137,31585
1697.49,0.096104,33776,27071
1701.31,0.099655,28175,22398