File: samples/wool/wool-000811/Column 1_050586_20150331_121708.csv
Method:,Column 1,,
Host Date-Time:,31/3/15 @ 12:17:8,,
Header Version:,1,,
System Temp (C):,33.81,,
Detector Temp (C):,34.53,,
Humidity (%):,1.86,,
Lamp PD:,3818,,
Shift Vector Coefficients:,-10.5391,0.0761263,-0.000134223,,
Pixel to Wavelength Coefficients:,1775.68,-0.916766,-0.000235065,,
Serial Number:,5510004,,
Scan Config Name:,Column 1,,
Scan Config Type:,Slew,,
Section 1,,
Start wavelength (nm):,900,,
End wavelength (nm):,1700,,
Pattern Pixel Width (nm):,   7.03,,,,
Exposure (ms):,  0.635,,,,
Digital Resolution:,228,,
Num Repeats:,6,,
PGA Gain:,64,,
Total Measurement Time in sec:,  2.676,,
Wavelength (nm),Absorbance (AU),Reference Signal (unitless),Sample Signal (unitless)
901.51,0.070766,108485,92173
905.376,0.076160,121306,101794
909.237,0.079672,131909,109800
913.095,0.080842,143299,118960
916.948,0.080409,156982,130449
922.079,0.082051,179937,148960
925.923,0.083375,200504,165481
929.762,0.084257,222660,183394
933.597,0.083864,244426,201504
937.427,0.082848,263972,218127
941.254,0.082955,281845,232839
945.076,0.081189,297271,246583
950.165,0.079646,315605,262723
953.978,0.079136,328029,273386
957.786,0.079267,340470,283669
961.59,0.079805,352317,293176
965.389,0.079814,363056,302106
969.185,0.080072,373162,310331
972.976,0.079846,382632,318372
976.763,0.080305,391202,325159
981.806,0.081075,400190,332041
985.583,0.081416,406088,336670
989.355,0.082446,410162,339242
993.124,0.082610,412868,341351
996.888,0.083510,414263,341795
1000.65,0.083876,415476,342507
1004.4,0.084692,415479,341867
1009.41,0.086090,414358,339849
1013.15,0.086391,412923,338437
1016.89,0.086738,411526,337023
1020.63,0.087291,409066,334582
1024.36,0.086111,406777,333615
1028.09,0.086507,404427,331385
1031.82,0.086475,401911,329348
1036.78,0.085987,398410,326846
1040.49,0.085967,396204,325051
1044.2,0.086258,394236,323220
1047.91,0.086049,392042,321576
1051.61,0.085339,389823,320279
1055.31,0.085406,388234,318924
1059,0.084361,387599,319170
1063.92,0.083204,386688,319269
1067.61,0.083235,386598,319172
1071.29,0.083272,387377,319788
1074.96,0.082349,388536,321427
1078.63,0.081816,389855,322914
1082.3,0.080997,391215,324652
1085.96,0.080337,393215,326808
1090.84,0.079347,396270,330099
1094.49,0.079313,398760,332199
1098.14,0.078447,400987,334721
1101.79,0.078030,403477,337123
1105.43,0.077241,406116,339945
1109.06,0.076887,407701,341550
1112.7,0.076533,409859,343638
1117.53,0.076232,412494,346087
1121.15,0.076999,414909,347499
1124.77,0.077054,416559,348837
1128.38,0.077759,418532,349921
1131.99,0.078692,419956,350358
1135.6,0.079718,421946,351187
1139.2,0.081487,423881,351364
1143.99,0.083076,426786,352480
1147.58,0.084445,428617,352878
1151.17,0.085623,431169,354017
1154.75,0.086495,433579,355282
1158.33,0.087903,436264,356325
1161.91,0.089528,439132,357328
1165.48,0.091989,442389,357944
1169.04,0.094094,446101,359202
1173.79,0.097432,451929,361109
1177.34,0.099334,456026,362790
1180.9,0.101085,461306,365514
1184.44,0.103107,467657,368825
1187.99,0.104542,473969,372570
1191.52,0.104002,479856,377667
1195.06,0.104156,487372,383446
1199.76,0.103602,497347,391794
1203.29,0.102651,504311,398151
1206.81,0.102030,511507,404410
1210.33,0.101687,519078,410720
1213.84,0.100850,527163,417922
1217.35,0.100415,534208,423931
1220.85,0.099589,540472,429719
1225.51,0.098735,549929,438098
1229.01,0.098805,556888,443571
1232.5,0.097764,562180,448861
1235.98,0.097653,567975,453603
1239.46,0.096445,574815,460345
1242.94,0.095601,582782,467633
1246.41,0.094551,591476,475758
1251.03,0.094926,604016,485425
1254.5,0.094967,612289,492028
1257.96,0.095272,619125,497172
1261.41,0.095858,624551,500852
1264.86,0.096299,629900,504630
1268.31,0.097026,634345,507340
1271.75,0.097931,638574,509660
1276.33,0.098216,642499,512456
1279.76,0.097574,645905,515934
1283.19,0.096869,648307,518694
1286.61,0.097147,650446,520073
1290.03,0.096410,652132,522306
1293.44,0.096001,653907,524222
1296.85,0.096068,655963,525789
1301.39,0.095424,657349,527682
1304.8,0.095677,657558,527542
1308.19,0.095937,658515,527994
1311.58,0.095553,658804,528692
1314.97,0.096483,659011,527727
1318.36,0.096973,658272,526541
1321.73,0.097382,658022,525846
1326.23,0.098260,657870,524663
1329.6,0.098700,656482,523025
1332.97,0.099938,654926,520300
1336.33,0.101218,653727,517820
1339.69,0.102459,652497,515370
1343.04,0.104094,649913,511401
1346.39,0.106121,647671,507263
1349.73,0.108136,645338,503097
1354.18,0.111332,641175,496186
1357.52,0.113474,638376,491589
1360.85,0.115185,635805,487684
1364.17,0.116992,633413,483832
1367.49,0.119138,631026,479633
1370.81,0.122099,628050,474128
1374.12,0.124225,625034,469547
1378.54,0.127318,620272,462662
1381.84,0.130564,616892,456715
1385.14,0.134192,613613,450508
1388.43,0.137901,611526,445158
1391.72,0.142092,610663,440260
1395.01,0.146620,610634,435673
1398.29,0.152204,611700,430858
1402.66,0.158620,614051,426172
1405.93,0.164640,616268,421822
1409.2,0.169767,617795,417905
1412.46,0.175022,618872,413598
1415.72,0.179079,619795,410364
1418.98,0.182785,620495,407336
1422.23,0.186259,621087,404477
1426.56,0.190657,621375,400587
1429.8,0.193417,621616,398204
1433.04,0.196468,622129,395742
1436.27,0.198077,621526,393897
1439.5,0.200646,621113,391313
1442.72,0.202789,620921,389267
1445.94,0.204694,620270,387157
1450.23,0.208332,618860,383054
1453.44,0.210610,617697,380334
1456.64,0.213616,616264,376835
1459.85,0.216206,614413,373469
1463.04,0.218642,612307,370107
1466.24,0.221945,610032,365938
1469.43,0.225397,607345,361442
1473.67,0.230631,603789,355021
1476.85,0.236559,601175,348692
1480.02,0.241416,597737,342842
1483.19,0.247019,594479,336603
1486.36,0.251849,591232,331062
1489.52,0.256095,587853,325967
1492.68,0.259604,583875,321156
1496.89,0.261252,578062,316754
1500.03,0.262476,574159,313730
1503.18,0.262439,570285,311640
1506.32,0.260913,565444,310082
1509.45,0.260122,560571,307970
1512.58,0.258259,555821,306673
1515.71,0.256219,550344,305081
1519.87,0.253131,543983,303707
1522.99,0.250564,538764,302576
1526.1,0.248410,533692,301218
1529.21,0.244944,527902,300337
1532.32,0.242608,521886,298516
1535.42,0.239523,515888,297189
1538.51,0.237216,509987,295354
1541.6,0.233358,503936,294454
1545.72,0.230251,494694,291129
1548.8,0.227758,488378,289067
1551.88,0.224847,481832,287110
1554.95,0.223053,474989,284204
1558.02,0.221476,467818,280932
1561.08,0.219661,460730,277834
1564.15,0.219376,454170,274058
1568.22,0.218034,444181,268860
1571.27,0.217898,436947,264564
1574.32,0.216359,429598,261038
1577.36,0.215173,422039,257146
1580.4,0.214155,414375,253069
1583.43,0.212393,406354,249179
1586.46,0.210951,398475,245160
1590.49,0.208827,388982,240493
1593.51,0.207123,380708,236303
1596.53,0.204822,372727,232578
1599.54,0.203853,365060,228303
1602.55,0.202116,357543,224498
1605.55,0.199940,349495,220547
1608.55,0.197683,341154,216405
1612.54,0.195016,330877,211179
1615.53,0.193498,322904,206812
1618.51,0.192234,315116,202412
1621.49,0.191639,307217,197609
1624.47,0.190407,299481,193180
1627.44,0.190134,292112,188545
1630.41,0.189057,284245,183923
1634.36,0.188403,274079,177612
1637.32,0.185611,266916,174086
1640.27,0.185706,259612,169285
1643.22,0.184907,251804,164496
1646.16,0.183493,244348,160146
1649.1,0.183696,236703,155063
1652.04,0.181848,228171,150111
1655.95,0.179087,215408,142618
1658.88,0.175728,204937,136739
1661.8,0.169025,193395,131045
1664.72,0.162921,179728,123508
1667.63,0.150389,163642,115746
1670.54,0.136249,146312,106913
1673.44,0.121831,128451,97030
1677.31,0.102426,105080,83003
1680.21,0.091231,88906,72061
1683.1,0.085559,75033,61616
1685.99,0.086824,63520,52010
1688.87,0.089636,53714,43697
1691.75,0.100197,45653,36247
1694.62,0.099394,39137,31131
1697.49,0.104969,33776,26524
1701.31,0.118984,28175,21423