File: samples/wool/wool-000811/Column 1_050564_20150331_120624.csv
Method:,Column 1,,
Host Date-Time:,31/3/15 @ 12:6:24,,
Header Version:,1,,
System Temp (C):,33.86,,
Detector Temp (C):,33.6,,
Humidity (%):,2,,
Lamp PD:,3818,,
Shift Vector Coefficients:,-10.5391,0.0761263,-0.000134223,,
Pixel to Wavelength Coefficients:,1775.68,-0.916766,-0.000235065,,
Serial Number:,5510004,,
Scan Config Name:,Column 1,,
Scan Config Type:,Slew,,
Section 1,,
Start wavelength (nm):,900,,
End wavelength (nm):,1700,,
Pattern Pixel Width (nm):,   7.03,,,,
Exposure (ms):,  0.635,,,,
Digital Resolution:,228,,
Num Repeats:,6,,
PGA Gain:,64,,
Total Measurement Time in sec:,  2.725,,
Wavelength (nm),Absorbance (AU),Reference Signal (unitless),Sample Signal (unitless)
901.51,0.035087,108485,100065
905.376,0.040536,121306,110496
909.237,0.044133,131909,119163
913.095,0.044624,143299,129306
916.948,0.044158,156982,141805
922.079,0.045844,179937,161911
925.923,0.046670,200504,180075
929.762,0.047273,222660,199696
933.597,0.048386,244426,218656
937.427,0.046879,263972,236962
941.254,0.046696,281845,253113
945.076,0.046311,297271,267203
950.165,0.046188,315605,283763
953.978,0.045702,328029,295264
957.786,0.046211,340470,306103
961.59,0.046495,352317,316547
965.389,0.046423,363056,326250
969.185,0.046399,373162,335350
972.976,0.047181,382632,343242
976.763,0.047224,391202,350895
981.806,0.048403,400190,357984
985.583,0.048363,406088,363293
989.355,0.049011,410162,366391
993.124,0.049683,412868,368238
996.888,0.050457,414263,368824
1000.65,0.051524,415476,368996
1004.4,0.052310,415479,368332
1009.41,0.053269,414358,366528
1013.15,0.054648,412923,364100
1016.89,0.055025,411526,362554
1020.63,0.054785,409066,360586
1024.36,0.054931,406777,358447
1028.09,0.054385,404427,356825
1031.82,0.054793,401911,354272
1036.78,0.053857,398410,351944
1040.49,0.053566,396204,350230
1044.2,0.053657,394236,348417
1047.91,0.052668,392042,347268
1051.61,0.052247,389823,345637
1055.31,0.051742,388234,344629
1059,0.051066,387599,344601
1063.92,0.050038,386688,344606
1067.61,0.049082,386598,345285
1071.29,0.048792,387377,346212
1074.96,0.048159,388536,347754
1078.63,0.047604,389855,349381
1082.3,0.046938,391215,351138
1085.96,0.046021,393215,353679
1090.84,0.045340,396270,356986
1094.49,0.045068,398760,359454
1098.14,0.045431,400987,361160
1101.79,0.044889,403477,363856
1105.43,0.044608,406116,366473
1109.06,0.043693,407701,368679
1112.7,0.043815,409859,370527
1117.53,0.043539,412494,373146
1121.15,0.044587,414909,374426
1124.77,0.044990,416559,375566
1128.38,0.045996,418532,376472
1131.99,0.047786,419956,376199
1135.6,0.049885,421946,376159
1139.2,0.050860,423881,377037
1143.99,0.054125,426786,376778
1147.58,0.055373,428617,377308
1151.17,0.056004,431169,379004
1154.75,0.057863,433579,379494
1158.33,0.058919,436264,380917
1161.91,0.060934,439132,381646
1165.48,0.063918,442389,381844
1169.04,0.066035,446101,383176
1173.79,0.069945,451929,384703
1177.34,0.072517,456026,385898
1180.9,0.074487,461306,388599
1184.44,0.076968,467657,391705
1187.99,0.077178,473969,396800
1191.52,0.077110,479856,401792
1195.06,0.076925,487372,408259
1199.76,0.075959,497347,417542
1203.29,0.075077,504311,424250
1206.81,0.074212,511507,431161
1210.33,0.073423,519078,438339
1213.84,0.072770,527163,445836
1217.35,0.071939,534208,452659
1220.85,0.070950,540472,459011
1225.51,0.070198,549929,467852
1229.01,0.069497,556888,474538
1232.5,0.068811,562180,479805
1235.98,0.068544,567975,485049
1239.46,0.067645,574815,491907
1242.94,0.066019,582782,500596
1246.41,0.065402,591476,508786
1251.03,0.065586,604016,519353
1254.5,0.065473,612289,526603
1257.96,0.065928,619125,531925
1261.41,0.066809,624551,535499
1264.86,0.067380,629900,539376
1268.31,0.067842,634345,542605
1271.75,0.069055,638574,544698
1276.33,0.069261,642499,547787
1279.76,0.069010,645905,551009
1283.19,0.068244,648307,554035
1286.61,0.068242,650446,555865
1290.03,0.067620,652132,558105
1293.44,0.067295,653907,560043
1296.85,0.066653,655963,562634
1301.39,0.066485,657349,564042
1304.8,0.066864,657558,563728
1308.19,0.067184,658515,564133
1311.58,0.066941,658804,564697
1314.97,0.068117,659011,563347
1318.36,0.068083,658272,562759
1321.73,0.068684,658022,561767
1326.23,0.069389,657870,560726
1329.6,0.070445,656482,558184
1332.97,0.071376,654926,555669
1336.33,0.072821,653727,552809
1339.69,0.074669,652497,549427
1343.04,0.076017,649913,545555
1346.39,0.078208,647671,540937
1349.73,0.080281,645338,536422
1354.18,0.083865,641175,528581
1357.52,0.085715,638376,524036
1360.85,0.088265,635805,518871
1364.17,0.090730,633413,513993
1367.49,0.093161,631026,509197
1370.81,0.095461,628050,504119
1374.12,0.097713,625034,499103
1378.54,0.101208,620272,491331
1381.84,0.104694,616892,484747
1385.14,0.108322,613613,478159
1388.43,0.113014,611526,471412
1391.72,0.117744,610663,465648
1395.01,0.122895,610634,460136
1398.29,0.127759,611700,455805
1402.66,0.135439,614051,449537
1405.93,0.141359,616268,445052
1409.2,0.147276,617795,440117
1412.46,0.152050,618872,436065
1415.72,0.156534,619795,432229
1418.98,0.160614,620495,428671
1422.23,0.164237,621087,425516
1426.56,0.168999,621375,421070
1429.8,0.171611,621616,418708
1433.04,0.173801,622129,416946
1436.27,0.176837,621526,413640
1439.5,0.179033,621113,411280
1442.72,0.181677,620921,408657
1445.94,0.184023,620270,406030
1450.23,0.187834,618860,401567
1453.44,0.190239,617697,398599
1456.64,0.193708,616264,394511
1459.85,0.196414,614413,390883
1463.04,0.199370,612307,386900
1466.24,0.202771,610032,382456
1469.43,0.206828,607345,377231
1473.67,0.212713,603789,369975
1476.85,0.217520,601175,364318
1480.02,0.223984,597737,356883
1483.19,0.230412,594479,349723
1486.36,0.236606,591232,342888
1489.52,0.241430,587853,337162
1492.68,0.245110,583875,332055
1496.89,0.248271,578062,326365
1500.03,0.248566,574159,323941
1503.18,0.248105,570285,322097
1506.32,0.247508,565444,319802
1509.45,0.246561,560571,317738
1512.58,0.244162,555821,316791
1515.71,0.242251,550344,315053
1519.87,0.239173,543983,313626
1522.99,0.236879,538764,312262
1526.1,0.234132,533692,311285
1529.21,0.231201,527902,309993
1532.32,0.227547,521886,309050
1535.42,0.224515,515888,307638
1538.51,0.221964,509987,305911
1541.6,0.218764,503936,304517
1545.72,0.214011,494694,302222
1548.8,0.210816,488378,300566
1551.88,0.207570,481832,298762
1554.95,0.205449,474989,295961
1558.02,0.203875,467818,292551
1561.08,0.202550,460730,288999
1564.15,0.202668,454170,284807
1568.22,0.200511,444181,279930
1571.27,0.199716,436947,275875
1574.32,0.199843,429598,271156
1577.36,0.197187,422039,268019
1580.4,0.196201,414375,263750
1583.43,0.194197,406354,259841
1586.46,0.192789,398475,255630
1590.49,0.190664,388982,250764
1593.51,0.188108,380708,246879
1596.53,0.186047,372727,242853
1599.54,0.184512,365060,238700
1602.55,0.181450,357543,235439
1605.55,0.179857,349495,230985
1608.55,0.176930,341154,226997
1612.54,0.175009,330877,221135
1615.53,0.173273,322904,216671
1618.51,0.172588,315116,211779
1621.49,0.171202,307217,207130
1624.47,0.169184,299481,202855
1627.44,0.168424,292112,198210
1630.41,0.168543,284245,192819
1634.36,0.166413,274079,186837
1637.32,0.164879,266916,182598
1640.27,0.163983,259612,177968
1643.22,0.163032,251804,172994
1646.16,0.162837,244348,167947
1649.1,0.161734,236703,163106
1652.04,0.159793,228171,157931
1655.95,0.157672,215408,149827
1658.88,0.154218,204937,143682
1661.8,0.149652,193395,137023
1664.72,0.146112,179728,128382
1667.63,0.134826,163642,119969
1670.54,0.121015,146312,110730
1673.44,0.110204,128451,99663
1677.31,0.094715,105080,84490
1680.21,0.085900,88906,72951
1683.1,0.087190,75033,61385
1685.99,0.087425,63520,51938
1688.87,0.092688,53714,43391
1691.75,0.096487,45653,36558
1694.62,0.101562,39137,30976
1697.49,0.112451,33776,26071
1701.31,0.119613,28175,21392