File: samples/wool/wool-000811/Column 1_050551_20150331_120014.csv
Method:,Column 1,,
Host Date-Time:,31/3/15 @ 12:0:14,,
Header Version:,1,,
System Temp (C):,33.18,,
Detector Temp (C):,32.45,,
Humidity (%):,3.91,,
Lamp PD:,3820,,
Shift Vector Coefficients:,-10.5391,0.0761263,-0.000134223,,
Pixel to Wavelength Coefficients:,1775.68,-0.916766,-0.000235065,,
Serial Number:,5510004,,
Scan Config Name:,Column 1,,
Scan Config Type:,Slew,,
Section 1,,
Start wavelength (nm):,900,,
End wavelength (nm):,1700,,
Pattern Pixel Width (nm):,   7.03,,,,
Exposure (ms):,  0.635,,,,
Digital Resolution:,228,,
Num Repeats:,6,,
PGA Gain:,64,,
Total Measurement Time in sec:,  2.740,,
Wavelength (nm),Absorbance (AU),Reference Signal (unitless),Sample Signal (unitless)
901.51,0.034168,108485,100277
905.376,0.038755,121306,110950
909.237,0.041397,131909,119916
913.095,0.042564,143299,129921
916.948,0.043479,156982,142027
922.079,0.042717,179937,163081
925.923,0.044202,200504,181101
929.762,0.045095,222660,200700
933.597,0.046058,244426,219831
937.427,0.045646,263972,237636
941.254,0.045846,281845,253609
945.076,0.045605,297271,267638
950.165,0.045485,315605,284223
953.978,0.044556,328029,296044
957.786,0.045661,340470,306491
961.59,0.046083,352317,316848
965.389,0.045785,363056,326730
969.185,0.046494,373162,335277
972.976,0.046772,382632,343565
976.763,0.047740,391202,350478
981.806,0.047779,400190,358498
985.583,0.048808,406088,362921
989.355,0.048873,410162,366507
993.124,0.049461,412868,368426
996.888,0.050103,414263,369125
1000.65,0.051336,415476,369156
1004.4,0.051968,415479,368622
1009.41,0.053657,414358,366200
1013.15,0.054112,412923,364550
1016.89,0.054657,411526,362861
1020.63,0.054467,409066,360850
1024.36,0.054417,406777,358872
1028.09,0.054028,404427,357118
1031.82,0.053787,401911,355094
1036.78,0.053218,398410,352462
1040.49,0.053425,396204,350343
1044.2,0.053085,394236,348876
1047.91,0.052384,392042,347495
1051.61,0.052009,389823,345827
1055.31,0.051317,388234,344966
1059,0.051535,387599,344229
1063.92,0.049879,386688,344732
1067.61,0.048807,386598,345504
1071.29,0.048693,387377,346291
1074.96,0.048254,388536,347678
1078.63,0.047245,389855,349670
1082.3,0.046824,391215,351230
1085.96,0.046391,393215,353378
1090.84,0.045172,396270,357124
1094.49,0.044954,398760,359549
1098.14,0.045033,400987,361491
1101.79,0.044327,403477,364327
1105.43,0.044715,406116,366383
1109.06,0.044203,407701,368247
1112.7,0.043808,409859,370533
1117.53,0.043987,412494,372761
1121.15,0.045245,414909,373859
1124.77,0.045307,416559,375292
1128.38,0.047234,418532,375400
1131.99,0.048069,419956,375954
1135.6,0.050038,421946,376027
1139.2,0.051847,423881,376181
1143.99,0.054722,426786,376260
1147.58,0.055531,428617,377171
1151.17,0.056671,431169,378422
1154.75,0.057695,433579,379641
1158.33,0.060226,436264,379772
1161.91,0.062388,439132,380371
1165.48,0.064598,442389,381247
1169.04,0.067052,446101,382280
1173.79,0.070798,451929,383948
1177.34,0.073413,456026,385103
1180.9,0.075189,461306,387972
1184.44,0.077527,467657,391201
1187.99,0.077990,473969,396059
1191.52,0.077929,479856,401035
1195.06,0.077328,487372,407880
1199.76,0.076457,497347,417064
1203.29,0.075653,504311,423687
1206.81,0.075088,511507,430292
1210.33,0.074023,519078,437733
1213.84,0.073751,527163,444830
1217.35,0.072883,534208,451676
1220.85,0.071540,540472,458388
1225.51,0.070914,549929,467081
1229.01,0.070536,556888,473404
1232.5,0.069554,562180,478984
1235.98,0.069002,567975,484537
1239.46,0.068094,574815,491399
1242.94,0.067200,582782,499236
1246.41,0.066602,591476,507382
1251.03,0.066440,604016,518332
1254.5,0.066258,612289,525652
1257.96,0.066675,619125,531011
1261.41,0.067175,624551,535048
1264.86,0.067863,629900,538776
1268.31,0.068645,634345,541602
1271.75,0.069517,638574,544120
1276.33,0.070219,642499,546580
1279.76,0.069951,645905,549816
1283.19,0.069190,648307,552829
1286.61,0.068834,650446,555108
1290.03,0.068455,652132,557033
1293.44,0.068276,653907,558779
1296.85,0.067863,655963,561069
1301.39,0.067796,657349,562341
1304.8,0.067677,657558,562674
1308.19,0.068206,658515,562807
1311.58,0.068064,658804,563238
1314.97,0.068949,659011,562269
1318.36,0.069568,658272,560838
1321.73,0.069632,658022,560542
1326.23,0.071272,657870,558301
1329.6,0.072096,656482,556066
1332.97,0.073162,654926,553389
1336.33,0.074490,653727,550689
1339.69,0.075958,652497,547798
1343.04,0.077897,649913,543198
1346.39,0.080356,647671,538268
1349.73,0.082648,645338,533506
1354.18,0.085483,641175,526615
1357.52,0.088471,638376,520722
1360.85,0.090276,635805,516473
1364.17,0.092503,633413,511899
1367.49,0.095153,631026,506867
1370.81,0.097430,628050,501839
1374.12,0.100133,625034,496330
1378.54,0.103635,620272,488593
1381.84,0.107370,616892,481769
1385.14,0.111602,613613,474562
1388.43,0.116189,611526,467978
1391.72,0.122011,610663,461095
1395.01,0.127583,610634,455195
1398.29,0.133247,611700,450082
1402.66,0.141342,614051,443468
1405.93,0.148287,616268,438009
1409.2,0.154264,617795,433092
1412.46,0.159971,618872,428183
1415.72,0.165122,619795,423766
1418.98,0.169583,620495,419909
1422.23,0.174265,621087,415803
1426.56,0.178951,621375,411531
1429.8,0.182813,621616,408046
1433.04,0.185128,622129,406212
1436.27,0.187706,621526,403416
1439.5,0.190428,621113,400629
1442.72,0.192855,620921,398273
1445.94,0.195288,620270,395633
1450.23,0.199577,618860,390855
1453.44,0.202183,617697,387786
1456.64,0.205160,616264,384244
1459.85,0.207090,614413,381391
1463.04,0.209973,612307,377569
1466.24,0.213307,610032,373289
1469.43,0.216488,607345,368933
1473.67,0.221393,603789,362654
1476.85,0.226209,601175,357102
1480.02,0.231015,597737,351152
1483.19,0.237524,594479,344043
1486.36,0.242995,591232,337880
1489.52,0.246903,587853,332940
1492.68,0.250371,583875,328057
1496.89,0.252597,578062,323130
1500.03,0.252504,574159,321017
1503.18,0.253696,570285,317977
1506.32,0.252391,565444,316227
1509.45,0.250683,560571,314737
1512.58,0.249556,555821,312881
1515.71,0.246996,550344,311629
1519.87,0.244339,543983,309918
1522.99,0.241780,538764,308758
1526.1,0.239722,533692,307304
1529.21,0.236119,527902,306503
1532.32,0.233101,521886,305123
1535.42,0.230420,515888,303484
1538.51,0.226789,509987,302531
1541.6,0.224057,503936,300828
1545.72,0.219245,494694,298601
1548.8,0.215526,488378,297324
1551.88,0.214201,481832,294235
1554.95,0.211351,474989,291966
1558.02,0.210365,467818,288212
1561.08,0.208134,460730,285307
1564.15,0.207530,454170,281636
1568.22,0.206719,444181,275957
1571.27,0.206163,436947,271810
1574.32,0.204540,429598,268239
1577.36,0.203232,422039,264314
1580.4,0.201352,414375,260640
1583.43,0.199570,406354,256646
1586.46,0.198532,398475,252272
1590.49,0.196191,388982,247593
1593.51,0.193786,380708,243672
1596.53,0.191542,372727,239800
1599.54,0.189461,365060,235995
1602.55,0.186263,357543,232844
1605.55,0.184848,349495,228346
1608.55,0.182096,341154,224313
1612.54,0.179548,330877,218836
1615.53,0.177865,322904,214392
1618.51,0.176831,315116,209720
1621.49,0.175166,307217,205248
1624.47,0.173835,299481,200694
1627.44,0.172795,292112,196225
1630.41,0.171386,284245,191561
1634.36,0.170195,274079,185217
1637.32,0.168730,266916,180986
1640.27,0.168341,259612,176191
1643.22,0.166469,251804,171630
1646.16,0.166185,244348,166657
1649.1,0.165539,236703,161683
1652.04,0.164465,228171,156241
1655.95,0.162103,215408,148306
1658.88,0.160042,204937,141768
1661.8,0.155542,193395,135177
1664.72,0.150877,179728,126981
1667.63,0.143598,163642,117570
1670.54,0.133411,146312,107614
1673.44,0.123558,128451,96645
1677.31,0.114749,105080,80681
1680.21,0.108781,88906,69207
1683.1,0.106821,75033,58672
1685.99,0.109782,63520,49332
1688.87,0.116383,53714,41087
1691.75,0.120657,45653,34579
1694.62,0.128322,39137,29125
1697.49,0.129004,33776,25096
1701.31,0.137348,28175,20536