File: samples/wool/wool-000811/Column 1_050628_20150331_123700.csv
Method:,Column 1,,
Host Date-Time:,31/3/15 @ 12:37:0,,
Header Version:,1,,
System Temp (C):,34.16,,
Detector Temp (C):,35.05,,
Humidity (%):,1.56,,
Lamp PD:,3818,,
Shift Vector Coefficients:,-10.5391,0.0761263,-0.000134223,,
Pixel to Wavelength Coefficients:,1775.68,-0.916766,-0.000235065,,
Serial Number:,5510004,,
Scan Config Name:,Column 1,,
Scan Config Type:,Slew,,
Section 1,,
Start wavelength (nm):,900,,
End wavelength (nm):,1700,,
Pattern Pixel Width (nm):,   7.03,,,,
Exposure (ms):,  0.635,,,,
Digital Resolution:,228,,
Num Repeats:,6,,
PGA Gain:,64,,
Total Measurement Time in sec:,  2.728,,
Wavelength (nm),Absorbance (AU),Reference Signal (unitless),Sample Signal (unitless)
901.51,0.069905,108485,92356
905.376,0.075320,121306,101991
909.237,0.079221,131909,109914
913.095,0.078211,143299,119683
916.948,0.080309,156982,130479
922.079,0.079884,179937,149705
925.923,0.081231,200504,166300
929.762,0.081919,222660,184384
933.597,0.083007,244426,201902
937.427,0.080949,263972,219083
941.254,0.079927,281845,234468
945.076,0.078874,297271,247901
950.165,0.078480,315605,263429
953.978,0.077603,328029,274353
957.786,0.077893,340470,284568
961.59,0.077823,352317,294517
965.389,0.077446,363056,303758
969.185,0.077846,373162,311926
972.976,0.077398,382632,320172
976.763,0.077823,391202,327023
981.806,0.078442,400190,334060
985.583,0.078764,406088,338732
989.355,0.079845,410162,341280
993.124,0.080260,412868,343203
996.888,0.080325,414263,344311
1000.65,0.081279,415476,344562
1004.4,0.082088,415479,343923
1009.41,0.083671,414358,341747
1013.15,0.083942,412923,340351
1016.89,0.084501,411526,338763
1020.63,0.084201,409066,336971
1024.36,0.084775,406777,334643
1028.09,0.084289,404427,333082
1031.82,0.084273,401911,331022
1036.78,0.084415,398410,328031
1040.49,0.083475,396204,326922
1044.2,0.082943,394236,325697
1047.91,0.083666,392042,323345
1051.61,0.083155,389823,321894
1055.31,0.082334,388234,321188
1059,0.082383,387599,320627
1063.92,0.081220,386688,320731
1067.61,0.080345,386598,321303
1071.29,0.080785,387377,321624
1074.96,0.079728,388536,323373
1078.63,0.078598,389855,325316
1082.3,0.077634,391215,327176
1085.96,0.077329,393215,329080
1090.84,0.076996,396270,331891
1094.49,0.076166,398760,334615
1098.14,0.075275,400987,337175
1101.79,0.074657,403477,339752
1105.43,0.074891,406116,341790
1109.06,0.073742,407701,344033
1112.7,0.073537,409859,346017
1117.53,0.073261,412494,348463
1121.15,0.073549,414909,350271
1124.77,0.073078,416559,352045
1128.38,0.074862,418532,352263
1131.99,0.075190,419956,353194
1135.6,0.076902,421946,353472
1139.2,0.078602,423881,353706
1143.99,0.080293,426786,354746
1147.58,0.080757,428617,355887
1151.17,0.081583,431169,357326
1154.75,0.082447,433579,358609
1158.33,0.083879,436264,359642
1161.91,0.085667,439132,360519
1165.48,0.088652,442389,360705
1169.04,0.090225,446101,362417
1173.79,0.093939,451929,364025
1177.34,0.095618,456026,365908
1180.9,0.097691,461306,368382
1184.44,0.099904,467657,371555
1187.99,0.100347,473969,376186
1191.52,0.100312,479856,380889
1195.06,0.100747,487372,386468
1199.76,0.100341,497347,394747
1203.29,0.099196,504311,401331
1206.81,0.098455,511507,407752
1210.33,0.098389,519078,413851
1213.84,0.097684,527163,420979
1217.35,0.097508,534208,426778
1220.85,0.096303,540472,432982
1225.51,0.095294,549929,441583
1229.01,0.095054,556888,447418
1232.5,0.094358,562180,452395
1235.98,0.093202,567975,458276
1239.46,0.092685,574815,464347
1242.94,0.091492,582782,472078
1246.41,0.091091,591476,479563
1251.03,0.091245,604016,489557
1254.5,0.090974,612289,496572
1257.96,0.091498,619125,501511
1261.41,0.092066,624551,505245
1264.86,0.092493,629900,509071
1268.31,0.093005,634345,512060
1271.75,0.093430,638574,514969
1276.33,0.093954,642499,517510
1279.76,0.093664,645905,520600
1283.19,0.093499,648307,522735
1286.61,0.093046,650446,525007
1290.03,0.093063,652132,526348
1293.44,0.091985,653907,529092
1296.85,0.091845,655963,530927
1301.39,0.091619,657349,532325
1304.8,0.091582,657558,532540
1308.19,0.091756,658515,533101
1311.58,0.091831,658804,533243
1314.97,0.092371,659011,532748
1318.36,0.092743,658272,531695
1321.73,0.092606,658022,531661
1326.23,0.093531,657870,530407
1329.6,0.094221,656482,528448
1332.97,0.095341,654926,525837
1336.33,0.096020,653727,524055
1339.69,0.097136,652497,521726
1343.04,0.098973,649913,517467
1346.39,0.101055,647671,513215
1349.73,0.102727,645338,509402
1354.18,0.105407,641175,503002
1357.52,0.107702,638376,498167
1360.85,0.109607,635805,493989
1364.17,0.111352,633413,490157
1367.49,0.113579,631026,485812
1370.81,0.115430,628050,481464
1374.12,0.117567,625034,476800
1378.54,0.119855,620272,470682
1381.84,0.122680,616892,465082
1385.14,0.126107,613613,458973
1388.43,0.129957,611526,453375
1391.72,0.133670,610663,448881
1395.01,0.137540,610634,444878
1398.29,0.141135,611700,441981
1402.66,0.147165,614051,437562
1405.93,0.151590,616268,434690
1409.2,0.156005,617795,431360
1412.46,0.160506,618872,427656
1415.72,0.163877,619795,424983
1418.98,0.167551,620495,421878
1422.23,0.170731,621087,419200
1426.56,0.174502,621375,415769
1429.8,0.177421,621616,413144
1433.04,0.179402,622129,411603
1436.27,0.181889,621526,408856
1439.5,0.183686,621113,406897
1442.72,0.186122,620921,404496
1445.94,0.188852,620270,401540
1450.23,0.192114,618860,397629
1453.44,0.194639,617697,394581
1456.64,0.197772,616264,390836
1459.85,0.200475,614413,387245
1463.04,0.203622,612307,383131
1466.24,0.207325,610032,378467
1469.43,0.211179,607345,373471
1473.67,0.217941,603789,365548
1476.85,0.223437,601175,359388
1480.02,0.230053,597737,351931
1483.19,0.236538,594479,344825
1486.36,0.242561,591232,338218
1489.52,0.248108,587853,332017
1492.68,0.250748,583875,327772
1496.89,0.253079,578062,322772
1500.03,0.254051,574159,319876
1503.18,0.254106,570285,317677
1506.32,0.253396,565444,315496
1509.45,0.251568,560571,314096
1512.58,0.250289,555821,312353
1515.71,0.247317,550344,311399
1519.87,0.244671,543983,309681
1522.99,0.242985,538764,307903
1526.1,0.239821,533692,307234
1529.21,0.236819,527902,306009
1532.32,0.233474,521886,304861
1535.42,0.230425,515888,303480
1538.51,0.227828,509987,301808
1541.6,0.225260,503936,299996
1545.72,0.220809,494694,297528
1548.8,0.217624,488378,295891
1551.88,0.215268,481832,293513
1554.95,0.214137,474989,290099
1558.02,0.212048,467818,287097
1561.08,0.211830,460730,282889
1564.15,0.211329,454170,279183
1568.22,0.210052,444181,273847
1571.27,0.208978,436947,270054
1574.32,0.208801,429598,265620
1577.36,0.207715,422039,261600
1580.4,0.206239,414375,257724
1583.43,0.204071,406354,254000
1586.46,0.202996,398475,249692
1590.49,0.201462,388982,244606
1593.51,0.199865,380708,240285
1596.53,0.197461,372727,236554
1599.54,0.194984,365060,233013
1602.55,0.193567,357543,228961
1605.55,0.191786,349495,224727
1608.55,0.189865,341154,220336
1612.54,0.188258,330877,214491
1615.53,0.185675,322904,210571
1618.51,0.185097,315116,205766
1621.49,0.184295,307217,200979
1624.47,0.183916,299481,196089
1627.44,0.182545,292112,191869
1630.41,0.180573,284245,187551
1634.36,0.179835,274079,181151
1637.32,0.178669,266916,176891
1640.27,0.178670,259612,172050
1643.22,0.177139,251804,167465
1646.16,0.176397,244348,162784
1649.1,0.176716,236703,157575
1652.04,0.174475,228171,152681
1655.95,0.170766,215408,145377
1658.88,0.167944,204937,139212
1661.8,0.161234,193395,133417
1664.72,0.154714,179728,125864
1667.63,0.141185,163642,118225
1670.54,0.126890,146312,109242
1673.44,0.110631,128451,99565
1677.31,0.090378,105080,85338
1680.21,0.078211,88906,74254
1683.1,0.075388,75033,63076
1685.99,0.070549,63520,53996
1688.87,0.076672,53714,45021
1691.75,0.081495,45653,37842
1694.62,0.082982,39137,32330
1697.49,0.088282,33776,27563
1701.31,0.101617,28175,22297