File: samples/wool/wool-000811/Column 1_050539_20150331_115429.csv
Method:,Column 1,,
Host Date-Time:,31/3/15 @ 11:54:29,,
Header Version:,1,,
System Temp (C):,32.03,,
Detector Temp (C):,30.37,,
Humidity (%):,3.22,,
Lamp PD:,3825,,
Shift Vector Coefficients:,-10.5391,0.0761263,-0.000134223,,
Pixel to Wavelength Coefficients:,1775.68,-0.916766,-0.000235065,,
Serial Number:,5510004,,
Scan Config Name:,Column 1,,
Scan Config Type:,Slew,,
Section 1,,
Start wavelength (nm):,900,,
End wavelength (nm):,1700,,
Pattern Pixel Width (nm):,   7.03,,,,
Exposure (ms):,  0.635,,,,
Digital Resolution:,228,,
Num Repeats:,6,,
PGA Gain:,64,,
Total Measurement Time in sec:,  2.676,,
Wavelength (nm),Absorbance (AU),Reference Signal (unitless),Sample Signal (unitless)
901.51,0.044600,108485,97897
905.376,0.049711,121306,108186
909.237,0.052512,131909,116886
913.095,0.050532,143299,127559
916.948,0.050371,156982,139791
922.079,0.051435,179937,159840
925.923,0.050395,200504,178537
929.762,0.051343,222660,197833
933.597,0.051850,244426,216919
937.427,0.051773,263972,234307
941.254,0.052762,281845,249602
945.076,0.052029,297271,263708
950.165,0.053292,315605,279159
953.978,0.053043,328029,290315
957.786,0.053155,340470,301248
961.59,0.053939,352317,311168
965.389,0.054068,363056,320557
969.185,0.054826,373162,328906
972.976,0.055114,382632,337029
976.763,0.055745,391202,344077
981.806,0.055920,400190,351841
985.583,0.057103,406088,356055
989.355,0.057600,410162,359216
993.124,0.057973,412868,361275
996.888,0.058557,414263,362009
1000.65,0.059739,415476,362082
1004.4,0.060792,415479,361208
1009.41,0.061603,414358,359561
1013.15,0.062649,412923,357454
1016.89,0.063309,411526,355704
1020.63,0.063079,409066,353765
1024.36,0.062625,406777,352153
1028.09,0.062463,404427,350249
1031.82,0.062255,401911,348237
1036.78,0.061645,398410,345689
1040.49,0.060470,396204,344706
1044.2,0.060874,394236,342675
1047.91,0.059950,392042,341494
1051.61,0.059281,389823,340084
1055.31,0.058282,388234,339478
1059,0.057548,387599,339496
1063.92,0.056909,386688,339197
1067.61,0.055708,386598,340057
1071.29,0.055153,387377,341178
1074.96,0.054169,388536,342975
1078.63,0.053677,389855,344529
1082.3,0.052650,391215,346550
1085.96,0.051913,393215,348913
1090.84,0.051244,396270,352166
1094.49,0.050915,398760,354647
1098.14,0.051034,400987,356530
1101.79,0.050159,403477,359468
1105.43,0.050056,406116,361905
1109.06,0.049665,407701,363644
1112.7,0.049305,409859,365872
1117.53,0.049512,412494,368049
1121.15,0.050323,414909,369513
1124.77,0.051132,416559,370292
1128.38,0.051976,418532,371324
1131.99,0.053768,419956,371053
1135.6,0.056619,421946,370372
1139.2,0.058151,423881,370760
1143.99,0.061354,426786,370558
1147.58,0.062831,428617,370884
1151.17,0.064036,431169,372059
1154.75,0.065341,433579,373016
1158.33,0.067230,436264,373697
1161.91,0.069916,439132,373834
1165.48,0.072797,442389,374117
1169.04,0.075732,446101,374715
1173.79,0.079708,451929,376151
1177.34,0.082889,456026,376791
1180.9,0.085143,461306,379181
1184.44,0.087277,467657,382517
1187.99,0.087922,473969,387104
1191.52,0.087467,479856,392323
1195.06,0.086879,487372,399008
1199.76,0.085346,497347,408614
1203.29,0.083950,504311,415670
1206.81,0.083565,511507,421975
1210.33,0.081804,519078,429961
1213.84,0.080789,527163,437679
1217.35,0.079777,534208,444563
1220.85,0.078402,540472,451202
1225.51,0.077319,549929,460243
1229.01,0.076290,556888,467173
1232.5,0.075715,562180,472237
1235.98,0.075018,567975,477872
1239.46,0.073586,574815,485224
1242.94,0.072843,582782,492791
1246.41,0.071472,591476,501724
1251.03,0.071113,604016,512785
1254.5,0.071540,612289,519298
1257.96,0.071872,619125,524694
1261.41,0.072244,624551,528840
1264.86,0.073027,629900,532408
1268.31,0.073032,634345,536159
1271.75,0.074144,638574,538353
1276.33,0.074483,642499,541240
1279.76,0.074638,645905,543914
1283.19,0.073760,648307,547042
1286.61,0.073637,650446,549003
1290.03,0.073245,652132,550923
1293.44,0.072526,653907,553337
1296.85,0.072447,655963,555178
1301.39,0.072308,657349,556529
1304.8,0.072558,657558,556386
1308.19,0.072879,658515,556784
1311.58,0.072965,658804,556918
1314.97,0.073676,659011,556182
1318.36,0.074094,658272,555024
1321.73,0.074102,658022,554803
1326.23,0.075821,657870,552483
1329.6,0.076431,656482,550544
1332.97,0.077648,654926,547702
1336.33,0.078778,653727,545279
1339.69,0.080945,652497,541544
1343.04,0.082804,649913,537095
1346.39,0.085698,647671,531687
1349.73,0.088064,645338,526894
1354.18,0.091338,641175,519563
1357.52,0.094085,638376,514034
1360.85,0.096203,635805,509473
1364.17,0.098856,633413,504465
1367.49,0.101334,631026,499705
1370.81,0.104052,628050,494245
1374.12,0.107185,625034,488336
1378.54,0.111271,620272,480077
1381.84,0.114957,616892,473426
1385.14,0.119657,613613,465841
1388.43,0.124797,611526,458794
1391.72,0.131056,610663,451591
1395.01,0.136453,610634,445993
1398.29,0.142934,611700,440154
1402.66,0.151824,614051,432893
1405.93,0.158315,616268,428011
1409.2,0.165046,617795,422472
1412.46,0.171015,618872,417432
1415.72,0.176861,619795,412465
1418.98,0.181549,620495,408497
1422.23,0.185912,621087,404800
1426.56,0.190688,621375,400558
1429.8,0.193456,621616,398168
1433.04,0.196755,622129,395481
1436.27,0.199070,621526,392997
1439.5,0.201072,621113,390930
1442.72,0.204037,620921,388150
1445.94,0.207012,620270,385096
1450.23,0.210543,618860,381109
1453.44,0.213799,617697,377552
1456.64,0.215923,616264,374838
1459.85,0.218789,614413,371254
1463.04,0.221542,612307,367644
1466.24,0.224560,610032,363741
1469.43,0.228328,607345,359011
1473.67,0.232357,603789,353613
1476.85,0.238005,601175,347533
1480.02,0.243128,597737,341493
1483.19,0.249102,594479,334992
1486.36,0.254966,591232,328694
1489.52,0.259467,587853,323446
1492.68,0.263622,583875,318198
1496.89,0.266826,578062,312715
1500.03,0.267561,574159,310078
1503.18,0.266880,570285,308469
1506.32,0.267145,565444,305664
1509.45,0.266576,560571,303427
1512.58,0.264243,555821,302477
1515.71,0.262221,550344,300894
1519.87,0.259144,543983,299531
1522.99,0.256597,538764,298402
1526.1,0.253629,533692,297620
1529.21,0.250451,527902,296553
1532.32,0.247465,521886,295196
1535.42,0.244341,515888,293910
1538.51,0.241671,509987,292340
1541.6,0.237421,503936,291712
1545.72,0.232075,494694,289909
1548.8,0.229335,488378,288019
1551.88,0.226404,481832,286083
1554.95,0.224164,474989,283478
1558.02,0.222406,467818,280331
1561.08,0.221004,460730,276976
1564.15,0.219947,454170,273698
1568.22,0.218944,444181,268297
1571.27,0.218246,436947,264352
1574.32,0.216903,429598,260711
1577.36,0.214690,422039,257432
1580.4,0.214211,414375,253036
1583.43,0.212459,406354,249141
1586.46,0.210330,398475,245511
1590.49,0.207374,388982,241299
1593.51,0.205558,380708,237156
1596.53,0.202996,372727,233558
1599.54,0.200270,365060,230194
1602.55,0.197739,357543,226772
1605.55,0.195006,349495,223067
1608.55,0.193145,341154,218678
1612.54,0.191128,330877,213078
1615.53,0.188665,322904,209126
1618.51,0.186634,315116,205039
1621.49,0.185519,307217,200413
1624.47,0.184175,299481,195972
1627.44,0.182760,292112,191774
1630.41,0.181303,284245,187236
1634.36,0.180341,274079,180940
1637.32,0.177864,266916,177219
1640.27,0.176663,259612,172847
1643.22,0.176638,251804,167658
1646.16,0.174252,244348,163590
1649.1,0.175170,236703,158137
1652.04,0.174157,228171,152793
1655.95,0.170611,215408,145429
1658.88,0.170086,204937,138527
1661.8,0.169466,193395,130912
1664.72,0.167875,179728,122107
1667.63,0.162754,163642,112497
1670.54,0.157464,146312,101816
1673.44,0.154398,128451,90020
1677.31,0.152999,105080,73879
1680.21,0.150294,88906,62898
1683.1,0.153870,75033,52648
1685.99,0.159991,63520,43946
1688.87,0.160409,53714,37126
1691.75,0.162263,45653,31420
1694.62,0.170113,39137,26453
1697.49,0.169855,33776,22843
1701.31,0.171865,28175,18967