File: samples/wool/wool-000811/Column 1_050584_20150331_121556.csv
Method:,Column 1,,
Host Date-Time:,31/3/15 @ 12:15:56,,
Header Version:,1,,
System Temp (C):,33.78,,
Detector Temp (C):,34.52,,
Humidity (%):,1.86,,
Lamp PD:,3819,,
Shift Vector Coefficients:,-10.5391,0.0761263,-0.000134223,,
Pixel to Wavelength Coefficients:,1775.68,-0.916766,-0.000235065,,
Serial Number:,5510004,,
Scan Config Name:,Column 1,,
Scan Config Type:,Slew,,
Section 1,,
Start wavelength (nm):,900,,
End wavelength (nm):,1700,,
Pattern Pixel Width (nm):,   7.03,,,,
Exposure (ms):,  0.635,,,,
Digital Resolution:,228,,
Num Repeats:,6,,
PGA Gain:,64,,
Total Measurement Time in sec:,  2.675,,
Wavelength (nm),Absorbance (AU),Reference Signal (unitless),Sample Signal (unitless)
901.51,0.069050,108485,92538
905.376,0.076869,121306,101628
909.237,0.077931,131909,110241
913.095,0.080109,143299,119161
916.948,0.077648,156982,131281
922.079,0.080988,179937,149325
925.923,0.081965,200504,166019
929.762,0.083171,222660,183853
933.597,0.082216,244426,202270
937.427,0.081896,263972,218606
941.254,0.081149,281845,233809
945.076,0.081355,297271,246489
950.165,0.079198,315605,262994
953.978,0.078836,328029,273575
957.786,0.079676,340470,283402
961.59,0.079540,352317,293355
965.389,0.079263,363056,302490
969.185,0.079563,373162,310695
972.976,0.080189,382632,318121
976.763,0.080526,391202,324994
981.806,0.080762,400190,332280
985.583,0.081022,406088,336975
989.355,0.081662,410162,339855
993.124,0.082151,412868,341712
996.888,0.082546,414263,342555
1000.65,0.084101,415476,342330
1004.4,0.084419,415479,342082
1009.41,0.086137,414358,339812
1013.15,0.085915,412923,338808
1016.89,0.086934,411526,336871
1020.63,0.085739,409066,335780
1024.36,0.087079,406777,332872
1028.09,0.086312,404427,331534
1031.82,0.087116,401911,328862
1036.78,0.086318,398410,326597
1040.49,0.085877,396204,325119
1044.2,0.085936,394236,323460
1047.91,0.085471,392042,322004
1051.61,0.085469,389823,320183
1055.31,0.084691,388234,319450
1059,0.084757,387599,318879
1063.92,0.083652,386688,318940
1067.61,0.083608,386598,318898
1071.29,0.083409,387377,319687
1074.96,0.081810,388536,321826
1078.63,0.081819,389855,322912
1082.3,0.080738,391215,324846
1085.96,0.080112,393215,326978
1090.84,0.078860,396270,330469
1094.49,0.078406,398760,332894
1098.14,0.078010,400987,335058
1101.79,0.077285,403477,337702
1105.43,0.077680,406116,339602
1109.06,0.076697,407701,341700
1112.7,0.076193,409859,343907
1117.53,0.076039,412494,346241
1121.15,0.076147,414909,348182
1124.77,0.076528,416559,349260
1128.38,0.077860,418532,349839
1131.99,0.078484,419956,350526
1135.6,0.080005,421946,350955
1139.2,0.081776,423881,351130
1143.99,0.083581,426786,352070
1147.58,0.084327,428617,352974
1151.17,0.085385,431169,354211
1154.75,0.086440,433579,355327
1158.33,0.088053,436264,356202
1161.91,0.089669,439132,357212
1165.48,0.092054,442389,357891
1169.04,0.094122,446101,359179
1173.79,0.097443,451929,361100
1177.34,0.098725,456026,363299
1180.9,0.101310,461306,365325
1184.44,0.103002,467657,368914
1187.99,0.104092,473969,372956
1191.52,0.103731,479856,377903
1195.06,0.103732,487372,383821
1199.76,0.103558,497347,391833
1203.29,0.103094,504311,397745
1206.81,0.102107,511507,404338
1210.33,0.101548,519078,410851
1213.84,0.100935,527163,417840
1217.35,0.100421,534208,423925
1220.85,0.099662,540472,429646
1225.51,0.099400,549929,437428
1229.01,0.098483,556888,443900
1232.5,0.098015,562180,448601
1235.98,0.097475,567975,453789
1239.46,0.096213,574815,460591
1242.94,0.095508,582782,467733
1246.41,0.094897,591476,475379
1251.03,0.094793,604016,485574
1254.5,0.095112,612289,491863
1257.96,0.095348,619125,497085
1261.41,0.095785,624551,500937
1264.86,0.095821,629900,505185
1268.31,0.096616,634345,507820
1271.75,0.097415,638574,510266
1276.33,0.097824,642499,512919
1279.76,0.097714,645905,515768
1283.19,0.096895,648307,518663
1286.61,0.096894,650446,520376
1290.03,0.096572,652132,522112
1293.44,0.095990,653907,524235
1296.85,0.096020,655963,525847
1301.39,0.095588,657349,527483
1304.8,0.095848,657558,527334
1308.19,0.096044,658515,527863
1311.58,0.095778,658804,528419
1314.97,0.096348,659011,527892
1318.36,0.096809,658272,526740
1321.73,0.097384,658022,525843
1326.23,0.098210,657870,524723
1329.6,0.098982,656482,522686
1332.97,0.100005,654926,520220
1336.33,0.101479,653727,517508
1339.69,0.103078,652497,514637
1343.04,0.104545,649913,510870
1346.39,0.106473,647671,506852
1349.73,0.108477,645338,502702
1354.18,0.111841,641175,495605
1357.52,0.113594,638376,491454
1360.85,0.115552,635805,487273
1364.17,0.117825,633413,482905
1367.49,0.119955,631026,478732
1370.81,0.121778,628050,474478
1374.12,0.124175,625034,469601
1378.54,0.127303,620272,462678
1381.84,0.130584,616892,456694
1385.14,0.134204,613613,450496
1388.43,0.138018,611526,445038
1391.72,0.143515,610663,438820
1395.01,0.147884,610634,434407
1398.29,0.152947,611700,430122
1402.66,0.160201,614051,424623
1405.93,0.165861,616268,420638
1409.2,0.170995,617795,416725
1412.46,0.176355,618872,412331
1415.72,0.180594,619795,408935
1418.98,0.184664,620495,405578
1422.23,0.188225,621087,402650
1426.56,0.192440,621375,398946
1429.8,0.194394,621616,397309
1433.04,0.197963,622129,394382
1436.27,0.199711,621526,392417
1439.5,0.201698,621113,390367
1442.72,0.204289,620921,387925
1445.94,0.206702,620270,385371
1450.23,0.209838,618860,381728
1453.44,0.212320,617697,378840
1456.64,0.215135,616264,375519
1459.85,0.217908,614413,372008
1463.04,0.220639,612307,368409
1466.24,0.223621,610032,364529
1469.43,0.226672,607345,360382
1473.67,0.232180,603789,353757
1476.85,0.237085,601175,348270
1480.02,0.241864,597737,342489
1483.19,0.247978,594479,335860
1486.36,0.252902,591232,330260
1489.52,0.257674,587853,324784
1492.68,0.260444,583875,320535
1496.89,0.262210,578062,316056
1500.03,0.262702,574159,313567
1503.18,0.262773,570285,311400
1506.32,0.261492,565444,309669
1509.45,0.260276,560571,307861
1512.58,0.258643,555821,306402
1515.71,0.256780,550344,304687
1519.87,0.254352,543983,302854
1522.99,0.251776,538764,301733
1526.1,0.248840,533692,300920
1529.21,0.245649,527902,299850
1532.32,0.243142,521886,298149
1535.42,0.240317,515888,296646
1538.51,0.237574,509987,295111
1541.6,0.234656,503936,293575
1545.72,0.230639,494694,290869
1548.8,0.227981,488378,288918
1551.88,0.225650,481832,286580
1554.95,0.223515,474989,283902
1558.02,0.221395,467818,280984
1561.08,0.219335,460730,278043
1564.15,0.219766,454170,273812
1568.22,0.219498,444181,267955
1571.27,0.218103,436947,264439
1574.32,0.216860,429598,260737
1577.36,0.216142,422039,256573
1580.4,0.214586,414375,252818
1583.43,0.213227,406354,248701
1586.46,0.211957,398475,244593
1590.49,0.209194,388982,240290
1593.51,0.207986,380708,235834
1596.53,0.205258,372727,232345
1599.54,0.203719,365060,228373
1602.55,0.202038,357543,224538
1605.55,0.199314,349495,220865
1608.55,0.198024,341154,216235
1612.54,0.194837,330877,211266
1615.53,0.193594,322904,206766
1618.51,0.192913,315116,202096
1621.49,0.191850,307217,197513
1624.47,0.190603,299481,193093
1627.44,0.189538,292112,188804
1630.41,0.188736,284245,184059
1634.36,0.186907,274079,178225
1637.32,0.187278,266916,173419
1640.27,0.186587,259612,168942
1643.22,0.182995,251804,165222
1646.16,0.184000,244348,159959
1649.1,0.182920,236703,155340
1652.04,0.180349,228171,150630
1655.95,0.177191,215408,143242
1658.88,0.174257,204937,137203
1661.8,0.168959,193395,131065
1664.72,0.161516,179728,123908
1667.63,0.149384,163642,116014
1670.54,0.137629,146312,106574
1673.44,0.120933,128451,97231
1677.31,0.102447,105080,82999
1680.21,0.088365,88906,72538
1683.1,0.087473,75033,61345
1685.99,0.085065,63520,52221
1688.87,0.087821,53714,43880
1691.75,0.090775,45653,37042
1694.62,0.099185,39137,31146
1697.49,0.102357,33776,26684
1701.31,0.105197,28175,22114