File: samples/wool/wool-000811/Column 1_050545_20150331_115729.csv
Method:,Column 1,,
Host Date-Time:,31/3/15 @ 11:57:29,,
Header Version:,1,,
System Temp (C):,32.85,,
Detector Temp (C):,31.37,,
Humidity (%):,2.54,,
Lamp PD:,3824,,
Shift Vector Coefficients:,-10.5391,0.0761263,-0.000134223,,
Pixel to Wavelength Coefficients:,1775.68,-0.916766,-0.000235065,,
Serial Number:,5510004,,
Scan Config Name:,Column 1,,
Scan Config Type:,Slew,,
Section 1,,
Start wavelength (nm):,900,,
End wavelength (nm):,1700,,
Pattern Pixel Width (nm):,   7.03,,,,
Exposure (ms):,  0.635,,,,
Digital Resolution:,228,,
Num Repeats:,6,,
PGA Gain:,64,,
Total Measurement Time in sec:,  2.726,,
Wavelength (nm),Absorbance (AU),Reference Signal (unitless),Sample Signal (unitless)
901.51,0.046708,108485,97423
905.376,0.051195,121306,107817
909.237,0.053714,131909,116563
913.095,0.053964,143299,126555
916.948,0.052954,156982,138962
922.079,0.054229,179937,158815
925.923,0.054182,200504,176987
929.762,0.055610,222660,195899
933.597,0.056016,244426,214848
937.427,0.055040,263972,232551
941.254,0.055762,281845,247884
945.076,0.055825,297271,261413
950.165,0.055274,315605,277888
953.978,0.054773,328029,289161
957.786,0.055887,340470,299359
961.59,0.055328,352317,310174
965.389,0.055907,363056,319203
969.185,0.055702,373162,328243
972.976,0.056760,382632,335754
976.763,0.057306,391202,342843
981.806,0.057961,400190,350191
985.583,0.059179,406088,354357
989.355,0.059322,410162,357794
993.124,0.059652,412868,359881
996.888,0.060394,414263,360481
1000.65,0.060887,415476,361126
1004.4,0.061990,415479,360213
1009.41,0.063442,414358,358042
1013.15,0.064033,412923,356317
1016.89,0.064632,411526,354622
1020.63,0.064382,409066,352705
1024.36,0.064060,406777,350991
1028.09,0.063854,404427,349129
1031.82,0.063369,401911,347345
1036.78,0.062601,398410,344929
1040.49,0.062860,396204,342814
1044.2,0.061580,394236,342118
1047.91,0.061684,392042,340133
1051.61,0.060172,389823,339387
1055.31,0.060444,388234,337792
1059,0.059061,387599,338315
1063.92,0.057716,386688,338567
1067.61,0.056884,386598,339137
1071.29,0.056797,387377,339889
1074.96,0.055320,388536,342067
1078.63,0.055201,389855,343322
1082.3,0.053940,391215,345522
1085.96,0.053502,393215,347639
1090.84,0.052773,396270,350928
1094.49,0.052413,398760,353426
1098.14,0.052035,400987,355709
1101.79,0.052225,403477,357762
1105.43,0.051412,406116,360776
1109.06,0.051100,407701,362445
1112.7,0.050374,409859,364973
1117.53,0.051095,412494,366710
1121.15,0.051515,414909,368500
1124.77,0.052404,416559,369209
1128.38,0.053777,418532,369787
1131.99,0.054785,419956,370185
1135.6,0.057302,421946,369790
1139.2,0.059630,423881,369500
1143.99,0.062391,426786,369674
1147.58,0.063360,428617,370433
1151.17,0.064617,431169,371561
1154.75,0.066216,433579,372265
1158.33,0.068057,436264,372986
1161.91,0.070703,439132,373157
1165.48,0.073732,442389,373312
1169.04,0.076679,446101,373899
1173.79,0.080833,451929,375178
1177.34,0.083237,456026,376489
1180.9,0.085916,461306,378506
1184.44,0.087822,467657,382037
1187.99,0.088515,473969,386576
1191.52,0.088022,479856,391822
1195.06,0.087646,487372,398304
1199.76,0.086280,497347,407736
1203.29,0.084733,504311,414921
1206.81,0.084203,511507,421355
1210.33,0.082925,519078,428852
1213.84,0.081922,527163,436539
1217.35,0.080663,534208,443657
1220.85,0.079072,540472,450507
1225.51,0.077695,549929,459845
1229.01,0.077325,556888,466061
1232.5,0.076036,562180,471888
1235.98,0.075542,567975,477295
1239.46,0.074407,574815,484307
1242.94,0.072999,582782,492614
1246.41,0.072321,591476,500745
1251.03,0.071738,604016,512048
1254.5,0.072044,612289,518695
1257.96,0.072243,619125,524246
1261.41,0.073052,624551,527856
1264.86,0.073626,629900,531674
1268.31,0.074430,634345,534436
1271.75,0.074804,638574,537536
1276.33,0.075328,642499,540187
1279.76,0.075386,645905,542979
1283.19,0.074470,648307,546149
1286.61,0.074141,650446,548366
1290.03,0.073839,652132,550169
1293.44,0.073103,653907,552603
1296.85,0.073113,655963,554327
1301.39,0.072730,657349,555989
1304.8,0.072966,657558,555863
1308.19,0.073000,658515,556629
1311.58,0.072897,658804,557005
1314.97,0.073602,659011,556277
1318.36,0.074506,658272,554497
1321.73,0.074868,658022,553825
1326.23,0.076237,657870,551954
1329.6,0.076557,656482,550384
1332.97,0.078167,654926,547048
1336.33,0.079534,653727,544330
1339.69,0.081341,652497,541050
1343.04,0.083048,649913,536793
1346.39,0.085780,647671,531587
1349.73,0.087880,645338,527117
1354.18,0.091512,641175,519355
1357.52,0.094620,638376,513401
1360.85,0.096578,635805,509033
1364.17,0.098642,633413,504714
1367.49,0.101966,631026,498978
1370.81,0.104402,628050,493847
1374.12,0.107175,625034,488347
1378.54,0.110503,620272,480927
1381.84,0.114598,616892,473817
1385.14,0.119314,613613,466209
1388.43,0.124359,611526,459257
1391.72,0.129899,610663,452796
1395.01,0.135392,610634,447084
1398.29,0.141568,611700,441540
1402.66,0.149825,614051,434890
1405.93,0.156711,616268,429594
1409.2,0.163296,617795,424178
1412.46,0.168886,618872,419483
1415.72,0.174118,619795,415078
1418.98,0.178724,620495,411163
1422.23,0.182629,621087,407872
1426.56,0.187440,621375,403565
1429.8,0.190887,621616,400530
1433.04,0.193028,622129,398889
1436.27,0.195673,621526,396083
1439.5,0.197927,621113,393771
1442.72,0.200602,620921,391232
1445.94,0.203957,620270,387814
1450.23,0.206745,618860,384457
1453.44,0.210052,617697,380823
1456.64,0.212842,616264,377507
1459.85,0.215646,614413,373951
1463.04,0.218277,612307,370418
1466.24,0.221402,610032,366396
1469.43,0.224590,607345,362114
1473.67,0.230061,603789,355487
1476.85,0.235007,601175,349940
1480.02,0.240671,597737,343431
1483.19,0.247287,594479,336395
1486.36,0.253621,591232,329714
1489.52,0.258626,587853,324073
1492.68,0.262623,583875,318931
1496.89,0.265165,578062,313913
1500.03,0.266353,574159,310942
1503.18,0.266496,570285,308742
1506.32,0.266200,565444,306330
1509.45,0.264752,560571,304704
1512.58,0.263659,555821,302884
1515.71,0.261004,550344,301738
1519.87,0.257992,543983,300326
1522.99,0.255109,538764,299426
1526.1,0.253174,533692,297932
1529.21,0.249967,527902,296884
1532.32,0.246638,521886,295759
1535.42,0.243082,515888,294763
1538.51,0.240194,509987,293336
1541.6,0.236667,503936,292219
1545.72,0.231491,494694,290299
1548.8,0.228192,488378,288778
1551.88,0.224959,481832,287036
1554.95,0.222806,474989,284366
1558.02,0.221327,467818,281028
1561.08,0.219811,460730,277738
1564.15,0.219249,454170,274138
1568.22,0.218640,444181,268485
1571.27,0.217350,436947,264898
1574.32,0.216646,429598,260865
1577.36,0.215051,422039,257218
1580.4,0.213243,414375,253601
1583.43,0.210664,406354,250173
1586.46,0.209556,398475,245949
1590.49,0.206951,388982,241534
1593.51,0.204081,380708,237964
1596.53,0.201776,372727,234215
1599.54,0.199191,365060,230767
1602.55,0.197266,357543,227019
1605.55,0.195128,349495,223004
1608.55,0.192661,341154,218922
1612.54,0.190261,330877,213504
1615.53,0.187417,322904,209728
1618.51,0.186149,315116,205268
1621.49,0.184742,307217,200772
1624.47,0.183312,299481,196362
1627.44,0.181925,292112,192143
1630.41,0.180516,284245,187576
1634.36,0.179370,274079,181345
1637.32,0.177262,266916,177465
1640.27,0.176588,259612,172877
1643.22,0.175128,251804,168242
1646.16,0.174366,244348,163547
1649.1,0.173159,236703,158871
1652.04,0.173890,228171,152887
1655.95,0.170817,215408,145360
1658.88,0.168028,204937,139185
1661.8,0.166866,193395,131698
1664.72,0.162952,179728,123499
1667.63,0.156023,163642,114254
1670.54,0.149233,146312,103764
1673.44,0.140675,128451,92910
1677.31,0.133633,105080,77248
1680.21,0.133373,88906,65397
1683.1,0.132064,75033,55359
1685.99,0.139464,63520,46073
1688.87,0.143084,53714,38637
1691.75,0.151924,45653,32177
1694.62,0.161546,39137,26980
1697.49,0.156765,33776,23542
1701.31,0.162981,28175,19359