File: samples/wool/wool-000811/Column 1_050536_20150331_115304.csv
Method:,Column 1,,
Host Date-Time:,31/3/15 @ 11:53:4,,
Header Version:,1,,
System Temp (C):,31.47,,
Detector Temp (C):,30.09,,
Humidity (%):,3.75,,
Lamp PD:,3827,,
Shift Vector Coefficients:,-10.5391,0.0761263,-0.000134223,,
Pixel to Wavelength Coefficients:,1775.68,-0.916766,-0.000235065,,
Serial Number:,5510004,,
Scan Config Name:,Column 1,,
Scan Config Type:,Slew,,
Section 1,,
Start wavelength (nm):,900,,
End wavelength (nm):,1700,,
Pattern Pixel Width (nm):,   7.03,,,,
Exposure (ms):,  0.635,,,,
Digital Resolution:,228,,
Num Repeats:,6,,
PGA Gain:,64,,
Total Measurement Time in sec:,  2.674,,
Wavelength (nm),Absorbance (AU),Reference Signal (unitless),Sample Signal (unitless)
901.51,0.045026,108485,97801
905.376,0.048913,121306,108385
909.237,0.050976,131909,117300
913.095,0.052070,143299,127108
916.948,0.051285,156982,139497
922.079,0.049510,179937,160550
925.923,0.049384,200504,178953
929.762,0.049713,222660,198577
933.597,0.051634,244426,217027
937.427,0.051793,263972,234296
941.254,0.052691,281845,249643
945.076,0.052867,297271,263200
950.165,0.052754,315605,279505
953.978,0.052887,328029,290419
957.786,0.053410,340470,301071
961.59,0.054154,352317,311014
965.389,0.054512,363056,320230
969.185,0.054717,373162,328988
972.976,0.054854,382632,337231
976.763,0.055777,391202,344052
981.806,0.056646,400190,351253
985.583,0.056882,406088,356236
989.355,0.057505,410162,359294
993.124,0.058245,412868,361049
996.888,0.058850,414263,361765
1000.65,0.059208,415476,362525
1004.4,0.060953,415479,361074
1009.41,0.062243,414358,359032
1013.15,0.063024,412923,357145
1016.89,0.063199,411526,355794
1020.63,0.062761,409066,354024
1024.36,0.062769,406777,352036
1028.09,0.062662,404427,350089
1031.82,0.062218,401911,348267
1036.78,0.061221,398410,346026
1040.49,0.061066,396204,344233
1044.2,0.060762,394236,342763
1047.91,0.060134,392042,341349
1051.61,0.059760,389823,339709
1055.31,0.058679,388234,339168
1059,0.057771,387599,339322
1063.92,0.056256,386688,339707
1067.61,0.055587,386598,340152
1071.29,0.055478,387377,340923
1074.96,0.054575,388536,342654
1078.63,0.053849,389855,344393
1082.3,0.052597,391215,346592
1085.96,0.052088,393215,348772
1090.84,0.051484,396270,351971
1094.49,0.051138,398760,354465
1098.14,0.050443,400987,357016
1101.79,0.050849,403477,358897
1105.43,0.050411,406116,361609
1109.06,0.049633,407701,363671
1112.7,0.049986,409859,365299
1117.53,0.049932,412494,367693
1121.15,0.051217,414909,368753
1124.77,0.051558,416559,369929
1128.38,0.052766,418532,370649
1131.99,0.055041,419956,369967
1135.6,0.056473,421946,370496
1139.2,0.058771,423881,370231
1143.99,0.061795,426786,370182
1147.58,0.062527,428617,371144
1151.17,0.064409,431169,371739
1154.75,0.065448,433579,372924
1158.33,0.067994,436264,373040
1161.91,0.070409,439132,373410
1165.48,0.073273,442389,373707
1169.04,0.075950,446101,374527
1173.79,0.080631,451929,375352
1177.34,0.082683,456026,376970
1180.9,0.085639,461306,378748
1184.44,0.087381,467657,382425
1187.99,0.088338,473969,386734
1191.52,0.087807,479856,392016
1195.06,0.087285,487372,398635
1199.76,0.085567,497347,408406
1203.29,0.084554,504311,415092
1206.81,0.083449,511507,422088
1210.33,0.081887,519078,429878
1213.84,0.080528,527163,437942
1217.35,0.079368,534208,444982
1220.85,0.078841,540472,450746
1225.51,0.077316,549929,460247
1229.01,0.076220,556888,467248
1232.5,0.075664,562180,472293
1235.98,0.074957,567975,477939
1239.46,0.073481,574815,485341
1242.94,0.072524,582782,493154
1246.41,0.071742,591476,501413
1251.03,0.071028,604016,512885
1254.5,0.071444,612289,519413
1257.96,0.071881,619125,524684
1261.41,0.072478,624551,528555
1264.86,0.072783,629900,532707
1268.31,0.073752,634345,535271
1271.75,0.074001,638574,538530
1276.33,0.074647,642499,541035
1279.76,0.074364,645905,544258
1283.19,0.073968,648307,546780
1286.61,0.073784,650446,548817
1290.03,0.073478,652132,550627
1293.44,0.072637,653907,553196
1296.85,0.072485,655963,555129
1301.39,0.072470,657349,556322
1304.8,0.072257,657558,556771
1308.19,0.072965,658515,556674
1311.58,0.073056,658804,556801
1314.97,0.073715,659011,556132
1318.36,0.074160,658272,554939
1321.73,0.074437,658022,554375
1326.23,0.075665,657870,552682
1329.6,0.076776,656482,550107
1332.97,0.078199,654926,547007
1336.33,0.079554,653727,544305
1339.69,0.081518,652497,540830
1343.04,0.083666,649913,536030
1346.39,0.086009,647671,531307
1349.73,0.088630,645338,526208
1354.18,0.091937,641175,518847
1357.52,0.094303,638376,513776
1360.85,0.096846,635805,508719
1364.17,0.099085,633413,504199
1367.49,0.102126,631026,498794
1370.81,0.104960,628050,493213
1374.12,0.107083,625034,488451
1378.54,0.111372,620272,479966
1381.84,0.115783,616892,472527
1385.14,0.120582,613613,464850
1388.43,0.125959,611526,457568
1391.72,0.131337,610663,451299
1395.01,0.137922,610634,444487
1398.29,0.143840,611700,439237
1402.66,0.153258,614051,431466
1405.93,0.160500,616268,425863
1409.2,0.166752,617795,420816
1412.46,0.172957,618872,415570
1415.72,0.178712,619795,410711
1418.98,0.182931,620495,407200
1422.23,0.187813,621087,403032
1426.56,0.192677,621375,398728
1429.8,0.196020,621616,395824
1433.04,0.199062,622129,393386
1436.27,0.201331,621526,390956
1439.5,0.203906,621113,388387
1442.72,0.206929,620921,385574
1445.94,0.209390,620270,382993
1450.23,0.213023,618860,378939
1453.44,0.215894,617697,375735
1456.64,0.218897,616264,372280
1459.85,0.221469,614413,368970
1463.04,0.223868,612307,365680
1466.24,0.227183,610032,361551
1469.43,0.229525,607345,358023
1473.67,0.234614,603789,351780
1476.85,0.239422,601175,346401
1480.02,0.244814,597737,340170
1483.19,0.250491,594479,333922
1486.36,0.256496,591232,327538
1489.52,0.262004,587853,321562
1492.68,0.264900,583875,317263
1496.89,0.267742,578062,312056
1500.03,0.268343,574159,309520
1503.18,0.268910,570285,307031
1506.32,0.267287,565444,305564
1509.45,0.267757,560571,302603
1512.58,0.266024,555821,301239
1515.71,0.263811,550344,299794
1519.87,0.260514,543983,298587
1522.99,0.257831,538764,297555
1526.1,0.255285,533692,296487
1529.21,0.251819,527902,295620
1532.32,0.248470,521886,294514
1535.42,0.245740,515888,292965
1538.51,0.242065,509987,292075
1541.6,0.239157,503936,290548
1545.72,0.234117,494694,288549
1548.8,0.230640,488378,287155
1551.88,0.228499,481832,284706
1554.95,0.226293,474989,282092
1558.02,0.222958,467818,279975
1561.08,0.222022,460730,276328
1564.15,0.221027,454170,273018
1568.22,0.219694,444181,267834
1571.27,0.219365,436947,263672
1574.32,0.218355,429598,259841
1577.36,0.216919,422039,256114
1580.4,0.214349,414375,252956
1583.43,0.212758,406354,248970
1586.46,0.210875,398475,245203
1590.49,0.208973,388982,240412
1593.51,0.205719,380708,237068
1596.53,0.204076,372727,232978
1599.54,0.201086,365060,229762
1602.55,0.199539,357543,225834
1605.55,0.197086,349495,222001
1608.55,0.194265,341154,218115
1612.54,0.191528,330877,212882
1615.53,0.189470,322904,208739
1618.51,0.188098,315116,204349
1621.49,0.186761,307217,199841
1624.47,0.185274,299481,195477
1627.44,0.184175,292112,191150
1630.41,0.182653,284245,186655
1634.36,0.179483,274079,181298
1637.32,0.180110,266916,176305
1640.27,0.178340,259612,172181
1643.22,0.178221,251804,167048
1646.16,0.176576,244348,162717
1649.1,0.175772,236703,157918
1652.04,0.176737,228171,151888
1655.95,0.174752,215408,144049
1658.88,0.173833,204937,137337
1661.8,0.171998,193395,130151
1664.72,0.173708,179728,120478
1667.63,0.167544,163642,111263
1670.54,0.163767,146312,100349
1673.44,0.160065,128451,88853
1677.31,0.159926,105080,72710
1680.21,0.161563,88906,61287
1683.1,0.162317,75033,51634
1685.99,0.172706,63520,42678
1688.87,0.173339,53714,36037
1691.75,0.175340,45653,30488
1694.62,0.187976,39137,25387
1697.49,0.194798,33776,21568
1701.31,0.192401,28175,18091