File: samples/wool/wool-000811/Column 1_050614_20150331_123026.csv
Method:,Column 1,,
Host Date-Time:,31/3/15 @ 12:30:26,,
Header Version:,1,,
System Temp (C):,34.09,,
Detector Temp (C):,34.92,,
Humidity (%):,1.66,,
Lamp PD:,3818,,
Shift Vector Coefficients:,-10.5391,0.0761263,-0.000134223,,
Pixel to Wavelength Coefficients:,1775.68,-0.916766,-0.000235065,,
Serial Number:,5510004,,
Scan Config Name:,Column 1,,
Scan Config Type:,Slew,,
Section 1,,
Start wavelength (nm):,900,,
End wavelength (nm):,1700,,
Pattern Pixel Width (nm):,   7.03,,,,
Exposure (ms):,  0.635,,,,
Digital Resolution:,228,,
Num Repeats:,6,,
PGA Gain:,64,,
Total Measurement Time in sec:,  2.675,,
Wavelength (nm),Absorbance (AU),Reference Signal (unitless),Sample Signal (unitless)
901.51,0.069134,108485,92520
905.376,0.075661,121306,101911
909.237,0.076307,131909,110654
913.095,0.078309,143299,119656
916.948,0.077539,156982,131314
922.079,0.080279,179937,149569
925.923,0.081547,200504,166179
929.762,0.082350,222660,184201
933.597,0.081791,244426,202468
937.427,0.081570,263972,218770
941.254,0.080181,281845,234331
945.076,0.079479,297271,247556
950.165,0.077864,315605,263803
953.978,0.077449,328029,274450
957.786,0.077521,340470,284812
961.59,0.078005,352317,294394
965.389,0.077672,363056,303600
969.185,0.077257,373162,312349
972.976,0.078652,382632,319249
976.763,0.078827,391202,326268
981.806,0.078976,400190,333649
985.583,0.079386,406088,338247
989.355,0.079881,410162,341251
993.124,0.080272,412868,343194
996.888,0.080537,414263,344143
1000.65,0.081460,415476,344418
1004.4,0.082311,415479,343746
1009.41,0.083647,414358,341766
1013.15,0.084658,412923,339790
1016.89,0.084872,411526,338474
1020.63,0.084328,409066,336872
1024.36,0.084958,406777,334502
1028.09,0.084414,404427,332986
1031.82,0.084605,401911,330769
1036.78,0.084197,398410,328196
1040.49,0.083905,396204,326598
1044.2,0.083523,394236,325262
1047.91,0.083277,392042,323635
1051.61,0.083080,389823,321949
1055.31,0.083142,388234,320591
1059,0.082285,387599,320699
1063.92,0.081152,386688,320781
1067.61,0.081190,386598,320678
1071.29,0.080420,387377,321895
1074.96,0.079674,388536,323413
1078.63,0.078859,389855,325120
1082.3,0.078155,391215,326784
1085.96,0.077783,393215,328736
1090.84,0.076892,396270,331970
1094.49,0.076545,398760,334323
1098.14,0.075707,400987,336840
1101.79,0.074973,403477,339505
1105.43,0.075136,406116,341597
1109.06,0.074679,407701,343291
1112.7,0.073666,409859,345914
1117.53,0.073650,412494,348151
1121.15,0.074178,414909,349764
1124.77,0.073961,416559,351330
1128.38,0.074695,418532,352398
1131.99,0.076031,419956,352511
1135.6,0.077127,421946,353289
1139.2,0.078589,423881,353716
1143.99,0.080850,426786,354291
1147.58,0.081058,428617,355641
1151.17,0.082438,431169,356623
1154.75,0.083220,433579,357971
1158.33,0.084330,436264,359269
1161.91,0.086242,439132,360042
1165.48,0.088192,442389,361087
1169.04,0.090632,446101,362077
1173.79,0.094236,451929,363776
1177.34,0.096511,456026,365156
1180.9,0.098096,461306,368038
1184.44,0.100427,467657,371108
1187.99,0.101223,473969,375428
1191.52,0.101166,479856,380141
1195.06,0.101055,487372,386194
1199.76,0.100441,497347,394656
1203.29,0.099892,504311,400688
1206.81,0.099093,511507,407154
1210.33,0.098586,519078,413663
1213.84,0.097813,527163,420854
1217.35,0.097445,534208,426840
1220.85,0.096799,540472,432488
1225.51,0.095683,549929,441188
1229.01,0.095460,556888,447000
1232.5,0.094688,562180,452051
1235.98,0.094671,567975,456729
1239.46,0.093018,574815,463992
1242.94,0.091973,582782,471556
1246.41,0.091451,591476,479166
1251.03,0.091453,604016,489323
1254.5,0.091638,612289,495814
1257.96,0.092121,619125,500792
1261.41,0.092741,624551,504460
1264.86,0.093093,629900,508369
1268.31,0.093578,634345,511384
1271.75,0.094502,638574,513700
1276.33,0.094556,642499,516793
1279.76,0.094336,645905,519796
1283.19,0.093950,648307,522192
1286.61,0.093514,650446,524442
1290.03,0.093202,652132,526179
1293.44,0.092450,653907,528525
1296.85,0.092445,655963,530193
1301.39,0.091995,657349,531864
1304.8,0.092189,657558,531796
1308.19,0.092405,658515,532305
1311.58,0.092159,658804,532841
1314.97,0.092614,659011,532450
1318.36,0.093322,658272,530986
1321.73,0.093351,658022,530749
1326.23,0.094563,657870,529148
1329.6,0.094948,656482,527563
1332.97,0.095780,654926,525306
1336.33,0.096872,653727,523027
1339.69,0.098066,652497,520610
1343.04,0.099783,649913,516502
1346.39,0.101486,647671,512706
1349.73,0.103293,645338,508738
1354.18,0.106309,641175,501958
1357.52,0.107959,638376,497872
1360.85,0.110155,635805,493366
1364.17,0.112362,633413,489018
1367.49,0.114440,631026,484850
1370.81,0.116139,628050,480679
1374.12,0.118939,625034,475297
1378.54,0.121437,620272,468970
1381.84,0.124281,616892,463370
1385.14,0.127570,613613,457430
1388.43,0.130910,611526,452382
1391.72,0.135014,610663,447494
1395.01,0.139082,610634,443301
1398.29,0.143267,611700,439816
1402.66,0.149700,614051,435015
1405.93,0.154044,616268,432241
1409.2,0.158984,617795,428411
1412.46,0.163338,618872,424877
1415.72,0.166724,619795,422206
1418.98,0.170368,620495,419151
1422.23,0.173925,621087,416128
1426.56,0.177026,621375,413359
1429.8,0.179779,621616,410907
1433.04,0.182178,622129,408980
1436.27,0.184657,621526,406258
1439.5,0.185808,621113,404914
1442.72,0.189066,620921,401763
1445.94,0.191737,620270,398881
1450.23,0.195259,618860,394760
1453.44,0.197696,617697,391814
1456.64,0.200640,616264,388264
1459.85,0.203416,614413,384631
1463.04,0.206609,612307,380505
1466.24,0.209584,610032,376503
1469.43,0.213698,607345,371311
1473.67,0.219535,603789,364209
1476.85,0.225673,601175,357543
1480.02,0.231277,597737,350940
1483.19,0.238018,594479,343652
1486.36,0.243846,591232,337219
1489.52,0.249345,587853,331073
1492.68,0.253028,583875,326056
1496.89,0.254342,578062,321834
1500.03,0.255507,574159,318805
1503.18,0.255423,570285,316715
1506.32,0.254348,565444,314805
1509.45,0.253022,560571,313046
1512.58,0.250886,555821,311924
1515.71,0.249329,550344,309960
1519.87,0.246675,543983,308255
1522.99,0.243737,538764,307370
1526.1,0.240954,533692,306434
1529.21,0.238642,527902,304727
1532.32,0.235440,521886,303484
1535.42,0.232422,515888,302088
1538.51,0.229765,509987,300465
1541.6,0.226530,503936,299120
1545.72,0.222070,494694,296665
1548.8,0.219324,488378,294735
1551.88,0.217645,481832,291911
1554.95,0.215394,474989,289261
1558.02,0.214262,467818,285637
1561.08,0.212282,460730,282595
1564.15,0.211888,454170,278824
1568.22,0.211208,444181,273119
1571.27,0.210163,436947,269318
1574.32,0.209273,429598,265332
1577.36,0.209112,422039,260760
1580.4,0.207324,414375,257081
1583.43,0.206322,406354,252687
1586.46,0.204830,398475,248640
1590.49,0.202659,388982,243933
1593.51,0.200756,380708,239793
1596.53,0.198017,372727,236251
1599.54,0.197049,365060,231908
1602.55,0.194372,357543,228537
1605.55,0.193046,349495,224076
1608.55,0.190875,341154,219824
1612.54,0.189507,330877,213875
1615.53,0.187398,322904,209737
1618.51,0.186619,315116,205046
1621.49,0.185021,307217,200643
1624.47,0.184829,299481,195677
1627.44,0.183494,292112,191450
1630.41,0.182495,284245,186723
1634.36,0.180572,274079,180844
1637.32,0.180068,266916,176322
1640.27,0.180656,259612,171265
1643.22,0.180092,251804,166330
1646.16,0.178111,244348,162143
1649.1,0.177862,236703,157160
1652.04,0.175401,228171,152356
1655.95,0.173277,215408,144539
1658.88,0.168618,204937,138996
1661.8,0.163044,193395,132862
1664.72,0.154518,179728,125921
1667.63,0.143214,163642,117674
1670.54,0.127232,146312,109156
1673.44,0.114913,128451,98588
1677.31,0.090780,105080,85259
1680.21,0.081747,88906,73652
1683.1,0.075836,75033,63011
1685.99,0.075687,63520,53361
1688.87,0.078044,53714,44879
1691.75,0.083474,45653,37670
1694.62,0.089956,39137,31815
1697.49,0.092016,33776,27327
1701.31,0.100897,28175,22334