File: samples/wool/wool-000811/Column 1_050578_20150331_121311.csv
Method:,Column 1,,
Host Date-Time:,31/3/15 @ 12:13:11,,
Header Version:,1,,
System Temp (C):,33.8,,
Detector Temp (C):,34.59,,
Humidity (%):,2.05,,
Lamp PD:,3819,,
Shift Vector Coefficients:,-10.5391,0.0761263,-0.000134223,,
Pixel to Wavelength Coefficients:,1775.68,-0.916766,-0.000235065,,
Serial Number:,5510004,,
Scan Config Name:,Column 1,,
Scan Config Type:,Slew,,
Section 1,,
Start wavelength (nm):,900,,
End wavelength (nm):,1700,,
Pattern Pixel Width (nm):,   7.03,,,,
Exposure (ms):,  0.635,,,,
Digital Resolution:,228,,
Num Repeats:,6,,
PGA Gain:,64,,
Total Measurement Time in sec:,  2.687,,
Wavelength (nm),Absorbance (AU),Reference Signal (unitless),Sample Signal (unitless)
901.51,0.072300,108485,91848
905.376,0.078676,121306,101206
909.237,0.081833,131909,109255
913.095,0.079683,143299,119278
916.948,0.082843,156982,129720
922.079,0.082456,179937,148821
925.923,0.084360,200504,165106
929.762,0.084911,222660,183118
933.597,0.085282,244426,200847
937.427,0.082745,263972,218179
941.254,0.082485,281845,233091
945.076,0.081752,297271,246264
950.165,0.081702,315605,261482
953.978,0.080233,328029,272696
957.786,0.081173,340470,282427
961.59,0.081484,352317,292045
965.389,0.081365,363056,301029
969.185,0.081416,373162,309372
972.976,0.081885,382632,316881
976.763,0.082194,391202,323748
981.806,0.083222,400190,330403
985.583,0.083132,406088,335342
989.355,0.083485,410162,338431
993.124,0.084378,412868,339964
996.888,0.084751,414263,340820
1000.65,0.085229,415476,341442
1004.4,0.086267,415479,340629
1009.41,0.088153,414358,338238
1013.15,0.087853,412923,337300
1016.89,0.088498,411526,335660
1020.63,0.088323,409066,333788
1024.36,0.088339,406777,331908
1028.09,0.088853,404427,329600
1031.82,0.088644,401911,327707
1036.78,0.088456,398410,324993
1040.49,0.087841,396204,323652
1044.2,0.087654,394236,322183
1047.91,0.086974,392042,320892
1051.61,0.087415,389823,318752
1055.31,0.087102,388234,317681
1059,0.086055,387599,317927
1063.92,0.085932,386688,317270
1067.61,0.084751,386598,318060
1071.29,0.084936,387377,318565
1074.96,0.083854,388536,320315
1078.63,0.083525,389855,321646
1082.3,0.082060,391215,323859
1085.96,0.081795,393215,325713
1090.84,0.080828,396270,328975
1094.49,0.080607,398760,331211
1098.14,0.080089,400987,333458
1101.79,0.079278,403477,336156
1105.43,0.079306,406116,338333
1109.06,0.078549,407701,340246
1112.7,0.078106,409859,342396
1117.53,0.077114,412494,345385
1121.15,0.078633,414909,346194
1124.77,0.078603,416559,347595
1128.38,0.079048,418532,348884
1131.99,0.080344,419956,349028
1135.6,0.082175,421946,349206
1139.2,0.083198,423881,349982
1143.99,0.085273,426786,350701
1147.58,0.086540,428617,351180
1151.17,0.087628,431169,352387
1154.75,0.089270,433579,353019
1158.33,0.090192,436264,354452
1161.91,0.092090,439132,355226
1165.48,0.094337,442389,356014
1169.04,0.096337,446101,357352
1173.79,0.099666,451929,359256
1177.34,0.101213,456026,361224
1180.9,0.103530,461306,363462
1184.44,0.105334,467657,366939
1187.99,0.106466,473969,370923
1191.52,0.106293,479856,375680
1195.06,0.106175,487372,381668
1199.76,0.105295,497347,390269
1203.29,0.104403,504311,396548
1206.81,0.104442,511507,402170
1210.33,0.103712,519078,408809
1213.84,0.103607,527163,415277
1217.35,0.102865,534208,421546
1220.85,0.101728,540472,427607
1225.51,0.101531,549929,435287
1229.01,0.100306,556888,442040
1232.5,0.099878,562180,446681
1235.98,0.099051,567975,452145
1239.46,0.098134,574815,458558
1242.94,0.097653,582782,465429
1246.41,0.096535,591476,473590
1251.03,0.096674,604016,483476
1254.5,0.097215,612289,489487
1257.96,0.097320,619125,494833
1261.41,0.097825,624551,498589
1264.86,0.098326,629900,502280
1268.31,0.098774,634345,505303
1271.75,0.099379,638574,507963
1276.33,0.099941,642499,510425
1279.76,0.099272,645905,513921
1283.19,0.099009,648307,516145
1286.61,0.098931,650446,517941
1290.03,0.098367,652132,519958
1293.44,0.098090,653907,521706
1296.85,0.097840,655963,523648
1301.39,0.097398,657349,525289
1304.8,0.097799,657558,524971
1308.19,0.097959,658515,525541
1311.58,0.098100,658804,525601
1314.97,0.099121,659011,524532
1318.36,0.099255,658272,523782
1321.73,0.099833,658022,522886
1326.23,0.100621,657870,521818
1329.6,0.102093,656482,518955
1332.97,0.102902,654926,516762
1336.33,0.104001,653727,514512
1339.69,0.105647,652497,511601
1343.04,0.107337,649913,507596
1346.39,0.109668,647671,503137
1349.73,0.111046,645338,499737
1354.18,0.114309,641175,492797
1357.52,0.116159,638376,488560
1360.85,0.118239,635805,484267
1364.17,0.120495,633413,479946
1367.49,0.122371,631026,476076
1370.81,0.124912,628050,471066
1374.12,0.127164,625034,466380
1378.54,0.130041,620272,459771
1381.84,0.133337,616892,453808
1385.14,0.137244,613613,447353
1388.43,0.142238,611526,440734
1391.72,0.146672,610663,435642
1395.01,0.151837,610634,430471
1398.29,0.157565,611700,425572
1402.66,0.165311,614051,419656
1405.93,0.171285,616268,415417
1409.2,0.176828,617795,411165
1412.46,0.181699,618872,407288
1415.72,0.186814,619795,403120
1418.98,0.190587,620495,400084
1422.23,0.194933,621087,396478
1426.56,0.199137,621375,392841
1429.8,0.202288,621616,390152
1433.04,0.204784,622129,388237
1436.27,0.207028,621526,385861
1439.5,0.209148,621113,383727
1442.72,0.211943,620921,381148
1445.94,0.213497,620270,379388
1450.23,0.217210,618860,375303
1453.44,0.219717,617697,372442
1456.64,0.222202,616264,369458
1459.85,0.225117,614413,365884
1463.04,0.227401,612307,362717
1466.24,0.230325,610032,358945
1469.43,0.233743,607345,354562
1473.67,0.237878,603789,349146
1476.85,0.243020,601175,343543
1480.02,0.247672,597737,337939
1483.19,0.253005,594479,331995
1486.36,0.258052,591232,326367
1489.52,0.261885,587853,321650
1492.68,0.264723,583875,317393
1496.89,0.266634,578062,312853
1500.03,0.267123,574159,310391
1503.18,0.266745,570285,308565
1506.32,0.265551,565444,306788
1509.45,0.264656,560571,304772
1512.58,0.263848,555821,302752
1515.71,0.261194,550344,301606
1519.87,0.257605,543983,300594
1522.99,0.256437,538764,298512
1526.1,0.253496,533692,297711
1529.21,0.251065,527902,296134
1532.32,0.248028,521886,294814
1535.42,0.245120,515888,293383
1538.51,0.242606,509987,291711
1541.6,0.239101,503936,290586
1545.72,0.235629,494694,287546
1548.8,0.232908,488378,285659
1551.88,0.229599,481832,283986
1554.95,0.227293,474989,281443
1558.02,0.226809,467818,277503
1561.08,0.225154,460730,274342
1564.15,0.224899,454170,270595
1568.22,0.223260,444181,265644
1571.27,0.223183,436947,261364
1574.32,0.221527,429598,257950
1577.36,0.219820,422039,254409
1580.4,0.218757,414375,250401
1583.43,0.217530,406354,246249
1586.46,0.216191,398475,242220
1590.49,0.213743,388982,237786
1593.51,0.212318,380708,233493
1596.53,0.209657,372727,230003
1599.54,0.207636,365060,226323
1602.55,0.205497,357543,222757
1605.55,0.203990,349495,218500
1608.55,0.201926,341154,214301
1612.54,0.200040,330877,208750
1615.53,0.197146,322904,205082
1618.51,0.196434,315116,200464
1621.49,0.195335,307217,195934
1624.47,0.194393,299481,191415
1627.44,0.193849,292112,186939
1630.41,0.192828,284245,182333
1634.36,0.190713,274079,176670
1637.32,0.190649,266916,172078
1640.27,0.190191,259612,167546
1643.22,0.188864,251804,163004
1646.16,0.187385,244348,158717
1649.1,0.187858,236703,153584
1652.04,0.185558,228171,148834
1655.95,0.182901,215408,141371
1658.88,0.178014,204937,136021
1661.8,0.173622,193395,129665
1664.72,0.166756,179728,122422
1667.63,0.153473,163642,114927
1670.54,0.140085,146312,105973
1673.44,0.122965,128451,96777
1677.31,0.105688,105080,82382
1680.21,0.094759,88906,71478
1683.1,0.091242,75033,60815
1685.99,0.088841,63520,51769
1688.87,0.092758,53714,43384
1691.75,0.097069,45653,36509
1694.62,0.111891,39137,30248
1697.49,0.111037,33776,26156
1701.31,0.117062,28175,21518