File: samples/wool/wool-000811/Column 1_050585_20150331_121616.csv
Method:,Column 1,,
Host Date-Time:,31/3/15 @ 12:16:16,,
Header Version:,1,,
System Temp (C):,33.76,,
Detector Temp (C):,34.57,,
Humidity (%):,1.86,,
Lamp PD:,3819,,
Shift Vector Coefficients:,-10.5391,0.0761263,-0.000134223,,
Pixel to Wavelength Coefficients:,1775.68,-0.916766,-0.000235065,,
Serial Number:,5510004,,
Scan Config Name:,Column 1,,
Scan Config Type:,Slew,,
Section 1,,
Start wavelength (nm):,900,,
End wavelength (nm):,1700,,
Pattern Pixel Width (nm):,   7.03,,,,
Exposure (ms):,  0.635,,,,
Digital Resolution:,228,,
Num Repeats:,6,,
PGA Gain:,64,,
Total Measurement Time in sec:,  2.723,,
Wavelength (nm),Absorbance (AU),Reference Signal (unitless),Sample Signal (unitless)
901.51,0.071200,108485,92081
905.376,0.077331,121306,101520
909.237,0.079636,131909,109809
913.095,0.079468,143299,119337
916.948,0.080229,156982,130503
922.079,0.081023,179937,149313
925.923,0.082554,200504,165794
929.762,0.084527,222660,183280
933.597,0.083959,244426,201460
937.427,0.082536,263972,218284
941.254,0.082233,281845,233226
945.076,0.081001,297271,246690
950.165,0.080601,315605,262146
953.978,0.079503,328029,273155
957.786,0.079898,340470,283257
961.59,0.080376,352317,292791
965.389,0.079481,363056,302338
969.185,0.080345,373162,310136
972.976,0.080662,382632,317775
976.763,0.081190,391202,324497
981.806,0.081754,400190,331522
985.583,0.081489,406088,336613
989.355,0.082827,410162,338944
993.124,0.083064,412868,340994
996.888,0.083382,414263,341896
1000.65,0.083799,415476,342568
1004.4,0.085464,415479,341260
1009.41,0.086292,414358,339691
1013.15,0.087008,412923,337957
1016.89,0.087183,411526,336678
1020.63,0.087105,409066,334725
1024.36,0.087576,406777,332491
1028.09,0.086519,404427,331376
1031.82,0.086652,401911,329214
1036.78,0.086736,398410,326283
1040.49,0.087247,396204,324095
1044.2,0.086778,394236,322833
1047.91,0.085952,392042,321648
1051.61,0.085598,389823,320088
1055.31,0.085010,388234,319215
1059,0.084977,387599,318717
1063.92,0.084078,386688,318627
1067.61,0.083492,386598,318983
1071.29,0.082684,387377,320221
1074.96,0.082640,388536,321212
1078.63,0.082042,389855,322746
1082.3,0.081027,391215,324630
1085.96,0.080707,393215,326530
1090.84,0.079413,396270,330049
1094.49,0.078762,398760,332621
1098.14,0.079010,400987,334288
1101.79,0.077837,403477,337273
1105.43,0.077908,406116,339424
1109.06,0.077356,407701,341182
1112.7,0.076430,409859,343720
1117.53,0.076235,412494,346085
1121.15,0.076782,414909,347673
1124.77,0.076820,416559,349025
1128.38,0.078511,418532,349315
1131.99,0.078863,419956,350220
1135.6,0.080096,421946,350882
1139.2,0.081654,423881,351229
1143.99,0.083897,426786,351814
1147.58,0.084577,428617,352771
1151.17,0.085415,431169,354187
1154.75,0.086906,433579,354946
1158.33,0.088449,436264,355877
1161.91,0.089907,439132,357016
1165.48,0.092323,442389,357669
1169.04,0.094186,446101,359126
1173.79,0.097622,451929,360951
1177.34,0.099662,456026,362516
1180.9,0.101500,461306,365165
1184.44,0.103191,467657,368754
1187.99,0.104371,473969,372717
1191.52,0.104245,479856,377456
1195.06,0.104852,487372,382832
1199.76,0.103455,497347,391926
1203.29,0.102600,504311,398197
1206.81,0.102433,511507,404035
1210.33,0.101863,519078,410553
1213.84,0.101226,527163,417560
1217.35,0.100512,534208,423837
1220.85,0.100137,540472,429177
1225.51,0.099739,549929,437087
1229.01,0.098844,556888,443531
1232.5,0.098355,562180,448250
1235.98,0.098010,567975,453231
1239.46,0.096841,574815,459925
1242.94,0.095588,582782,467647
1246.41,0.095131,591476,475123
1251.03,0.095137,604016,485189
1254.5,0.095647,612289,491258
1257.96,0.095535,619125,496871
1261.41,0.096213,624551,500443
1264.86,0.096721,629900,504139
1268.31,0.097218,634345,507116
1271.75,0.097888,638574,509710
1276.33,0.098092,642499,512602
1279.76,0.097822,645905,515640
1283.19,0.097130,648307,518383
1286.61,0.096942,650446,520318
1290.03,0.096922,652132,521691
1293.44,0.096185,653907,524000
1296.85,0.096327,655963,525475
1301.39,0.095966,657349,527024
1304.8,0.096117,657558,527008
1308.19,0.096319,658515,527530
1311.58,0.095981,658804,528172
1314.97,0.096869,659011,527258
1318.36,0.097027,658272,526476
1321.73,0.097640,658022,525533
1326.23,0.098552,657870,524310
1329.6,0.099615,656482,521925
1332.97,0.100348,654926,519809
1336.33,0.101395,653727,517608
1339.69,0.102991,652497,514740
1343.04,0.104729,649913,510653
1346.39,0.106718,647671,506567
1349.73,0.108877,645338,502239
1354.18,0.111747,641175,495712
1357.52,0.114124,638376,490854
1360.85,0.115832,635805,486959
1364.17,0.117956,633413,482760
1367.49,0.119633,631026,479087
1370.81,0.122129,628050,474095
1374.12,0.124376,625034,469383
1378.54,0.127224,620272,462763
1381.84,0.130687,616892,456585
1385.14,0.134434,613613,450257
1388.43,0.138266,611526,444784
1391.72,0.143161,610663,439178
1395.01,0.148279,610634,434012
1398.29,0.153082,611700,429988
1402.66,0.159664,614051,425148
1405.93,0.165783,616268,420714
1409.2,0.170799,617795,416913
1412.46,0.176161,618872,412515
1415.72,0.180474,619795,409048
1418.98,0.184676,620495,405567
1422.23,0.187909,621087,402943
1426.56,0.192181,621375,399184
1429.8,0.194151,621616,397531
1433.04,0.197879,622129,394459
1436.27,0.199584,621526,392532
1439.5,0.201583,621113,390470
1442.72,0.204256,620921,387954
1445.94,0.206519,620270,385533
1450.23,0.209453,618860,382067
1453.44,0.212589,617697,378605
1456.64,0.215099,616264,375550
1459.85,0.217622,614413,372253
1463.04,0.220229,612307,368757
1466.24,0.223634,610032,364518
1469.43,0.226369,607345,360634
1473.67,0.232121,603789,353805
1476.85,0.236687,601175,348589
1480.02,0.242107,597737,342297
1483.19,0.247410,594479,336300
1486.36,0.252810,591232,330330
1489.52,0.257349,587853,325027
1492.68,0.260192,583875,320721
1496.89,0.262546,578062,315812
1500.03,0.263088,574159,313288
1503.18,0.262916,570285,311298
1506.32,0.262039,565444,309279
1509.45,0.260311,560571,307836
1512.58,0.259263,555821,305965
1515.71,0.256852,550344,304637
1519.87,0.254065,543983,303054
1522.99,0.251944,538764,301616
1526.1,0.249082,533692,300752
1529.21,0.246177,527902,299486
1532.32,0.243458,521886,297932
1535.42,0.240727,515888,296366
1538.51,0.237849,509987,294924
1541.6,0.234687,503936,293554
1545.72,0.230932,494694,290673
1548.8,0.228087,488378,288848
1551.88,0.225350,481832,286778
1554.95,0.223563,474989,283871
1558.02,0.221783,467818,280733
1561.08,0.220987,460730,276987
1564.15,0.220536,454170,273327
1568.22,0.218891,444181,268330
1571.27,0.218733,436947,264056
1574.32,0.217041,429598,260628
1577.36,0.215893,422039,256720
1580.4,0.215235,414375,252440
1583.43,0.213367,406354,248621
1586.46,0.211157,398475,245044
1590.49,0.209706,388982,240007
1593.51,0.208247,380708,235692
1596.53,0.205381,372727,232279
1599.54,0.204868,365060,227770
1602.55,0.201175,357543,224985
1605.55,0.200391,349495,220318
1608.55,0.198923,341154,215788
1612.54,0.196023,330877,210690
1615.53,0.195658,322904,205786
1618.51,0.194187,315116,201504
1621.49,0.192483,307217,197225
1624.47,0.190988,299481,192922
1627.44,0.190432,292112,188416
1630.41,0.188941,284245,183972
1634.36,0.186610,274079,178347
1637.32,0.186210,266916,173846
1640.27,0.187640,259612,168533
1643.22,0.185285,251804,164353
1646.16,0.185120,244348,159547
1649.1,0.184582,236703,154747
1652.04,0.183111,228171,149675
1655.95,0.179316,215408,142543
1658.88,0.177344,204937,136231
1661.8,0.171524,193395,130293
1664.72,0.161373,179728,123949
1667.63,0.151309,163642,115501
1670.54,0.138085,146312,106462
1673.44,0.121773,128451,97043
1677.31,0.101559,105080,83169
1680.21,0.091183,88906,72069
1683.1,0.086144,75033,61533
1685.99,0.090311,63520,51594
1688.87,0.094383,53714,43222
1691.75,0.092525,45653,36893
1694.62,0.104389,39137,30775
1697.49,0.102585,33776,26670
1701.31,0.111427,28175,21799