File: samples/wool/wool-000811/Column 1_050597_20150331_122221.csv
Method:,Column 1,,
Host Date-Time:,31/3/15 @ 12:22:21,,
Header Version:,1,,
System Temp (C):,33.93,,
Detector Temp (C):,34.72,,
Humidity (%):,1.76,,
Lamp PD:,3818,,
Shift Vector Coefficients:,-10.5391,0.0761263,-0.000134223,,
Pixel to Wavelength Coefficients:,1775.68,-0.916766,-0.000235065,,
Serial Number:,5510004,,
Scan Config Name:,Column 1,,
Scan Config Type:,Slew,,
Section 1,,
Start wavelength (nm):,900,,
End wavelength (nm):,1700,,
Pattern Pixel Width (nm):,   7.03,,,,
Exposure (ms):,  0.635,,,,
Digital Resolution:,228,,
Num Repeats:,6,,
PGA Gain:,64,,
Total Measurement Time in sec:,  2.741,,
Wavelength (nm),Absorbance (AU),Reference Signal (unitless),Sample Signal (unitless)
901.51,0.070041,108485,92327
905.376,0.076079,121306,101813
909.237,0.076268,131909,110664
913.095,0.077979,143299,119747
916.948,0.079411,156982,130749
922.079,0.080880,179937,149362
925.923,0.081732,200504,166108
929.762,0.082544,222660,184119
933.597,0.083104,244426,201857
937.427,0.081217,263972,218948
941.254,0.080685,281845,234059
945.076,0.079455,297271,247570
950.165,0.079132,315605,263034
953.978,0.078349,328029,273882
957.786,0.078690,340470,284046
961.59,0.078170,352317,294282
965.389,0.078865,363056,302767
969.185,0.079653,373162,310631
972.976,0.079061,382632,318948
976.763,0.079909,391202,325456
981.806,0.079810,400190,333009
985.583,0.080216,406088,337601
989.355,0.081100,410162,340295
993.124,0.081194,412868,342466
996.888,0.081806,414263,343139
1000.65,0.082930,415476,343254
1004.4,0.084093,415479,342339
1009.41,0.084998,414358,340704
1013.15,0.085621,412923,339038
1016.89,0.085985,411526,337608
1020.63,0.085817,409066,335719
1024.36,0.086021,406777,333684
1028.09,0.085410,404427,332223
1031.82,0.086050,401911,329670
1036.78,0.085953,398410,326872
1040.49,0.084874,396204,325870
1044.2,0.084970,394236,324180
1047.91,0.084513,392042,322715
1051.61,0.084280,389823,321061
1055.31,0.083610,388234,320246
1059,0.083485,387599,319814
1063.92,0.082965,386688,319445
1067.61,0.082009,386598,320074
1071.29,0.081713,387377,320938
1074.96,0.081567,388536,322006
1078.63,0.080262,389855,324072
1082.3,0.079539,391215,325744
1085.96,0.079219,393215,327651
1090.84,0.077759,396270,331308
1094.49,0.077405,398760,333662
1098.14,0.076913,400987,335906
1101.79,0.076460,403477,338344
1105.43,0.075655,406116,341189
1109.06,0.075617,407701,342551
1112.7,0.075264,409859,344644
1117.53,0.074292,412494,347637
1121.15,0.075215,414909,348930
1124.77,0.075442,416559,350134
1128.38,0.076938,418532,350583
1131.99,0.077928,419956,350975
1135.6,0.079031,421946,351743
1139.2,0.079784,423881,352744
1143.99,0.081985,426786,353366
1147.58,0.083070,428617,353997
1151.17,0.084002,431169,355341
1154.75,0.084695,433579,356758
1158.33,0.086160,436264,357758
1161.91,0.088057,439132,358540
1165.48,0.089861,442389,359702
1169.04,0.092364,446101,360636
1173.79,0.095731,451929,362526
1177.34,0.097790,456026,364082
1180.9,0.099466,461306,366879
1184.44,0.101823,467657,369917
1187.99,0.102269,473969,374525
1191.52,0.102460,479856,379010
1195.06,0.102711,487372,384724
1199.76,0.101599,497347,393605
1203.29,0.101612,504311,399104
1206.81,0.100480,511507,405856
1210.33,0.099697,519078,412606
1213.84,0.099670,527163,419059
1217.35,0.098622,534208,425685
1220.85,0.098276,540472,431020
1225.51,0.097436,549929,439411
1229.01,0.097024,556888,445393
1232.5,0.095878,562180,450814
1235.98,0.095753,567975,455592
1239.46,0.094807,574815,462084
1242.94,0.093732,582782,469650
1246.41,0.093117,591476,477331
1251.03,0.092752,604016,487861
1254.5,0.093287,612289,493935
1257.96,0.093487,619125,499219
1261.41,0.093822,624551,503206
1264.86,0.094859,629900,506305
1268.31,0.095185,634345,509496
1271.75,0.095814,638574,512150
1276.33,0.095838,642499,515270
1279.76,0.095732,645905,518127
1283.19,0.095026,648307,520901
1286.61,0.095228,650446,522376
1290.03,0.094612,652132,524474
1293.44,0.094088,653907,526536
1296.85,0.093804,655963,528537
1301.39,0.094051,657349,529353
1304.8,0.093566,657558,530113
1308.19,0.093805,658515,530592
1311.58,0.094264,658804,530264
1314.97,0.094214,659011,530492
1318.36,0.095052,658272,528875
1321.73,0.094992,658022,528747
1326.23,0.096297,657870,527040
1329.6,0.097011,656482,525064
1332.97,0.097433,654926,523310
1336.33,0.098826,653727,520680
1339.69,0.100540,652497,517653
1343.04,0.102115,649913,513736
1346.39,0.103686,647671,510116
1349.73,0.105943,645338,505643
1354.18,0.108647,641175,499263
1357.52,0.111136,638376,494243
1360.85,0.112912,635805,490244
1364.17,0.114540,633413,486572
1367.49,0.116563,631026,482486
1370.81,0.119008,628050,477514
1374.12,0.120997,625034,473050
1378.54,0.124275,620272,465916
1381.84,0.127173,616892,460295
1385.14,0.130622,613613,454227
1388.43,0.134082,611526,449090
1391.72,0.138482,610663,443935
1395.01,0.142171,610634,440159
1398.29,0.147659,611700,435391
1402.66,0.153840,614051,430888
1405.93,0.159056,616268,427281
1409.2,0.163501,617795,423978
1412.46,0.168721,618872,419643
1415.72,0.172686,619795,416449
1418.98,0.176191,620495,413568
1422.23,0.179838,621087,410501
1426.56,0.183901,621375,406867
1429.8,0.185742,621616,405303
1433.04,0.189130,622129,402486
1436.27,0.190849,621526,400507
1439.5,0.192394,621113,398820
1442.72,0.195845,620921,395541
1445.94,0.197574,620270,393556
1450.23,0.200988,618860,389587
1453.44,0.203596,617697,386527
1456.64,0.206168,616264,383353
1459.85,0.209372,614413,379392
1463.04,0.212395,612307,375469
1466.24,0.215572,610032,371348
1469.43,0.218839,607345,366941
1473.67,0.224544,603789,360032
1476.85,0.230732,601175,353402
1480.02,0.236381,597737,346840
1483.19,0.243251,594479,339536
1486.36,0.247510,591232,334386
1489.52,0.252461,587853,328706
1492.68,0.256439,583875,323505
1496.89,0.257682,578062,319369
1500.03,0.258790,574159,316404
1503.18,0.258438,570285,314524
1506.32,0.257359,565444,312630
1509.45,0.256341,560571,310663
1512.58,0.254403,555821,309408
1515.71,0.252435,550344,307751
1519.87,0.248917,543983,306668
1522.99,0.247147,538764,304966
1526.1,0.244583,533692,303884
1529.21,0.242210,527902,302234
1532.32,0.238277,521886,301508
1535.42,0.235287,515888,300102
1538.51,0.232932,509987,298282
1541.6,0.230483,503936,296410
1545.72,0.226374,494694,293740
1548.8,0.223439,488378,291956
1551.88,0.220932,481832,289710
1554.95,0.219450,474989,286572
1558.02,0.218163,467818,283083
1561.08,0.216717,460730,279724
1564.15,0.215162,454170,276730
1568.22,0.214016,444181,271359
1571.27,0.214684,436947,266529
1574.32,0.213391,429598,262828
1577.36,0.211872,422039,259108
1580.4,0.210617,414375,255139
1583.43,0.209281,406354,250971
1586.46,0.208308,398475,246657
1590.49,0.205379,388982,242410
1593.51,0.203435,380708,238318
1596.53,0.201847,372727,234177
1599.54,0.199174,365060,230776
1602.55,0.198792,357543,226223
1605.55,0.196695,349495,222201
1608.55,0.193159,341154,218671
1612.54,0.192377,330877,212466
1615.53,0.190219,322904,208379
1618.51,0.189373,315116,203750
1621.49,0.188176,307217,199191
1624.47,0.186484,299481,194933
1627.44,0.186049,292112,190327
1630.41,0.185977,284245,185232
1634.36,0.184729,274079,179121
1637.32,0.183560,266916,174910
1640.27,0.182659,259612,170477
1643.22,0.182349,251804,165468
1646.16,0.182244,244348,160607
1649.1,0.180662,236703,156150
1652.04,0.178195,228171,151379
1655.95,0.175328,215408,143858
1658.88,0.172034,204937,137907
1661.8,0.167681,193395,131451
1664.72,0.158701,179728,124714
1667.63,0.145668,163642,117011
1670.54,0.132411,146312,107862
1673.44,0.116692,128451,98185
1677.31,0.097856,105080,83881
1680.21,0.087200,88906,72733
1683.1,0.081169,75033,62242
1685.99,0.082057,63520,52584
1688.87,0.082930,53714,44377
1691.75,0.089429,45653,37157
1694.62,0.095713,39137,31396
1697.49,0.095254,33776,27124
1701.31,0.107678,28175,21988