File: samples/wool/wool-000811/Column 1_050566_20150331_120735.csv
Method:,Column 1,,
Host Date-Time:,31/3/15 @ 12:7:35,,
Header Version:,1,,
System Temp (C):,33.93,,
Detector Temp (C):,33.76,,
Humidity (%):,1.86,,
Lamp PD:,3819,,
Shift Vector Coefficients:,-10.5391,0.0761263,-0.000134223,,
Pixel to Wavelength Coefficients:,1775.68,-0.916766,-0.000235065,,
Serial Number:,5510004,,
Scan Config Name:,Column 1,,
Scan Config Type:,Slew,,
Section 1,,
Start wavelength (nm):,900,,
End wavelength (nm):,1700,,
Pattern Pixel Width (nm):,   7.03,,,,
Exposure (ms):,  0.635,,,,
Digital Resolution:,228,,
Num Repeats:,6,,
PGA Gain:,64,,
Total Measurement Time in sec:,  2.718,,
Wavelength (nm),Absorbance (AU),Reference Signal (unitless),Sample Signal (unitless)
901.51,0.034550,108485,100189
905.376,0.041559,121306,110236
909.237,0.042685,131909,119561
913.095,0.043253,143299,129715
916.948,0.044642,156982,141647
922.079,0.047012,179937,161476
925.923,0.048625,200504,179266
929.762,0.049307,222660,198763
933.597,0.049193,244426,218250
937.427,0.048013,263972,236344
941.254,0.048574,281845,252021
945.076,0.047485,297271,266482
950.165,0.046870,315605,283318
953.978,0.046573,328029,294672
957.786,0.047039,340470,305520
961.59,0.047344,352317,315929
965.389,0.047356,363056,325550
969.185,0.047692,373162,334353
972.976,0.047376,382632,343088
976.763,0.048345,391202,349990
981.806,0.048866,400190,357602
985.583,0.049497,406088,362346
989.355,0.049920,410162,365625
993.124,0.050501,412868,367545
996.888,0.050880,414263,368465
1000.65,0.051613,415476,368921
1004.4,0.052909,415479,367824
1009.41,0.054215,414358,365730
1013.15,0.055048,412923,363765
1016.89,0.054959,411526,362609
1020.63,0.055145,409066,360287
1024.36,0.054864,406777,358503
1028.09,0.054539,404427,356698
1031.82,0.055192,401911,353947
1036.78,0.054659,398410,351294
1040.49,0.054166,396204,349746
1044.2,0.053894,394236,348227
1047.91,0.053814,392042,346353
1051.61,0.053013,389823,345028
1055.31,0.052210,388234,344258
1059,0.051552,387599,344216
1063.92,0.050576,386688,344179
1067.61,0.049788,386598,344724
1071.29,0.049913,387377,345319
1074.96,0.048581,388536,347416
1078.63,0.048302,389855,348820
1082.3,0.047259,391215,350878
1085.96,0.047428,393215,352535
1090.84,0.045922,396270,356508
1094.49,0.046449,398760,358313
1098.14,0.046594,400987,360194
1101.79,0.045048,403477,363723
1105.43,0.045285,406116,365902
1109.06,0.045086,407701,367499
1112.7,0.045127,409859,369409
1117.53,0.044452,412494,372362
1121.15,0.045038,414909,374037
1124.77,0.045608,416559,375032
1128.38,0.046938,418532,375656
1131.99,0.048767,419956,375350
1135.6,0.050876,421946,375302
1139.2,0.052127,423881,375939
1143.99,0.054713,426786,376268
1147.58,0.056022,428617,376745
1151.17,0.056028,431169,378983
1154.75,0.057879,433579,379480
1158.33,0.059007,436264,380840
1161.91,0.062107,439132,380617
1165.48,0.064331,442389,381481
1169.04,0.066857,446101,382451
1173.79,0.070524,451929,384190
1177.34,0.073147,456026,385339
1180.9,0.075091,461306,388059
1184.44,0.077160,467657,391532
1187.99,0.078037,473969,396016
1191.52,0.077523,479856,401410
1195.06,0.077196,487372,408004
1199.76,0.076819,497347,416716
1203.29,0.075812,504311,423532
1206.81,0.074505,511507,430870
1210.33,0.074139,519078,437616
1213.84,0.072915,527163,445687
1217.35,0.072460,534208,452117
1220.85,0.071644,540472,458278
1225.51,0.071057,549929,466928
1229.01,0.070524,556888,473417
1232.5,0.069657,562180,478871
1235.98,0.069300,567975,484205
1239.46,0.067974,574815,491535
1242.94,0.066743,582782,499762
1246.41,0.066022,591476,508060
1251.03,0.066306,604016,518492
1254.5,0.066472,612289,525393
1257.96,0.066659,619125,531030
1261.41,0.067394,624551,534778
1264.86,0.068165,629900,538402
1268.31,0.068471,634345,541819
1271.75,0.069438,638574,544218
1276.33,0.069837,642499,547061
1279.76,0.069541,645905,550336
1283.19,0.068944,648307,553142
1286.61,0.068278,650446,555819
1290.03,0.068131,652132,557448
1293.44,0.067359,653907,559960
1296.85,0.067679,655963,561307
1301.39,0.067407,657349,562845
1304.8,0.067325,657558,563130
1308.19,0.067520,658515,563697
1311.58,0.067680,658804,563736
1314.97,0.068114,659011,563351
1318.36,0.068732,658272,561918
1321.73,0.068873,658022,561523
1326.23,0.069621,657870,560427
1329.6,0.070712,656482,557842
1332.97,0.072002,654926,554869
1336.33,0.073034,653727,552538
1339.69,0.074971,652497,549045
1343.04,0.076758,649913,544624
1346.39,0.078625,647671,540417
1349.73,0.080853,645338,535716
1354.18,0.084129,641175,528260
1357.52,0.086192,638376,523461
1360.85,0.088192,635805,518958
1364.17,0.090639,633413,514100
1367.49,0.093338,631026,508990
1370.81,0.095400,628050,504190
1374.12,0.098092,625034,498668
1378.54,0.101341,620272,491181
1381.84,0.104820,616892,484606
1385.14,0.108435,613613,478035
1388.43,0.113416,611526,470976
1391.72,0.118124,610663,465241
1395.01,0.122675,610634,460369
1398.29,0.127570,611700,456004
1402.66,0.134763,614051,450237
1405.93,0.141014,616268,445406
1409.2,0.146416,617795,440990
1412.46,0.151365,618872,436753
1415.72,0.155905,619795,432856
1418.98,0.160000,620495,429278
1422.23,0.163799,621087,425945
1426.56,0.167879,621375,422158
1429.8,0.170876,621616,419417
1433.04,0.173404,622129,417327
1436.27,0.176009,621526,414429
1439.5,0.177936,621113,412320
1442.72,0.180851,620921,409435
1445.94,0.183541,620270,406481
1450.23,0.187138,618860,402211
1453.44,0.189992,617697,398826
1456.64,0.192792,616264,395344
1459.85,0.195499,614413,391707
1463.04,0.198703,612307,387495
1466.24,0.201474,610032,383600
1469.43,0.205689,607345,378222
1473.67,0.212236,603789,370381
1476.85,0.217442,601175,364384
1480.02,0.223351,597737,357404
1483.19,0.230126,594479,349954
1486.36,0.236236,591232,343180
1489.52,0.241107,587853,337413
1492.68,0.245578,583875,331697
1496.89,0.248005,578062,326565
1500.03,0.248140,574159,324259
1503.18,0.248680,570285,321671
1506.32,0.247504,565444,319805
1509.45,0.245843,560571,318264
1512.58,0.243758,555821,317086
1515.71,0.242431,550344,314922
1519.87,0.238820,543983,313881
1522.99,0.236561,538764,312491
1526.1,0.233657,533692,311626
1529.21,0.230283,527902,310649
1532.32,0.227375,521886,309172
1535.42,0.224616,515888,307567
1538.51,0.221293,509987,306384
1541.6,0.217964,503936,305078
1545.72,0.213026,494694,302908
1548.8,0.211085,488378,300380
1551.88,0.207774,481832,298622
1554.95,0.206056,474989,295548
1558.02,0.203657,467818,292698
1561.08,0.202507,460730,289028
1564.15,0.202413,454170,284974
1568.22,0.200613,444181,279864
1571.27,0.200395,436947,275444
1574.32,0.199492,429598,271375
1577.36,0.198581,422039,267160
1580.4,0.195953,414375,263901
1583.43,0.194988,406354,259368
1586.46,0.193881,398475,254988
1590.49,0.190749,388982,250715
1593.51,0.188536,380708,246636
1596.53,0.186491,372727,242605
1599.54,0.183995,365060,238984
1602.55,0.181223,357543,235562
1605.55,0.179994,349495,230912
1608.55,0.177036,341154,226942
1612.54,0.174885,330877,221198
1615.53,0.173654,322904,216481
1618.51,0.171701,315116,212212
1621.49,0.171095,307217,207181
1624.47,0.169471,299481,202721
1627.44,0.168054,292112,198379
1630.41,0.167328,284245,193359
1634.36,0.166504,274079,186798
1637.32,0.164736,266916,182658
1640.27,0.164843,259612,177616
1643.22,0.163202,251804,172926
1646.16,0.162508,244348,168074
1649.1,0.161148,236703,163326
1652.04,0.159373,228171,158084
1655.95,0.158159,215408,149659
1658.88,0.154028,204937,143745
1661.8,0.150296,193395,136820
1664.72,0.143353,179728,129200
1667.63,0.133651,163642,120294
1670.54,0.119992,146312,110991
1673.44,0.110143,128451,99677
1677.31,0.094329,105080,84565
1680.21,0.086096,88906,72918
1683.1,0.079143,75033,62533
1685.99,0.085781,63520,52135
1688.87,0.086615,53714,44002
1691.75,0.089791,45653,37126
1694.62,0.097224,39137,31287
1697.49,0.109313,33776,26260
1701.31,0.113304,28175,21705