File: samples/wool/wool-000811/Column 1_050620_20150331_123317.csv
Method:,Column 1,,
Host Date-Time:,31/3/15 @ 12:33:17,,
Header Version:,1,,
System Temp (C):,34.13,,
Detector Temp (C):,35.01,,
Humidity (%):,1.61,,
Lamp PD:,3818,,
Shift Vector Coefficients:,-10.5391,0.0761263,-0.000134223,,
Pixel to Wavelength Coefficients:,1775.68,-0.916766,-0.000235065,,
Serial Number:,5510004,,
Scan Config Name:,Column 1,,
Scan Config Type:,Slew,,
Section 1,,
Start wavelength (nm):,900,,
End wavelength (nm):,1700,,
Pattern Pixel Width (nm):,   7.03,,,,
Exposure (ms):,  0.635,,,,
Digital Resolution:,228,,
Num Repeats:,6,,
PGA Gain:,64,,
Total Measurement Time in sec:,  2.671,,
Wavelength (nm),Absorbance (AU),Reference Signal (unitless),Sample Signal (unitless)
901.51,0.068473,108485,92661
905.376,0.074661,121306,102146
909.237,0.078661,131909,110056
913.095,0.076599,143299,120128
916.948,0.079887,156982,130606
922.079,0.079846,179937,149718
925.923,0.081683,200504,166127
929.762,0.083226,222660,183830
933.597,0.082079,244426,202334
937.427,0.080787,263972,219165
941.254,0.080707,281845,234047
945.076,0.079411,297271,247595
950.165,0.077739,315605,263879
953.978,0.077460,328029,274443
957.786,0.077734,340470,284672
961.59,0.077988,352317,294405
965.389,0.077369,363056,303812
969.185,0.077977,373162,311832
972.976,0.078222,382632,319565
976.763,0.078555,391202,326472
981.806,0.079032,400190,333606
985.583,0.080150,406088,337653
989.355,0.079553,410162,341509
993.124,0.079981,412868,343424
996.888,0.080988,414263,343786
1000.65,0.081190,415476,344632
1004.4,0.083132,415479,343097
1009.41,0.084330,414358,341229
1013.15,0.084294,412923,340075
1016.89,0.084751,411526,338568
1020.63,0.084475,409066,336758
1024.36,0.084733,406777,334675
1028.09,0.084232,404427,333126
1031.82,0.084239,401911,331048
1036.78,0.083872,398410,328442
1040.49,0.084121,396204,326436
1044.2,0.083339,394236,325400
1047.91,0.083642,392042,323363
1051.61,0.082591,389823,322312
1055.31,0.082727,388234,320898
1059,0.082055,387599,320869
1063.92,0.081451,386688,320560
1067.61,0.080761,386598,320995
1071.29,0.080345,387377,321950
1074.96,0.079576,388536,323486
1078.63,0.078530,389855,325367
1082.3,0.077877,391215,326993
1085.96,0.077263,393215,329130
1090.84,0.076356,396270,332380
1094.49,0.075721,398760,334958
1098.14,0.075466,400987,337027
1101.79,0.074592,403477,339803
1105.43,0.074879,406116,341799
1109.06,0.073576,407701,344164
1112.7,0.073637,409859,345937
1117.53,0.072979,412494,348689
1121.15,0.073793,414909,350074
1124.77,0.073225,416559,351926
1128.38,0.074851,418532,352272
1131.99,0.075963,419956,352566
1135.6,0.076985,421946,353404
1139.2,0.078737,423881,353596
1143.99,0.080078,426786,354921
1147.58,0.081341,428617,355409
1151.17,0.081906,431169,357060
1154.75,0.082672,433579,358423
1158.33,0.084512,436264,359118
1161.91,0.086320,439132,359977
1165.48,0.088415,442389,360902
1169.04,0.090288,446101,362364
1173.79,0.093326,451929,364539
1177.34,0.095820,456026,365738
1180.9,0.098262,461306,367898
1184.44,0.100172,467657,371326
1187.99,0.101029,473969,375596
1191.52,0.101013,479856,380275
1195.06,0.100593,487372,386605
1199.76,0.099747,497347,395287
1203.29,0.099293,504311,401241
1206.81,0.098793,511507,407435
1210.33,0.098500,519078,413745
1213.84,0.097170,527163,421478
1217.35,0.097438,534208,426847
1220.85,0.096522,540472,432764
1225.51,0.096545,549929,440313
1229.01,0.095523,556888,446935
1232.5,0.094264,562180,452492
1235.98,0.093872,567975,457570
1239.46,0.092670,574815,464363
1242.94,0.091665,582782,471890
1246.41,0.091197,591476,479447
1251.03,0.091567,604016,489194
1254.5,0.091590,612289,495868
1257.96,0.091934,619125,501008
1261.41,0.092429,624551,504823
1264.86,0.092782,629900,508733
1268.31,0.093394,634345,511601
1271.75,0.094517,638574,513682
1276.33,0.093876,642499,517603
1279.76,0.094046,645905,520143
1283.19,0.093792,648307,522383
1286.61,0.093255,650446,524754
1290.03,0.093017,652132,526403
1293.44,0.092559,653907,528393
1296.85,0.092124,655963,530585
1301.39,0.091879,657349,532006
1304.8,0.092059,657558,531955
1308.19,0.091569,658515,533331
1311.58,0.092165,658804,532833
1314.97,0.092576,659011,532496
1318.36,0.092967,658272,531421
1321.73,0.092906,658022,531294
1326.23,0.093881,657870,529980
1329.6,0.094747,656482,527808
1332.97,0.095174,654926,526039
1336.33,0.096331,653727,523679
1339.69,0.098154,652497,520505
1343.04,0.098828,649913,517639
1346.39,0.101053,647671,513217
1349.73,0.102840,645338,509269
1354.18,0.105676,641175,502690
1357.52,0.108095,638376,497716
1360.85,0.109595,635805,494002
1364.17,0.111505,633413,489984
1367.49,0.113904,631026,485449
1370.81,0.116478,628050,480304
1374.12,0.118295,625034,476002
1378.54,0.120482,620272,470002
1381.84,0.124006,616892,463664
1385.14,0.126680,613613,458368
1388.43,0.130160,611526,453163
1391.72,0.134538,610663,447985
1395.01,0.138038,610634,444368
1398.29,0.142206,611700,440892
1402.66,0.148033,614051,436688
1405.93,0.153021,616268,433260
1409.2,0.157299,617795,430076
1412.46,0.161959,618872,426228
1415.72,0.165650,619795,423251
1418.98,0.168940,620495,420531
1422.23,0.171904,621087,418069
1426.56,0.175390,621375,414919
1429.8,0.178494,621616,412124
1433.04,0.181078,622129,410018
1436.27,0.183143,621526,407677
1439.5,0.184704,621113,405944
1442.72,0.187209,620921,403485
1445.94,0.189850,620270,400618
1450.23,0.193351,618860,396498
1453.44,0.196014,617697,393334
1456.64,0.199021,616264,389714
1459.85,0.202220,614413,385692
1463.04,0.204717,612307,382166
1466.24,0.208708,610032,377263
1469.43,0.212285,607345,372521
1473.67,0.218574,603789,365015
1476.85,0.224418,601175,358577
1480.02,0.230466,597737,351596
1483.19,0.237828,594479,343802
1486.36,0.243413,591232,337555
1489.52,0.248657,587853,331598
1492.68,0.251744,583875,327021
1496.89,0.253821,578062,322221
1500.03,0.254769,574159,319347
1503.18,0.254481,570285,317403
1506.32,0.254356,565444,314799
1509.45,0.252108,560571,313706
1512.58,0.250711,555821,312050
1515.71,0.248641,550344,310451
1519.87,0.245736,543983,308922
1522.99,0.242718,538764,308092
1526.1,0.240442,533692,306795
1529.21,0.237239,527902,305713
1532.32,0.234658,521886,304031
1535.42,0.231291,515888,302876
1538.51,0.228625,509987,301255
1541.6,0.226179,503936,299362
1545.72,0.222053,494694,296677
1548.8,0.218426,488378,295345
1551.88,0.216890,481832,292419
1554.95,0.214245,474989,290027
1558.02,0.213526,467818,286122
1561.08,0.211701,460730,282973
1564.15,0.212013,454170,278744
1568.22,0.210206,444181,273750
1571.27,0.210071,436947,269375
1574.32,0.208906,429598,265556
1577.36,0.207574,422039,261685
1580.4,0.207057,414375,257239
1583.43,0.204987,406354,253465
1586.46,0.203214,398475,249567
1590.49,0.201320,388982,244686
1593.51,0.200457,380708,239958
1596.53,0.198199,372727,236152
1599.54,0.195562,365060,232703
1602.55,0.194879,357543,228270
1605.55,0.192569,349495,224322
1608.55,0.189812,341154,220363
1612.54,0.188189,330877,214525
1615.53,0.187119,322904,209872
1618.51,0.186316,315116,205189
1621.49,0.185567,307217,200391
1624.47,0.184244,299481,195941
1627.44,0.183020,292112,191659
1630.41,0.182077,284245,186903
1634.36,0.180226,274079,180988
1637.32,0.178374,266916,177011
1640.27,0.179603,259612,171681
1643.22,0.177748,251804,167230
1646.16,0.177738,244348,162282
1649.1,0.176295,236703,157728
1652.04,0.175347,228171,152375
1655.95,0.170966,215408,145310
1658.88,0.168646,204937,138987
1661.8,0.165188,193395,132208
1664.72,0.156436,179728,125366
1667.63,0.143329,163642,117643
1670.54,0.128655,146312,108799
1673.44,0.112274,128451,99189
1677.31,0.090067,105080,85399
1680.21,0.080857,88906,73803
1683.1,0.073341,75033,63374
1685.99,0.072977,63520,53695
1688.87,0.074517,53714,45245
1691.75,0.080155,45653,37959
1694.62,0.080651,39137,32504
1697.49,0.090240,33776,27439
1701.31,0.100334,28175,22363