File: samples/wool/wool-000811/Column 1_050576_20150331_121206.csv
Method:,Column 1,,
Host Date-Time:,31/3/15 @ 12:12:6,,
Header Version:,1,,
System Temp (C):,33.79,,
Detector Temp (C):,34.56,,
Humidity (%):,2.84,,
Lamp PD:,3819,,
Shift Vector Coefficients:,-10.5391,0.0761263,-0.000134223,,
Pixel to Wavelength Coefficients:,1775.68,-0.916766,-0.000235065,,
Serial Number:,5510004,,
Scan Config Name:,Column 1,,
Scan Config Type:,Slew,,
Section 1,,
Start wavelength (nm):,900,,
End wavelength (nm):,1700,,
Pattern Pixel Width (nm):,   7.03,,,,
Exposure (ms):,  0.635,,,,
Digital Resolution:,228,,
Num Repeats:,6,,
PGA Gain:,64,,
Total Measurement Time in sec:,  2.730,,
Wavelength (nm),Absorbance (AU),Reference Signal (unitless),Sample Signal (unitless)
901.51,0.072239,108485,91861
905.376,0.077724,121306,101428
909.237,0.078148,131909,110186
913.095,0.080674,143299,119006
916.948,0.081319,156982,130176
922.079,0.082701,179937,148737
925.923,0.085503,200504,164672
929.762,0.084596,222660,183251
933.597,0.084977,244426,200988
937.427,0.084015,263972,217542
941.254,0.083089,281845,232767
945.076,0.083437,297271,245310
950.165,0.082334,315605,261102
953.978,0.081551,328029,271870
957.786,0.081747,340470,282054
961.59,0.082012,352317,291690
965.389,0.082115,363056,300510
969.185,0.081983,373162,308969
972.976,0.082657,382632,316318
976.763,0.082673,391202,323391
981.806,0.083137,400190,330468
985.583,0.084373,406088,334385
989.355,0.084139,410162,337922
993.124,0.084901,412868,339555
996.888,0.085012,414263,340615
1000.65,0.085976,415476,340855
1004.4,0.086743,415479,340256
1009.41,0.088019,414358,338343
1013.15,0.088344,412923,336919
1016.89,0.088751,411526,335464
1020.63,0.088506,409066,333647
1024.36,0.088463,406777,331813
1028.09,0.088953,404427,329524
1031.82,0.088468,401911,327840
1036.78,0.088170,398410,325207
1040.49,0.088620,396204,323072
1044.2,0.088150,394236,321815
1047.91,0.088128,392042,320040
1051.61,0.087969,389823,318345
1055.31,0.087409,388234,317457
1059,0.086598,387599,317530
1063.92,0.085915,386688,317282
1067.61,0.085278,386598,317674
1071.29,0.085345,387377,318265
1074.96,0.084663,388536,319719
1078.63,0.083497,389855,321667
1082.3,0.082583,391215,323469
1085.96,0.082275,393215,325353
1090.84,0.081448,396270,328506
1094.49,0.081573,398760,330475
1098.14,0.080841,400987,332881
1101.79,0.080229,403477,335421
1105.43,0.079988,406116,337802
1109.06,0.079630,407701,339400
1112.7,0.078393,409859,342170
1117.53,0.078244,412494,344488
1121.15,0.079049,414909,345863
1124.77,0.079116,416559,347185
1128.38,0.080226,418532,347939
1131.99,0.081162,419956,348371
1135.6,0.082693,421946,348790
1139.2,0.084370,423881,349039
1143.99,0.086403,426786,349790
1147.58,0.086947,428617,350851
1151.17,0.087931,431169,352141
1154.75,0.088898,433579,353322
1158.33,0.091139,436264,353680
1161.91,0.093119,439132,354386
1165.48,0.094855,442389,355590
1169.04,0.097130,446101,356700
1173.79,0.100850,451929,358278
1177.34,0.102401,456026,360237
1180.9,0.104456,461306,362688
1184.44,0.105794,467657,366550
1187.99,0.106949,473969,370511
1191.52,0.106837,479856,375210
1195.06,0.106651,487372,381250
1199.76,0.105800,497347,389816
1203.29,0.105572,504311,395482
1206.81,0.105284,511507,401391
1210.33,0.104570,519078,408002
1213.84,0.103765,527163,415126
1217.35,0.103395,534208,421032
1220.85,0.102514,540472,426834
1225.51,0.102050,549929,434767
1229.01,0.101513,556888,440813
1232.5,0.102081,562180,444421
1235.98,0.100416,567975,450727
1239.46,0.099292,574815,457337
1242.94,0.098070,582782,464982
1246.41,0.097615,591476,472413
1251.03,0.097724,604016,482308
1254.5,0.097903,612289,488712
1257.96,0.098269,619125,493752
1261.41,0.098595,624551,497706
1264.86,0.099096,629900,501390
1268.31,0.099784,634345,504129
1271.75,0.100227,638574,506972
1276.33,0.100775,642499,509445
1279.76,0.100501,645905,512469
1283.19,0.100161,648307,514778
1286.61,0.099913,650446,516771
1290.03,0.099516,652132,518585
1293.44,0.098686,653907,520991
1296.85,0.098828,655963,522458
1301.39,0.098816,657349,523576
1304.8,0.098679,657558,523908
1308.19,0.099049,658515,524224
1311.58,0.099390,658804,524042
1314.97,0.099730,659011,523796
1318.36,0.100347,658272,522466
1321.73,0.101044,658022,521430
1326.23,0.102030,657870,520128
1329.6,0.102938,656482,517946
1332.97,0.103989,654926,515470
1336.33,0.104749,653727,513627
1339.69,0.106776,652497,510273
1343.04,0.108597,649913,506125
1346.39,0.110294,647671,502412
1349.73,0.112589,645338,497964
1354.18,0.115331,641175,491638
1357.52,0.117451,638376,487108
1360.85,0.119465,635805,482902
1364.17,0.121396,633413,478951
1367.49,0.123654,631026,474672
1370.81,0.125862,628050,470037
1374.12,0.128199,625034,465270
1378.54,0.131616,620272,458106
1381.84,0.134734,616892,452351
1385.14,0.139318,613613,445222
1388.43,0.143622,611526,439332
1391.72,0.148166,610663,434146
1395.01,0.153762,610634,428567
1398.29,0.159812,611700,423376
1402.66,0.167586,614051,417463
1405.93,0.174314,616268,412530
1409.2,0.179662,617795,408491
1412.46,0.185212,618872,404007
1415.72,0.189998,619795,400175
1418.98,0.194531,620495,396467
1422.23,0.198391,621087,393334
1426.56,0.203025,621375,389340
1429.8,0.205458,621616,387315
1433.04,0.208833,622129,384634
1436.27,0.211299,621526,382085
1439.5,0.213731,621113,379699
1442.72,0.215782,620921,377793
1445.94,0.218170,620270,375328
1450.23,0.221638,618860,371496
1453.44,0.224406,617697,368442
1456.64,0.226643,616264,365699
1459.85,0.228796,614413,362798
1463.04,0.231748,612307,359105
1466.24,0.234333,610032,355647
1469.43,0.237641,607345,351394
1473.67,0.242094,603789,345773
1476.85,0.245847,601175,341314
1480.02,0.250301,597737,335899
1483.19,0.255519,594479,330079
1486.36,0.260780,591232,324323
1489.52,0.264014,587853,320077
1492.68,0.266600,583875,316024
1496.89,0.269382,578062,310880
1500.03,0.269161,574159,308938
1503.18,0.269234,570285,306802
1506.32,0.268389,565444,304790
1509.45,0.267772,560571,302593
1512.58,0.266145,555821,301155
1515.71,0.263137,550344,300260
1519.87,0.260906,543983,298318
1522.99,0.258578,538764,297044
1526.1,0.256144,533692,295901
1529.21,0.253639,527902,294384
1532.32,0.250446,521886,293177
1535.42,0.248029,515888,291425
1538.51,0.244414,509987,290499
1541.6,0.242275,503936,288470
1545.72,0.237972,494694,285999
1548.8,0.235442,488378,283997
1551.88,0.233266,481832,281598
1554.95,0.231617,474989,278655
1558.02,0.228968,467818,276127
1561.08,0.228377,460730,272314
1564.15,0.227397,454170,269043
1568.22,0.226109,444181,263907
1571.27,0.224851,436947,260362
1574.32,0.224165,429598,256388
1577.36,0.222704,422039,252725
1580.4,0.221192,414375,249001
1583.43,0.220054,406354,244822
1586.46,0.218617,398475,240871
1590.49,0.215748,388982,236691
1593.51,0.214163,380708,232503
1596.53,0.212653,372727,228422
1599.54,0.210257,365060,224961
1602.55,0.208810,357543,221064
1605.55,0.206010,349495,217486
1608.55,0.204777,341154,212899
1612.54,0.202778,330877,207438
1615.53,0.200266,322904,203614
1618.51,0.198771,315116,199388
1621.49,0.198418,307217,194548
1624.47,0.195802,299481,190795
1627.44,0.194687,292112,186579
1630.41,0.194218,284245,181750
1634.36,0.193156,274079,175679
1637.32,0.191997,266916,171545
1640.27,0.191725,259612,166955
1643.22,0.190814,251804,162274
1646.16,0.190026,244348,157755
1649.1,0.189067,236703,153157
1652.04,0.188363,228171,147876
1655.95,0.184175,215408,140957
1658.88,0.179140,204937,135669
1661.8,0.176961,193395,128672
1664.72,0.166859,179728,122393
1667.63,0.155230,163642,114463
1670.54,0.142868,146312,105296
1673.44,0.126462,128451,96001
1677.31,0.107637,105080,82013
1680.21,0.097098,88906,71094
1683.1,0.092644,75033,60619
1685.99,0.094949,63520,51046
1688.87,0.099263,53714,42739
1691.75,0.101133,45653,36169
1694.62,0.101156,39137,31005
1697.49,0.112167,33776,26088
1701.31,0.118801,28175,21432