File: samples/wool/wool-000811/Column 1_050617_20150331_123137.csv
Method:,Column 1,,
Host Date-Time:,31/3/15 @ 12:31:37,,
Header Version:,1,,
System Temp (C):,34.1,,
Detector Temp (C):,35,,
Humidity (%):,1.66,,
Lamp PD:,3818,,
Shift Vector Coefficients:,-10.5391,0.0761263,-0.000134223,,
Pixel to Wavelength Coefficients:,1775.68,-0.916766,-0.000235065,,
Serial Number:,5510004,,
Scan Config Name:,Column 1,,
Scan Config Type:,Slew,,
Section 1,,
Start wavelength (nm):,900,,
End wavelength (nm):,1700,,
Pattern Pixel Width (nm):,   7.03,,,,
Exposure (ms):,  0.635,,,,
Digital Resolution:,228,,
Num Repeats:,6,,
PGA Gain:,64,,
Total Measurement Time in sec:,  2.679,,
Wavelength (nm),Absorbance (AU),Reference Signal (unitless),Sample Signal (unitless)
901.51,0.068309,108485,92696
905.376,0.073934,121306,102317
909.237,0.077435,131909,110367
913.095,0.076939,143299,120034
916.948,0.078635,156982,130983
922.079,0.079919,179937,149693
925.923,0.080221,200504,166687
929.762,0.082442,222660,184162
933.597,0.082233,244426,202262
937.427,0.081300,263972,218906
941.254,0.079806,281845,234533
945.076,0.079028,297271,247813
950.165,0.078228,315605,263582
953.978,0.077498,328029,274419
957.786,0.076747,340470,285320
961.59,0.077063,352317,295033
965.389,0.076987,363056,304079
969.185,0.077074,373162,312481
972.976,0.077680,382632,319964
976.763,0.077936,391202,326938
981.806,0.078392,400190,334098
985.583,0.079031,406088,338524
989.355,0.079507,410162,341545
993.124,0.080298,412868,343173
996.888,0.080690,414263,344022
1000.65,0.080767,415476,344968
1004.4,0.082220,415479,343818
1009.41,0.084009,414358,341481
1013.15,0.083848,412923,340425
1016.89,0.084573,411526,338707
1020.63,0.084678,409066,336601
1024.36,0.084620,406777,334762
1028.09,0.084005,404427,333300
1031.82,0.083992,401911,331236
1036.78,0.083525,398410,328704
1040.49,0.083917,396204,326589
1044.2,0.083702,394236,325128
1047.91,0.082888,392042,323925
1051.61,0.082455,389823,322413
1055.31,0.082559,388234,321022
1059,0.082395,387599,320618
1063.92,0.081573,386688,320470
1067.61,0.080627,386598,321094
1071.29,0.079553,387377,322538
1074.96,0.079753,388536,323354
1078.63,0.079327,389855,324770
1082.3,0.077483,391215,327290
1085.96,0.077098,393215,329255
1090.84,0.076360,396270,332377
1094.49,0.075886,398760,334831
1098.14,0.075316,400987,337143
1101.79,0.074759,403477,339672
1105.43,0.075252,406116,341506
1109.06,0.074046,407701,343792
1112.7,0.073895,409859,345732
1117.53,0.073287,412494,348442
1121.15,0.073892,414909,349994
1124.77,0.073630,416559,351598
1128.38,0.074306,418532,352714
1131.99,0.075445,419956,352987
1135.6,0.076351,421946,353921
1139.2,0.078687,423881,353636
1143.99,0.080145,426786,354867
1147.58,0.081009,428617,355681
1151.17,0.081623,431169,357293
1154.75,0.082720,433579,358384
1158.33,0.084174,436264,359398
1161.91,0.086454,439132,359866
1165.48,0.088001,442389,361246
1169.04,0.090625,446101,362083
1173.79,0.093941,451929,364023
1177.34,0.095852,456026,365711
1180.9,0.097951,461306,368161
1184.44,0.099695,467657,371734
1187.99,0.100919,473969,375691
1191.52,0.100249,479856,380945
1195.06,0.100583,487372,386614
1199.76,0.099755,497347,395280
1203.29,0.099415,504311,401128
1206.81,0.098810,511507,407419
1210.33,0.097953,519078,414266
1213.84,0.097678,527163,420985
1217.35,0.096647,534208,427625
1220.85,0.096352,540472,432934
1225.51,0.095500,549929,441374
1229.01,0.095018,556888,447456
1232.5,0.094348,562180,452405
1235.98,0.093816,567975,457629
1239.46,0.092907,574815,464110
1242.94,0.091865,582782,471673
1246.41,0.091249,591476,479389
1251.03,0.091050,604016,489777
1254.5,0.091241,612289,496267
1257.96,0.091778,619125,501188
1261.41,0.092230,624551,505054
1264.86,0.093054,629900,508414
1268.31,0.093362,634345,511639
1271.75,0.094471,638574,513736
1276.33,0.094216,642499,517198
1279.76,0.094327,645905,519806
1283.19,0.093384,648307,522873
1286.61,0.093186,650446,524838
1290.03,0.092952,652132,526482
1293.44,0.091992,653907,529083
1296.85,0.092310,655963,530358
1301.39,0.091583,657349,532369
1304.8,0.091933,657558,532110
1308.19,0.091932,658515,532885
1311.58,0.091642,658804,533475
1314.97,0.092632,659011,532428
1318.36,0.093088,658272,531273
1321.73,0.092932,658022,531261
1326.23,0.093703,657870,530197
1329.6,0.094904,656482,527617
1332.97,0.095645,654926,525469
1336.33,0.096271,653727,523752
1339.69,0.097758,652497,520979
1343.04,0.099318,649913,517055
1346.39,0.101315,647671,512908
1349.73,0.102895,645338,509204
1354.18,0.105935,641175,502391
1357.52,0.108370,638376,497401
1360.85,0.109946,635805,493603
1364.17,0.111765,633413,489691
1367.49,0.114104,631026,485225
1370.81,0.116547,628050,480228
1374.12,0.118119,625034,476195
1378.54,0.120974,620272,469470
1381.84,0.124249,616892,463404
1385.14,0.126635,613613,458416
1388.43,0.130043,611526,453286
1391.72,0.134635,610663,447885
1395.01,0.138060,610634,444346
1398.29,0.142454,611700,440641
1402.66,0.148478,614051,436241
1405.93,0.153466,616268,432816
1409.2,0.157937,617795,429445
1412.46,0.162488,618872,425709
1415.72,0.166237,619795,422679
1418.98,0.169505,620495,419985
1422.23,0.172431,621087,417562
1426.56,0.176169,621375,414176
1429.8,0.178496,621616,412122
1433.04,0.181495,622129,409624
1436.27,0.183339,621526,407493
1439.5,0.185468,621113,405231
1442.72,0.187727,620921,403004
1445.94,0.190867,620270,399681
1450.23,0.194013,618860,395894
1453.44,0.196721,617697,392694
1456.64,0.200089,616264,388757
1459.85,0.202263,614413,385654
1463.04,0.204971,612307,381943
1466.24,0.208888,610032,377107
1469.43,0.212664,607345,372196
1473.67,0.219176,603789,364510
1476.85,0.225388,601175,357777
1480.02,0.231558,597737,350713
1483.19,0.237791,594479,343831
1486.36,0.243663,591232,337361
1489.52,0.248718,587853,331551
1492.68,0.251878,583875,326920
1496.89,0.254302,578062,321864
1500.03,0.254381,574159,319633
1503.18,0.254715,570285,317232
1506.32,0.254356,565444,314799
1509.45,0.252784,560571,313218
1512.58,0.251252,555821,311661
1515.71,0.248556,550344,310512
1519.87,0.245835,543983,308852
1522.99,0.242666,538764,308129
1526.1,0.240458,533692,306784
1529.21,0.237807,527902,305314
1532.32,0.234708,521886,303996
1535.42,0.231534,515888,302706
1538.51,0.229030,509987,300974
1541.6,0.225957,503936,299515
1545.72,0.221243,494694,297231
1548.8,0.219187,488378,294828
1551.88,0.216412,481832,292741
1554.95,0.215341,474989,289296
1558.02,0.212745,467818,286637
1561.08,0.212256,460730,282612
1564.15,0.211622,454170,278995
1568.22,0.211022,444181,273236
1571.27,0.210651,436947,269016
1574.32,0.209440,429598,265230
1577.36,0.208039,422039,261405
1580.4,0.206907,414375,257328
1583.43,0.205266,406354,253302
1586.46,0.204305,398475,248941
1590.49,0.202584,388982,243975
1593.51,0.200017,380708,240201
1596.53,0.197852,372727,236341
1599.54,0.195812,365060,232569
1602.55,0.194250,357543,228601
1605.55,0.192228,349495,224498
1608.55,0.189764,341154,220387
1612.54,0.188646,330877,214299
1615.53,0.185976,322904,210425
1618.51,0.185952,315116,205361
1621.49,0.184310,307217,200972
1624.47,0.183956,299481,196071
1627.44,0.183589,292112,191408
1630.41,0.181361,284245,187211
1634.36,0.180531,274079,180861
1637.32,0.180731,266916,176053
1640.27,0.180111,259612,171480
1643.22,0.177922,251804,167163
1646.16,0.177883,244348,162228
1649.1,0.176813,236703,157540
1652.04,0.174857,228171,152547
1655.95,0.172008,215408,144962
1658.88,0.168509,204937,139031
1661.8,0.162698,193395,132968
1664.72,0.155768,179728,125559
1667.63,0.141479,163642,118145
1670.54,0.128328,146312,108881
1673.44,0.110836,128451,99518
1677.31,0.093319,105080,84762
1680.21,0.078176,88906,74260
1683.1,0.071693,75033,63615
1685.99,0.069456,63520,54132
1688.87,0.078025,53714,44881
1691.75,0.080280,45653,37948
1694.62,0.088702,39137,31907
1697.49,0.094583,33776,27166
1701.31,0.100043,28175,22378