File: samples/wool/wool-000811/Column 1_050569_20150331_120849.csv
Method:,Column 1,,
Host Date-Time:,31/3/15 @ 12:8:49,,
Header Version:,1,,
System Temp (C):,34.05,,
Detector Temp (C):,34.02,,
Humidity (%):,1.76,,
Lamp PD:,3818,,
Shift Vector Coefficients:,-10.5391,0.0761263,-0.000134223,,
Pixel to Wavelength Coefficients:,1775.68,-0.916766,-0.000235065,,
Serial Number:,5510004,,
Scan Config Name:,Column 1,,
Scan Config Type:,Slew,,
Section 1,,
Start wavelength (nm):,900,,
End wavelength (nm):,1700,,
Pattern Pixel Width (nm):,   7.03,,,,
Exposure (ms):,  0.635,,,,
Digital Resolution:,228,,
Num Repeats:,6,,
PGA Gain:,64,,
Total Measurement Time in sec:,  2.675,,
Wavelength (nm),Absorbance (AU),Reference Signal (unitless),Sample Signal (unitless)
901.51,0.034671,108485,100161
905.376,0.038962,121306,110897
909.237,0.042859,131909,119513
913.095,0.044292,143299,129405
916.948,0.045357,156982,141414
922.079,0.047061,179937,161458
925.923,0.048315,200504,179394
929.762,0.048831,222660,198981
933.597,0.049767,244426,217962
937.427,0.047921,263972,236394
941.254,0.048484,281845,252073
945.076,0.046843,297271,266876
950.165,0.047390,315605,282979
953.978,0.046871,328029,294470
957.786,0.046580,340470,305843
961.59,0.046058,352317,316866
965.389,0.046885,363056,325903
969.185,0.046956,373162,334920
972.976,0.047762,382632,342783
976.763,0.048344,391202,349991
981.806,0.048588,400190,357831
985.583,0.049370,406088,362452
989.355,0.049713,410162,365799
993.124,0.050268,412868,367742
996.888,0.050908,414263,368441
1000.65,0.051790,415476,368770
1004.4,0.052354,415479,368294
1009.41,0.053994,414358,365916
1013.15,0.054854,412923,363928
1016.89,0.055124,411526,362471
1020.63,0.055262,409066,360190
1024.36,0.055085,406777,358320
1028.09,0.054641,404427,356615
1031.82,0.054655,401911,354385
1036.78,0.054005,398410,351824
1040.49,0.054000,396204,349880
1044.2,0.053996,394236,348145
1047.91,0.052769,392042,347187
1051.61,0.052743,389823,345243
1055.31,0.052110,388234,344337
1059,0.051901,387599,343939
1063.92,0.050785,386688,344014
1067.61,0.049752,386598,344753
1071.29,0.049531,387377,345623
1074.96,0.048900,388536,347161
1078.63,0.048461,389855,348692
1082.3,0.047314,391215,350834
1085.96,0.046628,393215,353185
1090.84,0.046252,396270,356237
1094.49,0.045954,398760,358722
1098.14,0.044793,400987,361691
1101.79,0.045148,403477,363639
1105.43,0.044709,406116,366388
1109.06,0.044383,407701,368094
1112.7,0.044584,409859,369871
1117.53,0.044582,412494,372251
1121.15,0.045307,414909,373806
1124.77,0.045970,416559,374720
1128.38,0.046974,418532,375625
1131.99,0.047850,419956,376144
1135.6,0.050176,421946,375907
1139.2,0.051793,423881,376228
1143.99,0.054108,426786,376792
1147.58,0.054972,428617,377657
1151.17,0.056304,431169,378742
1154.75,0.057736,433579,379605
1158.33,0.059439,436264,380461
1161.91,0.061441,439132,381201
1165.48,0.063972,442389,381797
1169.04,0.066475,446101,382788
1173.79,0.070444,451929,384261
1177.34,0.072931,456026,385530
1180.9,0.075358,461306,387821
1184.44,0.076948,467657,391723
1187.99,0.077425,473969,396575
1191.52,0.077563,479856,401373
1195.06,0.076942,487372,408243
1199.76,0.076184,497347,417326
1203.29,0.075259,504311,424072
1206.81,0.074654,511507,430723
1210.33,0.074104,519078,437652
1213.84,0.073178,527163,445417
1217.35,0.072054,534208,452539
1220.85,0.071293,540472,458649
1225.51,0.070646,549929,467370
1229.01,0.069950,556888,474043
1232.5,0.068963,562180,479637
1235.98,0.068579,567975,485009
1239.46,0.067873,574815,491649
1242.94,0.066633,582782,499888
1246.41,0.065635,591476,508513
1251.03,0.065729,604016,519182
1254.5,0.066105,612289,525837
1257.96,0.066729,619125,530945
1261.41,0.066954,624551,535321
1264.86,0.067793,629900,538863
1268.31,0.068231,634345,542119
1271.75,0.069209,638574,544506
1276.33,0.069440,642499,547561
1279.76,0.068967,645905,551063
1283.19,0.068332,648307,553922
1286.61,0.068434,650446,555619
1290.03,0.067743,652132,557947
1293.44,0.067398,653907,559910
1296.85,0.067420,655963,561642
1301.39,0.066673,657349,563797
1304.8,0.066596,657558,564077
1308.19,0.067003,658515,564369
1311.58,0.067238,658804,564311
1314.97,0.068102,659011,563366
1318.36,0.068174,658272,562641
1321.73,0.068594,658022,561884
1326.23,0.070069,657870,559849
1329.6,0.070353,656482,558303
1332.97,0.071444,654926,555582
1336.33,0.072438,653727,553297
1339.69,0.074277,652497,549922
1343.04,0.076229,649913,545288
1346.39,0.078181,647671,540970
1349.73,0.080416,645338,536255
1354.18,0.083578,641175,528930
1357.52,0.086231,638376,523414
1360.85,0.088398,635805,518712
1364.17,0.090582,633413,514168
1367.49,0.092558,631026,509905
1370.81,0.095072,628050,504571
1374.12,0.097848,625034,498948
1378.54,0.100652,620272,491961
1381.84,0.103940,616892,485589
1385.14,0.108048,613613,478461
1388.43,0.112593,611526,471870
1391.72,0.116998,610663,466448
1395.01,0.121564,610634,461548
1398.29,0.126726,611700,456891
1402.66,0.133754,614051,451285
1405.93,0.139703,616268,446752
1409.2,0.145172,617795,442255
1412.46,0.150750,618872,437372
1415.72,0.154965,619795,433794
1418.98,0.158878,620495,430388
1422.23,0.162418,621087,427302
1426.56,0.166555,621375,423447
1429.8,0.169134,621616,421103
1433.04,0.172238,622129,418449
1436.27,0.174318,621526,416046
1439.5,0.176403,621113,413778
1442.72,0.179223,620921,410973
1445.94,0.181532,620270,408365
1450.23,0.185392,618860,403832
1453.44,0.188401,617697,400290
1456.64,0.191577,616264,396451
1459.85,0.194750,614413,392383
1463.04,0.197042,612307,388980
1466.24,0.200660,610032,384320
1469.43,0.204606,607345,379166
1473.67,0.210676,603789,371714
1476.85,0.216217,601175,365413
1480.02,0.221807,597737,358677
1483.19,0.229631,594479,350353
1486.36,0.235124,591232,344060
1489.52,0.240785,587853,337663
1492.68,0.244852,583875,332252
1496.89,0.247378,578062,327037
1500.03,0.247712,574159,324579
1503.18,0.247723,570285,322381
1506.32,0.247009,565444,320170
1509.45,0.246083,560571,318088
1512.58,0.243967,555821,316933
1515.71,0.241576,550344,315543
1519.87,0.238620,543983,314026
1522.99,0.235325,538764,313382
1526.1,0.233530,533692,311717
1529.21,0.229794,527902,310999
1532.32,0.226949,521886,309476
1535.42,0.224046,515888,307971
1538.51,0.220312,509987,307077
1541.6,0.217411,503936,305467
1545.72,0.212888,494694,303004
1548.8,0.209637,488378,301383
1551.88,0.207647,481832,298709
1554.95,0.204918,474989,296323
1558.02,0.203036,467818,293117
1561.08,0.201526,460730,289681
1564.15,0.201906,454170,285307
1568.22,0.200264,444181,280089
1571.27,0.199726,436947,275869
1574.32,0.198077,429598,272261
1577.36,0.196648,422039,268352
1580.4,0.194988,414375,264488
1583.43,0.193529,406354,260241
1586.46,0.192399,398475,255860
1590.49,0.190240,388982,251009
1593.51,0.187426,380708,247267
1596.53,0.186028,372727,242864
1599.54,0.183240,365060,239400
1602.55,0.181291,357543,235525
1605.55,0.178809,349495,231543
1608.55,0.176523,341154,227210
1612.54,0.174923,330877,221179
1615.53,0.171992,322904,217311
1618.51,0.171592,315116,212265
1621.49,0.171462,307217,207006
1624.47,0.167963,299481,203426
1627.44,0.167494,292112,198635
1630.41,0.165755,284245,194061
1634.36,0.164287,274079,187754
1637.32,0.163366,266916,183235
1640.27,0.163317,259612,178241
1643.22,0.161135,251804,173751
1646.16,0.160690,244348,168779
1649.1,0.161047,236703,163364
1652.04,0.159548,228171,158020
1655.95,0.157116,215408,150019
1658.88,0.152902,204937,144118
1661.8,0.149725,193395,137000
1664.72,0.141977,179728,129610
1667.63,0.131300,163642,120947
1670.54,0.119105,146312,111218
1673.44,0.105768,128451,100686
1677.31,0.087486,105080,85908
1680.21,0.082437,88906,73535
1683.1,0.078789,75033,62584
1685.99,0.081908,63520,52602
1688.87,0.083488,53714,44320
1691.75,0.089873,45653,37119
1694.62,0.096004,39137,31375
1697.49,0.107317,33776,26381
1701.31,0.112724,28175,21734