File: samples/wool/wool-000811/Column 1_050549_20150331_115917.csv
Method:,Column 1,,
Host Date-Time:,31/3/15 @ 11:59:17,,
Header Version:,1,,
System Temp (C):,33.21,,
Detector Temp (C):,31.99,,
Humidity (%):,2.25,,
Lamp PD:,3822,,
Shift Vector Coefficients:,-10.5391,0.0761263,-0.000134223,,
Pixel to Wavelength Coefficients:,1775.68,-0.916766,-0.000235065,,
Serial Number:,5510004,,
Scan Config Name:,Column 1,,
Scan Config Type:,Slew,,
Section 1,,
Start wavelength (nm):,900,,
End wavelength (nm):,1700,,
Pattern Pixel Width (nm):,   7.03,,,,
Exposure (ms):,  0.635,,,,
Digital Resolution:,228,,
Num Repeats:,6,,
PGA Gain:,64,,
Total Measurement Time in sec:,  2.723,,
Wavelength (nm),Absorbance (AU),Reference Signal (unitless),Sample Signal (unitless)
901.51,0.044742,108485,97865
905.376,0.051634,121306,107708
909.237,0.053051,131909,116741
913.095,0.054390,143299,126431
916.948,0.054350,156982,138516
922.079,0.054960,179937,158548
925.923,0.055447,200504,176472
929.762,0.056731,222660,195394
933.597,0.056368,244426,214674
937.427,0.056551,263972,231743
941.254,0.056254,281845,247603
945.076,0.055578,297271,261562
950.165,0.056069,315605,277380
953.978,0.055120,328029,288930
957.786,0.055409,340470,299688
961.59,0.055683,352317,309921
965.389,0.056435,363056,318815
969.185,0.056161,373162,327896
972.976,0.056870,382632,335669
976.763,0.057808,391202,342447
981.806,0.058000,400190,350160
985.583,0.058161,406088,355189
989.355,0.059303,410162,357810
993.124,0.059803,412868,359756
996.888,0.059810,414263,360966
1000.65,0.061330,415476,360758
1004.4,0.062236,415479,360009
1009.41,0.063530,414358,357969
1013.15,0.064015,412923,356331
1016.89,0.064929,411526,354379
1020.63,0.063653,409066,353297
1024.36,0.064526,406777,350615
1028.09,0.064022,404427,348994
1031.82,0.063720,401911,347064
1036.78,0.062805,398410,344767
1040.49,0.062312,396204,343247
1044.2,0.061992,394236,341794
1047.91,0.060857,392042,340781
1051.61,0.060827,389823,338876
1055.31,0.060507,388234,337743
1059,0.059228,387599,338185
1063.92,0.058167,386688,338216
1067.61,0.057137,386598,338940
1071.29,0.056458,387377,340154
1074.96,0.055777,388536,341707
1078.63,0.054909,389855,343553
1082.3,0.054415,391215,345144
1085.96,0.053448,393215,347682
1090.84,0.052428,396270,351207
1094.49,0.052069,398760,353706
1098.14,0.052044,400987,355702
1101.79,0.051834,403477,358084
1105.43,0.051999,406116,360289
1109.06,0.051228,407701,362338
1112.7,0.051037,409859,364416
1117.53,0.051033,412494,366762
1121.15,0.052000,414909,368089
1124.77,0.052053,416559,369508
1128.38,0.053506,418532,370018
1131.99,0.055618,419956,369476
1135.6,0.057364,421946,369737
1139.2,0.058886,423881,370133
1143.99,0.061604,426786,370345
1147.58,0.062736,428617,370965
1151.17,0.064260,431169,371867
1154.75,0.066203,433579,372276
1158.33,0.067774,436264,373229
1161.91,0.070395,439132,373422
1165.48,0.073475,442389,373533
1169.04,0.076093,446101,374404
1173.79,0.080066,451929,375841
1177.34,0.083168,456026,376549
1180.9,0.085836,461306,378576
1184.44,0.087363,467657,382441
1187.99,0.088649,473969,386457
1191.52,0.088171,479856,391688
1195.06,0.087614,487372,398333
1199.76,0.086274,497347,407742
1203.29,0.085122,504311,414550
1206.81,0.083400,511507,422135
1210.33,0.082344,519078,429426
1213.84,0.081829,527163,436632
1217.35,0.079866,534208,444472
1220.85,0.079252,540472,450320
1225.51,0.077260,549929,460306
1229.01,0.077096,556888,466307
1232.5,0.075860,562180,472080
1235.98,0.075641,567975,477187
1239.46,0.073941,574815,484827
1242.94,0.073260,582782,492318
1246.41,0.072418,591476,500633
1251.03,0.071732,604016,512055
1254.5,0.071972,612289,518781
1257.96,0.072411,619125,524044
1261.41,0.073055,624551,527853
1264.86,0.073701,629900,531583
1268.31,0.073964,634345,535010
1271.75,0.075071,638574,537205
1276.33,0.074971,642499,540632
1279.76,0.075005,645905,543455
1283.19,0.074280,648307,546387
1286.61,0.074180,650446,548316
1290.03,0.073446,652132,550667
1293.44,0.073070,653907,552645
1296.85,0.073033,655963,554429
1301.39,0.072689,657349,556041
1304.8,0.072583,657558,556354
1308.19,0.072985,658515,556648
1311.58,0.072938,658804,556952
1314.97,0.073644,659011,556223
1318.36,0.074469,658272,554544
1321.73,0.074614,658022,554149
1326.23,0.075587,657870,552781
1329.6,0.076469,656482,550495
1332.97,0.077320,654926,548116
1336.33,0.078940,653727,545075
1339.69,0.080656,652497,541904
1343.04,0.082420,649913,537570
1346.39,0.085019,647671,532520
1349.73,0.087720,645338,527312
1354.18,0.091063,641175,519892
1357.52,0.093369,638376,514882
1360.85,0.095803,635805,509942
1364.17,0.098701,633413,504645
1367.49,0.100790,631026,500331
1370.81,0.103631,628050,494724
1374.12,0.106692,625034,488891
1378.54,0.110152,620272,481316
1381.84,0.114104,616892,474357
1385.14,0.118294,613613,467305
1388.43,0.123426,611526,460245
1391.72,0.128813,610663,453930
1395.01,0.134201,610634,448312
1398.29,0.140313,611700,442818
1402.66,0.148623,614051,436095
1405.93,0.154621,616268,431667
1409.2,0.161114,617795,426315
1412.46,0.166349,618872,421941
1415.72,0.171341,619795,417741
1418.98,0.176139,620495,413618
1422.23,0.179682,621087,410649
1426.56,0.184223,621375,406566
1429.8,0.187380,621616,403778
1433.04,0.190438,622129,401275
1436.27,0.193042,621526,398490
1439.5,0.194913,621113,396513
1442.72,0.197815,620921,393751
1445.94,0.200167,620270,391213
1450.23,0.203973,618860,386918
1453.44,0.206906,617697,383592
1456.64,0.210116,616264,379884
1459.85,0.212813,614413,376398
1463.04,0.215460,612307,372829
1466.24,0.218632,610032,368740
1469.43,0.222493,607345,363867
1473.67,0.227771,603789,357367
1476.85,0.232863,601175,351672
1480.02,0.239105,597737,344671
1483.19,0.245371,594479,337882
1486.36,0.252020,591232,330931
1489.52,0.257196,587853,325142
1492.68,0.261326,583875,319885
1496.89,0.263489,578062,315127
1500.03,0.264855,574159,312016
1503.18,0.265336,570285,309568
1506.32,0.264434,565444,307578
1509.45,0.263689,560571,305451
1512.58,0.262104,555821,303970
1515.71,0.259448,550344,302821
1519.87,0.256589,543983,301298
1522.99,0.253920,538764,300247
1526.1,0.250969,533692,299448
1529.21,0.248011,527902,298224
1532.32,0.244581,521886,297163
1535.42,0.241312,515888,295967
1538.51,0.238007,509987,294817
1541.6,0.234467,503936,293703
1545.72,0.229384,494694,291711
1548.8,0.226175,488378,290122
1551.88,0.223517,481832,287991
1554.95,0.221103,474989,285483
1558.02,0.219388,467818,282286
1561.08,0.218096,460730,278837
1564.15,0.217608,454170,275176
1568.22,0.216129,444181,270042
1571.27,0.215902,436947,265783
1574.32,0.214348,429598,262249
1577.36,0.212974,422039,258451
1580.4,0.212189,414375,254217
1583.43,0.210038,406354,250534
1586.46,0.207736,398475,246982
1590.49,0.205053,388982,242592
1593.51,0.202603,380708,238775
1596.53,0.199966,372727,235193
1599.54,0.197956,365060,231424
1602.55,0.195403,357543,227995
1605.55,0.193494,349495,223845
1608.55,0.191022,341154,219750
1612.54,0.188142,330877,214548
1615.53,0.185578,322904,210618
1618.51,0.184867,315116,205875
1621.49,0.182662,307217,201736
1624.47,0.181833,299481,197032
1627.44,0.180267,292112,192878
1630.41,0.178464,284245,188464
1634.36,0.176473,274079,182559
1637.32,0.176008,266916,177978
1640.27,0.175175,259612,173440
1643.22,0.174079,251804,168649
1646.16,0.173033,244348,164050
1649.1,0.172476,236703,159121
1652.04,0.171838,228171,153611
1655.95,0.168015,215408,146301
1658.88,0.166104,204937,139803
1661.8,0.163640,193395,132680
1664.72,0.158589,179728,124746
1667.63,0.150783,163642,115641
1670.54,0.141925,146312,105525
1673.44,0.135199,128451,94089
1677.31,0.123377,105080,79094
1680.21,0.121782,88906,67166
1683.1,0.117811,75033,57206
1685.99,0.123764,63520,47769
1688.87,0.129191,53714,39893
1691.75,0.134801,45653,33471
1694.62,0.139973,39137,28354
1697.49,0.139017,33776,24524
1701.31,0.139319,28175,20443