File: samples/wool/wool-000811/Column 1_050567_20150331_120804.csv
Method:,Column 1,,
Host Date-Time:,31/3/15 @ 12:8:4,,
Header Version:,1,,
System Temp (C):,34,,
Detector Temp (C):,33.94,,
Humidity (%):,1.86,,
Lamp PD:,3819,,
Shift Vector Coefficients:,-10.5391,0.0761263,-0.000134223,,
Pixel to Wavelength Coefficients:,1775.68,-0.916766,-0.000235065,,
Serial Number:,5510004,,
Scan Config Name:,Column 1,,
Scan Config Type:,Slew,,
Section 1,,
Start wavelength (nm):,900,,
End wavelength (nm):,1700,,
Pattern Pixel Width (nm):,   7.03,,,,
Exposure (ms):,  0.635,,,,
Digital Resolution:,228,,
Num Repeats:,6,,
PGA Gain:,64,,
Total Measurement Time in sec:,  2.672,,
Wavelength (nm),Absorbance (AU),Reference Signal (unitless),Sample Signal (unitless)
901.51,0.034879,108485,100113
905.376,0.041216,121306,110323
909.237,0.042307,131909,119665
913.095,0.044255,143299,129416
916.948,0.044027,156982,141848
922.079,0.046427,179937,161694
925.923,0.048262,200504,179416
929.762,0.049392,222660,198724
933.597,0.047971,244426,218865
937.427,0.048558,263972,236048
941.254,0.047849,281845,252442
945.076,0.047322,297271,266582
950.165,0.047071,315605,283187
953.978,0.046283,328029,294869
957.786,0.046203,340470,306109
961.59,0.046530,352317,316522
965.389,0.047127,363056,325722
969.185,0.047336,373162,334627
972.976,0.047728,382632,342810
976.763,0.048210,391202,350099
981.806,0.047766,400190,358509
985.583,0.049637,406088,362229
989.355,0.049477,410162,365998
993.124,0.050405,412868,367626
996.888,0.051153,414263,368233
1000.65,0.051160,415476,369306
1004.4,0.052616,415479,368072
1009.41,0.054359,414358,365609
1013.15,0.054561,412923,364173
1016.89,0.055010,411526,362566
1020.63,0.054957,409066,360443
1024.36,0.055470,406777,358003
1028.09,0.054856,404427,356438
1031.82,0.054434,401911,354565
1036.78,0.053986,398410,351839
1040.49,0.054027,396204,349858
1044.2,0.053871,394236,348245
1047.91,0.053200,392042,346843
1051.61,0.052432,389823,345490
1055.31,0.051237,388234,345030
1059,0.051356,387599,344371
1063.92,0.050422,386688,344301
1067.61,0.049973,386598,344577
1071.29,0.049362,387377,345758
1074.96,0.049033,388536,347055
1078.63,0.047481,389855,349480
1082.3,0.047560,391215,350635
1085.96,0.046865,393215,352992
1090.84,0.045926,396270,356505
1094.49,0.045845,398760,358812
1098.14,0.045226,400987,361330
1101.79,0.045653,403477,363217
1105.43,0.045014,406116,366131
1109.06,0.044321,407701,368147
1112.7,0.044260,409859,370147
1117.53,0.044837,412494,372032
1121.15,0.045298,414909,373813
1124.77,0.045579,416559,375057
1128.38,0.046973,418532,375626
1131.99,0.048747,419956,375368
1135.6,0.050131,421946,375946
1139.2,0.051851,423881,376178
1143.99,0.054429,426786,376514
1147.58,0.055735,428617,376994
1151.17,0.056349,431169,378703
1154.75,0.058032,433579,379347
1158.33,0.059298,436264,380585
1161.91,0.060994,439132,381594
1165.48,0.063968,442389,381800
1169.04,0.066403,446101,382851
1173.79,0.070516,451929,384197
1177.34,0.072645,456026,385784
1180.9,0.075101,461306,388050
1184.44,0.076566,467657,392068
1187.99,0.077846,473969,396190
1191.52,0.077522,479856,401411
1195.06,0.077077,487372,408116
1199.76,0.076122,497347,417386
1203.29,0.075682,504311,423659
1206.81,0.075071,511507,430309
1210.33,0.073834,519078,437924
1213.84,0.072995,527163,445605
1217.35,0.072332,534208,452250
1220.85,0.071673,540472,458248
1225.51,0.070743,549929,467265
1229.01,0.070083,556888,473898
1232.5,0.069414,562180,479139
1235.98,0.068351,567975,485264
1239.46,0.067699,574815,491846
1242.94,0.066554,582782,499979
1246.41,0.066241,591476,507804
1251.03,0.065850,604016,519037
1254.5,0.066000,612289,525964
1257.96,0.065962,619125,531883
1261.41,0.066853,624551,535445
1264.86,0.067361,629900,539400
1268.31,0.068699,634345,541535
1271.75,0.069303,638574,544388
1276.33,0.069665,642499,547277
1279.76,0.069320,645905,550616
1283.19,0.068836,648307,553280
1286.61,0.068599,650446,555408
1290.03,0.068060,652132,557539
1293.44,0.067514,653907,559760
1296.85,0.067431,655963,561627
1301.39,0.066995,657349,563380
1304.8,0.067001,657558,563551
1308.19,0.067586,658515,563611
1311.58,0.067586,658804,563859
1314.97,0.067900,659011,563628
1318.36,0.068238,658272,562558
1321.73,0.069248,658022,561038
1326.23,0.069855,657870,560125
1329.6,0.070606,656482,557978
1332.97,0.071491,654926,555522
1336.33,0.072837,653727,552789
1339.69,0.074663,652497,549434
1343.04,0.076849,649913,544510
1346.39,0.078668,647671,540364
1349.73,0.080516,645338,536131
1354.18,0.083661,641175,528829
1357.52,0.086242,638376,523401
1360.85,0.088465,635805,518631
1364.17,0.090524,633413,514237
1367.49,0.092885,631026,509521
1370.81,0.095527,628050,504043
1374.12,0.097698,625034,499121
1378.54,0.101047,620272,491513
1381.84,0.104448,616892,485022
1385.14,0.108115,613613,478387
1388.43,0.112699,611526,471754
1391.72,0.117433,610663,465981
1395.01,0.122257,610634,460812
1398.29,0.127242,611700,456348
1402.66,0.134686,614051,450317
1405.93,0.140956,616268,445465
1409.2,0.145388,617795,442035
1412.46,0.150860,618872,437261
1415.72,0.155288,619795,433471
1418.98,0.159325,620495,429945
1422.23,0.162914,621087,426814
1426.56,0.167487,621375,422539
1429.8,0.170313,621616,419961
1433.04,0.172276,622129,418412
1436.27,0.175253,621526,415151
1439.5,0.177714,621113,412531
1442.72,0.180380,620921,409880
1445.94,0.182425,620270,407526
1450.23,0.186445,618860,402854
1453.44,0.189373,617697,399395
1456.64,0.192119,616264,395957
1459.85,0.195286,614413,391899
1463.04,0.198052,612307,388076
1466.24,0.201080,610032,383948
1469.43,0.204954,607345,378862
1473.67,0.211186,603789,371278
1476.85,0.216907,601175,364833
1480.02,0.223070,597737,357635
1483.19,0.229715,594479,350285
1486.36,0.235748,591232,343566
1489.52,0.241192,587853,337347
1492.68,0.244776,583875,332310
1496.89,0.247403,578062,327018
1500.03,0.248426,574159,324046
1503.18,0.247888,570285,322258
1506.32,0.247389,565444,319890
1509.45,0.246305,560571,317926
1512.58,0.244630,555821,316450
1515.71,0.241715,550344,315442
1519.87,0.238321,543983,314242
1522.99,0.235459,538764,313285
1526.1,0.232804,533692,312239
1529.21,0.230507,527902,310489
1532.32,0.226856,521886,309542
1535.42,0.223896,515888,308077
1538.51,0.220916,509987,306650
1541.6,0.217346,503936,305513
1545.72,0.213346,494694,302685
1548.8,0.210145,488378,301031
1551.88,0.207810,481832,298597
1554.95,0.204980,474989,296281
1558.02,0.203556,467818,292766
1561.08,0.202676,460730,288915
1564.15,0.201746,454170,285412
1568.22,0.199784,444181,280399
1571.27,0.199768,436947,275842
1574.32,0.198436,429598,272036
1577.36,0.196777,422039,268272
1580.4,0.195888,414375,263940
1583.43,0.194678,406354,259553
1586.46,0.191819,398475,256202
1590.49,0.190403,388982,250915
1593.51,0.187920,380708,246986
1596.53,0.185470,372727,243176
1599.54,0.183570,365060,239218
1602.55,0.181430,357543,235450
1605.55,0.179339,349495,231261
1608.55,0.176990,341154,226966
1612.54,0.175347,330877,220963
1615.53,0.173359,322904,216628
1618.51,0.171367,315116,212375
1621.49,0.170069,307217,207671
1624.47,0.169419,299481,202745
1627.44,0.167859,292112,198468
1630.41,0.167079,284245,193470
1634.36,0.165758,274079,187119
1637.32,0.164168,266916,182897
1640.27,0.164188,259612,177884
1643.22,0.162868,251804,173059
1646.16,0.162643,244348,168022
1649.1,0.161170,236703,163318
1652.04,0.158642,228171,158350
1655.95,0.157501,215408,149886
1658.88,0.154529,204937,143579
1661.8,0.149674,193395,137016
1664.72,0.142088,179728,129577
1667.63,0.132609,163642,120583
1670.54,0.119871,146312,111022
1673.44,0.107870,128451,100200
1677.31,0.091585,105080,85101
1680.21,0.085032,88906,73097
1683.1,0.078581,75033,62614
1685.99,0.080985,63520,52714
1688.87,0.085570,53714,44108
1691.75,0.088845,45653,37207
1694.62,0.098725,39137,31179
1697.49,0.104037,33776,26581
1701.31,0.102046,28175,22275