File: samples/wool/wool-000811/Column 1_050595_20150331_122101.csv
Method:,Column 1,,
Host Date-Time:,31/3/15 @ 12:21:1,,
Header Version:,1,,
System Temp (C):,33.94,,
Detector Temp (C):,34.62,,
Humidity (%):,1.76,,
Lamp PD:,3818,,
Shift Vector Coefficients:,-10.5391,0.0761263,-0.000134223,,
Pixel to Wavelength Coefficients:,1775.68,-0.916766,-0.000235065,,
Serial Number:,5510004,,
Scan Config Name:,Column 1,,
Scan Config Type:,Slew,,
Section 1,,
Start wavelength (nm):,900,,
End wavelength (nm):,1700,,
Pattern Pixel Width (nm):,   7.03,,,,
Exposure (ms):,  0.635,,,,
Digital Resolution:,228,,
Num Repeats:,6,,
PGA Gain:,64,,
Total Measurement Time in sec:,  2.732,,
Wavelength (nm),Absorbance (AU),Reference Signal (unitless),Sample Signal (unitless)
901.51,0.068140,108485,92732
905.376,0.074181,121306,102259
909.237,0.078081,131909,110203
913.095,0.077757,143299,119808
916.948,0.079691,156982,130665
922.079,0.081617,179937,149109
925.923,0.081416,200504,166229
929.762,0.082419,222660,184172
933.597,0.082383,244426,202192
937.427,0.082259,263972,218423
941.254,0.081118,281845,233826
945.076,0.079341,297271,247635
950.165,0.079487,315605,262819
953.978,0.078979,328029,273485
957.786,0.078441,340470,284209
961.59,0.078863,352317,293813
965.389,0.078697,363056,302884
969.185,0.078869,373162,311192
972.976,0.079023,382632,318976
976.763,0.079730,391202,325590
981.806,0.080178,400190,332727
985.583,0.080896,406088,337073
989.355,0.080711,410162,340600
993.124,0.081346,412868,342346
996.888,0.082038,414263,342956
1000.65,0.082852,415476,343316
1004.4,0.083323,415479,342946
1009.41,0.085223,414358,340528
1013.15,0.085640,412923,339023
1016.89,0.085506,411526,337980
1020.63,0.086004,409066,335575
1024.36,0.085802,406777,333852
1028.09,0.085996,404427,331775
1031.82,0.086147,401911,329597
1036.78,0.085448,398410,327252
1040.49,0.084896,396204,325854
1044.2,0.085324,394236,323916
1047.91,0.085022,392042,322337
1051.61,0.085008,389823,320523
1055.31,0.083925,388234,320014
1059,0.083315,387599,319939
1063.92,0.083024,386688,319401
1067.61,0.081430,386598,320501
1071.29,0.082042,387377,320695
1074.96,0.080720,388536,322635
1078.63,0.080822,389855,323654
1082.3,0.079744,391215,325590
1085.96,0.078773,393215,327987
1090.84,0.078020,396270,331109
1094.49,0.077351,398760,333703
1098.14,0.076609,400987,336141
1101.79,0.076210,403477,338539
1105.43,0.076477,406116,340544
1109.06,0.075274,407701,342821
1112.7,0.075290,409859,344623
1117.53,0.074717,412494,347297
1121.15,0.075237,414909,348912
1124.77,0.075363,416559,350198
1128.38,0.076513,418532,350926
1131.99,0.076909,419956,351799
1135.6,0.078930,421946,351825
1139.2,0.080086,423881,352499
1143.99,0.082389,426786,353038
1147.58,0.082825,428617,354197
1151.17,0.083688,431169,355598
1154.75,0.085068,433579,356451
1158.33,0.086470,436264,357503
1161.91,0.087923,439132,358651
1165.48,0.090382,442389,359271
1169.04,0.092151,446101,360813
1173.79,0.096063,451929,362249
1177.34,0.098430,456026,363546
1180.9,0.099704,461306,366678
1184.44,0.101891,467657,369859
1187.99,0.102559,473969,374275
1191.52,0.102763,479856,378746
1195.06,0.102829,487372,384620
1199.76,0.101684,497347,393528
1203.29,0.101274,504311,399415
1206.81,0.100696,511507,405654
1210.33,0.099966,519078,412351
1213.84,0.099331,527163,419386
1217.35,0.098508,534208,425797
1220.85,0.098142,540472,431153
1225.51,0.097721,549929,439122
1229.01,0.096842,556888,445580
1232.5,0.096590,562180,450076
1235.98,0.095818,567975,455524
1239.46,0.095089,574815,461784
1242.94,0.093831,582782,469543
1246.41,0.093101,591476,477349
1251.03,0.093583,604016,486929
1254.5,0.093450,612289,493749
1257.96,0.093889,619125,498757
1261.41,0.094550,624551,502363
1264.86,0.094792,629900,506384
1268.31,0.095363,634345,509287
1271.75,0.096122,638574,511787
1276.33,0.096161,642499,514886
1279.76,0.095908,645905,517917
1283.19,0.095852,648307,519911
1286.61,0.095342,650446,522239
1290.03,0.094781,652132,524269
1293.44,0.094062,653907,526568
1296.85,0.094310,655963,527922
1301.39,0.093947,657349,529479
1304.8,0.093810,657558,529815
1308.19,0.094388,658515,529880
1311.58,0.094296,658804,530225
1314.97,0.094827,659011,529744
1318.36,0.094925,658272,529030
1321.73,0.095615,658022,527990
1326.23,0.096719,657870,526528
1329.6,0.097384,656482,524613
1332.97,0.098068,654926,522546
1336.33,0.099245,653727,520177
1339.69,0.100588,652497,517595
1343.04,0.102092,649913,513763
1346.39,0.103823,647671,509954
1349.73,0.106372,645338,505144
1354.18,0.109037,641175,498815
1357.52,0.111077,638376,494310
1360.85,0.113421,635805,489669
1364.17,0.114990,633413,486068
1367.49,0.116840,631026,482178
1370.81,0.119620,628050,476842
1374.12,0.122068,625034,471884
1378.54,0.124703,620272,465457
1381.84,0.127294,616892,460167
1385.14,0.131409,613613,453404
1388.43,0.135184,611526,447951
1391.72,0.138931,610663,443476
1395.01,0.143524,610634,438790
1398.29,0.147914,611700,435135
1402.66,0.155185,614051,429556
1405.93,0.160666,616268,425700
1409.2,0.164730,617795,422780
1412.46,0.169638,618872,418758
1415.72,0.173546,619795,415625
1418.98,0.177722,620495,412113
1422.23,0.181236,621087,409182
1426.56,0.184972,621375,405865
1429.8,0.187568,621616,403603
1433.04,0.189885,622129,401787
1436.27,0.192379,621526,399099
1439.5,0.194512,621113,396879
1442.72,0.196282,620921,395143
1445.94,0.199109,620270,392168
1450.23,0.202523,618860,388212
1453.44,0.205425,617697,384902
1456.64,0.208394,616264,381393
1459.85,0.210716,614413,378220
1463.04,0.213222,612307,374755
1466.24,0.216646,610032,370430
1469.43,0.220206,607345,365788
1473.67,0.226380,603789,358513
1476.85,0.231472,601175,352800
1480.02,0.237514,597737,345936
1483.19,0.242941,594479,339778
1486.36,0.248561,591232,333578
1489.52,0.253192,587853,328153
1492.68,0.256497,583875,323462
1496.89,0.258541,578062,318738
1500.03,0.258941,574159,316294
1503.18,0.259382,570285,313841
1506.32,0.257804,565444,312310
1509.45,0.257220,560571,310035
1512.58,0.254931,555821,309032
1515.71,0.252548,550344,307671
1519.87,0.249729,543983,306095
1522.99,0.247526,538764,304700
1526.1,0.244987,533692,303601
1529.21,0.242311,527902,302164
1532.32,0.239675,521886,300539
1535.42,0.236043,515888,299580
1538.51,0.233559,509987,297852
1541.6,0.231065,503936,296013
1545.72,0.226884,494694,293395
1548.8,0.224211,488378,291437
1551.88,0.221908,481832,289060
1554.95,0.219456,474989,286568
1558.02,0.217166,467818,283734
1561.08,0.216996,460730,279544
1564.15,0.216402,454170,275941
1568.22,0.215208,444181,270615
1571.27,0.215071,436947,266292
1574.32,0.214302,429598,262277
1577.36,0.212501,422039,258733
1580.4,0.212145,414375,254243
1583.43,0.209172,406354,251034
1586.46,0.208065,398475,246795
1590.49,0.206585,388982,241738
1593.51,0.204634,380708,237661
1596.53,0.202468,372727,233842
1599.54,0.200636,365060,230000
1602.55,0.198999,357543,226115
1605.55,0.197217,349495,221934
1608.55,0.195254,341154,217619
1612.54,0.193036,330877,212144
1615.53,0.189834,322904,208564
1618.51,0.189290,315116,203789
1621.49,0.189359,307217,198649
1624.47,0.187937,299481,194282
1627.44,0.186830,292112,189985
1630.41,0.186235,284245,185122
1634.36,0.184470,274079,179228
1637.32,0.183279,266916,175023
1640.27,0.183271,259612,170237
1643.22,0.182110,251804,165559
1646.16,0.181450,244348,160901
1649.1,0.180870,236703,156075
1652.04,0.179770,228171,150831
1655.95,0.176767,215408,143382
1658.88,0.173135,204937,137558
1661.8,0.166230,193395,131891
1664.72,0.159255,179728,124555
1667.63,0.147289,163642,116575
1670.54,0.134417,146312,107365
1673.44,0.118972,128451,97671
1677.31,0.096972,105080,84052
1680.21,0.086317,88906,72881
1683.1,0.083646,75033,61888
1685.99,0.083778,63520,52376
1688.87,0.086092,53714,44055
1691.75,0.090974,45653,37025
1694.62,0.091775,39137,31682
1697.49,0.093656,33776,27224
1701.31,0.109598,28175,21891