File: samples/wool/wool-000811/Column 1_050595_20150331_122124.csv
Method:,Column 1,,
Host Date-Time:,31/3/15 @ 12:21:24,,
Header Version:,1,,
System Temp (C):,33.94,,
Detector Temp (C):,34.7,,
Humidity (%):,1.76,,
Lamp PD:,3818,,
Shift Vector Coefficients:,-10.5391,0.0761263,-0.000134223,,
Pixel to Wavelength Coefficients:,1775.68,-0.916766,-0.000235065,,
Serial Number:,5510004,,
Scan Config Name:,Column 1,,
Scan Config Type:,Slew,,
Section 1,,
Start wavelength (nm):,900,,
End wavelength (nm):,1700,,
Pattern Pixel Width (nm):,   7.03,,,,
Exposure (ms):,  0.635,,,,
Digital Resolution:,228,,
Num Repeats:,6,,
PGA Gain:,64,,
Total Measurement Time in sec:,  2.675,,
Wavelength (nm),Absorbance (AU),Reference Signal (unitless),Sample Signal (unitless)
901.51,0.069280,108485,92489
905.376,0.075785,121306,101882
909.237,0.078298,131909,110148
913.095,0.078258,143299,119670
916.948,0.079269,156982,130792
922.079,0.081756,179937,149061
925.923,0.082355,200504,165870
929.762,0.082881,222660,183976
933.597,0.082579,244426,202101
937.427,0.081552,263972,218779
941.254,0.081331,281845,233711
945.076,0.079920,297271,247305
950.165,0.078983,315605,263124
953.978,0.078595,328029,273727
957.786,0.078635,340470,284082
961.59,0.078155,352317,294292
965.389,0.078660,363056,302910
969.185,0.079229,373162,310934
972.976,0.079429,382632,318678
976.763,0.079783,391202,325550
981.806,0.079831,400190,332993
985.583,0.081230,406088,336814
989.355,0.081097,410162,340297
993.124,0.081696,412868,342070
996.888,0.082107,414263,342901
1000.65,0.082546,415476,343558
1004.4,0.084069,415479,342358
1009.41,0.084694,414358,340943
1013.15,0.085395,412923,339214
1016.89,0.085784,411526,337764
1020.63,0.085401,409066,336041
1024.36,0.085388,406777,334171
1028.09,0.085740,404427,331971
1031.82,0.085283,401911,330253
1036.78,0.085198,398410,327440
1040.49,0.085286,396204,325561
1044.2,0.084447,394236,324571
1047.91,0.084538,392042,322697
1051.61,0.084375,389823,320991
1055.31,0.084322,388234,319721
1059,0.083708,387599,319650
1063.92,0.082651,386688,319676
1067.61,0.081732,386598,320278
1071.29,0.081848,387377,320838
1074.96,0.080883,388536,322514
1078.63,0.080507,389855,323889
1082.3,0.079567,391215,325723
1085.96,0.078762,393215,327996
1090.84,0.078096,396270,331051
1094.49,0.077646,398760,333477
1098.14,0.077307,400987,335601
1101.79,0.076491,403477,338320
1105.43,0.076116,406116,340827
1109.06,0.075884,407701,342340
1112.7,0.075223,409859,344676
1117.53,0.074340,412494,347598
1121.15,0.075532,414909,348675
1124.77,0.075537,416559,350058
1128.38,0.076402,418532,351016
1131.99,0.077376,419956,351421
1135.6,0.078633,421946,352066
1139.2,0.080219,423881,352391
1143.99,0.082459,426786,352981
1147.58,0.083309,428617,353802
1151.17,0.084104,431169,355258
1154.75,0.085170,433579,356368
1158.33,0.086901,436264,357148
1161.91,0.088237,439132,358392
1165.48,0.090372,442389,359279
1169.04,0.092211,446101,360763
1173.79,0.095771,451929,362493
1177.34,0.098183,456026,363753
1180.9,0.099737,461306,366650
1184.44,0.101294,467657,370368
1187.99,0.102276,473969,374519
1191.52,0.102607,479856,378882
1195.06,0.102512,487372,384901
1199.76,0.102433,497347,392850
1203.29,0.101487,504311,399219
1206.81,0.100237,511507,406083
1210.33,0.099986,519078,412332
1213.84,0.099599,527163,419127
1217.35,0.098944,534208,425370
1220.85,0.097945,540472,431348
1225.51,0.097568,549929,439277
1229.01,0.097494,556888,444912
1232.5,0.096611,562180,450054
1235.98,0.095967,567975,455368
1239.46,0.094689,574815,462210
1242.94,0.093653,582782,469735
1246.41,0.093348,591476,477078
1251.03,0.093275,604016,487274
1254.5,0.093580,612289,493602
1257.96,0.094106,619125,498508
1261.41,0.094372,624551,502569
1264.86,0.095227,629900,505877
1268.31,0.095152,634345,509534
1271.75,0.096173,638574,511727
1276.33,0.096042,642499,515027
1279.76,0.096254,645905,517505
1283.19,0.095470,648307,520368
1286.61,0.095211,650446,522396
1290.03,0.094606,652132,524481
1293.44,0.094336,653907,526235
1296.85,0.094366,655963,527853
1301.39,0.093719,657349,529757
1304.8,0.094011,657558,529570
1308.19,0.094305,658515,529981
1311.58,0.094370,658804,530135
1314.97,0.094628,659011,529986
1318.36,0.095264,658272,528617
1321.73,0.095436,658022,528207
1326.23,0.096590,657870,526684
1329.6,0.097205,656482,524829
1332.97,0.097780,654926,522892
1336.33,0.099389,653727,520005
1339.69,0.100410,652497,517808
1343.04,0.102218,649913,513614
1346.39,0.103970,647671,509782
1349.73,0.106038,645338,505533
1354.18,0.109083,641175,498762
1357.52,0.111129,638376,494251
1360.85,0.113036,635805,490104
1364.17,0.114722,633413,486368
1367.49,0.117259,631026,481713
1370.81,0.119282,628050,477213
1374.12,0.121611,625034,472381
1378.54,0.124476,620272,465700
1381.84,0.127487,616892,459962
1385.14,0.131244,613613,453577
1388.43,0.134670,611526,448482
1391.72,0.139245,610663,443156
1395.01,0.143685,610634,438628
1398.29,0.147945,611700,435104
1402.66,0.154791,614051,429946
1405.93,0.159719,616268,426629
1409.2,0.164684,617795,422825
1412.46,0.169680,618872,418717
1415.72,0.173605,619795,415569
1418.98,0.177547,620495,412279
1422.23,0.180340,621087,410027
1426.56,0.184621,621375,406193
1429.8,0.187420,621616,403740
1433.04,0.190267,622129,401433
1436.27,0.191866,621526,399570
1439.5,0.193170,621113,398108
1442.72,0.196028,620921,395374
1445.94,0.198342,620270,392861
1450.23,0.202152,618860,388544
1453.44,0.204724,617697,385524
1456.64,0.207738,616264,381970
1459.85,0.209930,614413,378905
1463.04,0.213038,612307,374914
1466.24,0.215742,610032,371202
1469.43,0.219788,607345,366140
1473.67,0.226531,603789,358389
1476.85,0.231060,601175,353135
1480.02,0.236553,597737,346703
1483.19,0.242881,594479,339825
1486.36,0.248073,591232,333953
1489.52,0.253130,587853,328200
1492.68,0.256196,583875,323686
1496.89,0.258264,578062,318941
1500.03,0.258981,574159,316265
1503.18,0.258886,570285,314200
1506.32,0.257865,565444,312266
1509.45,0.256734,560571,310382
1512.58,0.254801,555821,309125
1515.71,0.252306,550344,307842
1519.87,0.249860,543983,306003
1522.99,0.247170,538764,304950
1526.1,0.244637,533692,303846
1529.21,0.242213,527902,302232
1532.32,0.239182,521886,300880
1535.42,0.236206,515888,299467
1538.51,0.233414,509987,297951
1541.6,0.230368,503936,296488
1545.72,0.226351,494694,293755
1548.8,0.223936,488378,291622
1551.88,0.221444,481832,289369
1554.95,0.219554,474989,286503
1558.02,0.217505,467818,283512
1561.08,0.216835,460730,279648
1564.15,0.216086,454170,276142
1568.22,0.215361,444181,270520
1571.27,0.214323,436947,266751
1574.32,0.213379,429598,262835
1577.36,0.212526,422039,258718
1580.4,0.211196,414375,254799
1583.43,0.210012,406354,250549
1586.46,0.207810,398475,246940
1590.49,0.205503,388982,242341
1593.51,0.204190,380708,237904
1596.53,0.202398,372727,233880
1599.54,0.200674,365060,229980
1602.55,0.198984,357543,226123
1605.55,0.196271,349495,222418
1608.55,0.193690,341154,218404
1612.54,0.192827,330877,212246
1615.53,0.190774,322904,208113
1618.51,0.190288,315116,203321
1621.49,0.189169,307217,198736
1624.47,0.187834,299481,194328
1627.44,0.186444,292112,190154
1630.41,0.185890,284245,185269
1634.36,0.184543,274079,179198
1637.32,0.183900,266916,174773
1640.27,0.182644,259612,170483
1643.22,0.182055,251804,165580
1646.16,0.182004,244348,160696
1649.1,0.181963,236703,155683
1652.04,0.179419,228171,150953
1655.95,0.175156,215408,143915
1658.88,0.172346,204937,137808
1661.8,0.168879,193395,131089
1664.72,0.159823,179728,124392
1667.63,0.146999,163642,116653
1670.54,0.133250,146312,107654
1673.44,0.116852,128451,98149
1677.31,0.098810,105080,83697
1680.21,0.087194,88906,72734
1683.1,0.078817,75033,62580
1685.99,0.081529,63520,52648
1688.87,0.085127,53714,44153
1691.75,0.088728,45653,37217
1694.62,0.090652,39137,31764
1697.49,0.100004,33776,26829
1701.31,0.107323,28175,22006