File: samples/wool/wool-000811/Column 1_050562_20150331_120539.csv
Method:,Column 1,,
Host Date-Time:,31/3/15 @ 12:5:39,,
Header Version:,1,,
System Temp (C):,33.78,,
Detector Temp (C):,33.4,,
Humidity (%):,2.05,,
Lamp PD:,3819,,
Shift Vector Coefficients:,-10.5391,0.0761263,-0.000134223,,
Pixel to Wavelength Coefficients:,1775.68,-0.916766,-0.000235065,,
Serial Number:,5510004,,
Scan Config Name:,Column 1,,
Scan Config Type:,Slew,,
Section 1,,
Start wavelength (nm):,900,,
End wavelength (nm):,1700,,
Pattern Pixel Width (nm):,   7.03,,,,
Exposure (ms):,  0.635,,,,
Digital Resolution:,228,,
Num Repeats:,6,,
PGA Gain:,64,,
Total Measurement Time in sec:,  2.685,,
Wavelength (nm),Absorbance (AU),Reference Signal (unitless),Sample Signal (unitless)
901.51,0.033822,108485,100357
905.376,0.042549,121306,109985
909.237,0.042703,131909,119556
913.095,0.044467,143299,129353
916.948,0.044980,156982,141537
922.079,0.045622,179937,161994
925.923,0.046846,200504,180002
929.762,0.047641,222660,199527
933.597,0.048005,244426,218848
937.427,0.047776,263972,236473
941.254,0.046454,281845,253254
945.076,0.046841,297271,266877
950.165,0.046358,315605,283652
953.978,0.045961,328029,295088
957.786,0.046057,340470,306212
961.59,0.046607,352317,316466
965.389,0.046613,363056,326107
969.185,0.046981,373162,334901
972.976,0.047052,382632,343344
976.763,0.047467,391202,350699
981.806,0.048394,400190,357991
985.583,0.048837,406088,362897
989.355,0.049484,410162,365992
993.124,0.049896,412868,368057
996.888,0.050284,414263,368971
1000.65,0.051142,415476,369321
1004.4,0.052597,415479,368088
1009.41,0.053619,414358,366232
1013.15,0.054278,412923,364411
1016.89,0.054872,411526,362681
1020.63,0.054822,409066,360555
1024.36,0.054558,406777,358755
1028.09,0.054775,404427,356505
1031.82,0.054024,401911,354900
1036.78,0.053490,398410,352241
1040.49,0.053150,396204,350565
1044.2,0.053291,394236,348711
1047.91,0.052080,392042,347738
1051.61,0.051879,389823,345930
1055.31,0.051897,388234,344506
1059,0.051046,387599,344617
1063.92,0.050011,386688,344627
1067.61,0.049924,386598,344616
1071.29,0.048739,387377,346254
1074.96,0.048309,388536,347634
1078.63,0.047797,389855,349226
1082.3,0.047131,391215,350982
1085.96,0.046047,393215,353658
1090.84,0.045749,396270,356650
1094.49,0.045190,398760,359353
1098.14,0.045225,400987,361331
1101.79,0.044658,403477,364050
1105.43,0.044349,406116,366692
1109.06,0.043756,407701,368626
1112.7,0.044348,409859,370072
1117.53,0.043847,412494,372881
1121.15,0.044848,414909,374201
1124.77,0.045288,416559,375309
1128.38,0.046748,418532,375821
1131.99,0.048157,419956,375878
1135.6,0.049716,421946,376306
1139.2,0.051839,423881,376188
1143.99,0.054230,426786,376687
1147.58,0.055482,428617,377214
1151.17,0.056043,431169,378970
1154.75,0.057815,433579,379536
1158.33,0.059491,436264,380416
1161.91,0.061433,439132,381208
1165.48,0.063426,442389,382277
1169.04,0.066579,446101,382696
1173.79,0.070399,451929,384301
1177.34,0.072537,456026,385880
1180.9,0.074825,461306,388297
1184.44,0.076884,467657,391781
1187.99,0.077672,473969,396349
1191.52,0.077366,479856,401555
1195.06,0.077068,487372,408124
1199.76,0.076145,497347,417364
1203.29,0.075431,504311,423904
1206.81,0.074708,511507,430669
1210.33,0.073818,519078,437940
1213.84,0.073141,527163,445455
1217.35,0.072070,534208,452523
1220.85,0.071711,540472,458208
1225.51,0.070617,549929,467401
1229.01,0.069935,556888,474059
1232.5,0.069675,562180,478851
1235.98,0.068827,567975,484733
1239.46,0.067665,574815,491885
1242.94,0.066544,582782,499991
1246.41,0.066120,591476,507945
1251.03,0.065982,604016,518880
1254.5,0.065894,612289,526093
1257.96,0.066264,619125,531514
1261.41,0.066971,624551,535300
1264.86,0.067357,629900,539404
1268.31,0.067909,634345,542521
1271.75,0.068915,638574,544874
1276.33,0.069357,642499,547665
1279.76,0.069285,645905,550660
1283.19,0.068762,648307,553374
1286.61,0.068373,650446,555697
1290.03,0.068076,652132,557519
1293.44,0.067343,653907,559980
1296.85,0.067186,655963,561945
1301.39,0.067045,657349,563315
1304.8,0.067083,657558,563445
1308.19,0.067142,658515,564188
1311.58,0.067208,658804,564349
1314.97,0.068131,659011,563328
1318.36,0.068491,658272,562230
1321.73,0.068717,658022,561725
1326.23,0.069654,657870,560385
1329.6,0.070777,656482,557758
1332.97,0.071660,654926,555306
1336.33,0.072844,653727,552780
1339.69,0.074608,652497,549503
1343.04,0.076436,649913,545029
1346.39,0.078805,647671,540194
1349.73,0.080720,645338,535880
1354.18,0.084033,641175,528376
1357.52,0.086665,638376,522891
1360.85,0.088790,635805,518244
1364.17,0.090524,633413,514236
1367.49,0.093116,631026,509250
1370.81,0.095635,628050,503917
1374.12,0.098349,625034,498373
1378.54,0.101806,620272,490655
1381.84,0.104765,616892,484668
1385.14,0.109306,613613,477077
1388.43,0.113170,611526,471243
1391.72,0.118203,610663,465156
1395.01,0.123774,610634,459205
1398.29,0.128616,611700,454907
1402.66,0.136424,614051,448519
1405.93,0.142112,616268,444281
1409.2,0.147750,617795,439637
1412.46,0.152964,618872,435148
1415.72,0.157707,619795,431063
1418.98,0.160988,620495,428302
1422.23,0.165551,621087,424230
1426.56,0.169640,621375,420449
1429.8,0.172517,621616,417835
1433.04,0.175513,622129,415305
1436.27,0.177739,621526,412782
1439.5,0.179979,621113,410385
1442.72,0.182533,620921,407853
1445.94,0.185183,620270,404947
1450.23,0.188899,618860,400584
1453.44,0.191460,617697,397480
1456.64,0.194760,616264,393556
1459.85,0.197595,614413,389821
1463.04,0.200168,612307,386190
1466.24,0.203428,610032,381878
1469.43,0.207116,607345,376981
1473.67,0.213059,603789,369680
1476.85,0.219195,601175,362916
1480.02,0.224315,597737,356611
1483.19,0.231403,594479,348926
1486.36,0.237140,591232,342466
1489.52,0.242337,587853,336459
1492.68,0.245109,583875,332056
1496.89,0.247832,578062,326695
1500.03,0.248892,574159,323698
1503.18,0.249629,570285,320969
1506.32,0.248165,565444,319319
1509.45,0.247132,560571,317321
1512.58,0.245027,555821,316161
1515.71,0.242497,550344,314874
1519.87,0.239432,543983,313439
1522.99,0.236362,538764,312634
1526.1,0.234000,533692,311380
1529.21,0.231117,527902,310053
1532.32,0.227662,521886,308968
1535.42,0.225669,515888,306822
1538.51,0.221188,509987,306458
1541.6,0.219083,503936,304293
1545.72,0.214098,494694,302161
1548.8,0.211558,488378,300053
1551.88,0.208196,481832,298332
1554.95,0.205448,474989,295962
1558.02,0.204800,467818,291929
1561.08,0.203471,460730,288387
1564.15,0.201921,454170,285297
1568.22,0.201309,444181,279416
1571.27,0.200651,436947,275282
1574.32,0.199936,429598,271098
1577.36,0.198201,422039,267394
1580.4,0.196786,414375,263395
1583.43,0.195236,406354,259220
1586.46,0.193199,398475,255389
1590.49,0.191045,388982,250544
1593.51,0.188608,380708,246595
1596.53,0.186534,372727,242581
1599.54,0.183894,365060,239040
1602.55,0.181716,357543,235295
1605.55,0.180536,349495,230624
1608.55,0.178431,341154,226214
1612.54,0.176534,330877,220360
1615.53,0.173557,322904,216529
1618.51,0.171786,315116,212170
1621.49,0.170838,307217,207304
1624.47,0.169188,299481,202853
1627.44,0.169413,292112,197759
1630.41,0.166583,284245,193691
1634.36,0.166778,274079,186680
1637.32,0.165112,266916,182500
1640.27,0.163771,259612,178055
1643.22,0.163504,251804,172806
1646.16,0.162286,244348,168160
1649.1,0.161699,236703,163119
1652.04,0.160137,228171,157806
1655.95,0.157171,215408,150000
1658.88,0.156540,204937,142916
1661.8,0.151478,193395,136448
1664.72,0.145179,179728,128658
1667.63,0.134395,163642,120088
1670.54,0.125050,146312,109706
1673.44,0.110456,128451,99605
1677.31,0.096007,105080,84239
1680.21,0.091122,88906,72079
1683.1,0.087381,75033,61358
1685.99,0.094677,63520,51078
1688.87,0.093469,53714,43313
1691.75,0.102371,45653,36066
1694.62,0.105676,39137,30684
1697.49,0.113067,33776,26034
1701.31,0.121851,28175,21282