File: samples/wool/wool-000811/Column 1_050531_20150331_115104.csv
Method:,Column 1,,
Host Date-Time:,31/3/15 @ 11:51:4,,
Header Version:,1,,
System Temp (C):,30.26,,
Detector Temp (C):,31.69,,
Humidity (%):,4.97,,
Lamp PD:,3831,,
Shift Vector Coefficients:,-10.5391,0.0761263,-0.000134223,,
Pixel to Wavelength Coefficients:,1775.68,-0.916766,-0.000235065,,
Serial Number:,5510004,,
Scan Config Name:,Column 1,,
Scan Config Type:,Slew,,
Section 1,,
Start wavelength (nm):,900,,
End wavelength (nm):,1700,,
Pattern Pixel Width (nm):,   7.03,,,,
Exposure (ms):,  0.635,,,,
Digital Resolution:,228,,
Num Repeats:,6,,
PGA Gain:,64,,
Total Measurement Time in sec:,  2.676,,
Wavelength (nm),Absorbance (AU),Reference Signal (unitless),Sample Signal (unitless)
901.51,0.045271,108485,97746
905.376,0.051147,121306,107829
909.237,0.052360,131909,116927
913.095,0.052853,143299,126879
916.948,0.053054,156982,138930
922.079,0.051533,179937,159804
925.923,0.052685,200504,177598
929.762,0.053635,222660,196792
933.597,0.054164,244426,215766
937.427,0.053988,263972,233115
941.254,0.054652,281845,248518
945.076,0.054356,297271,262299
950.165,0.054720,315605,278243
953.978,0.054878,328029,289091
957.786,0.055396,340470,299697
961.59,0.055855,352317,309798
965.389,0.055709,363056,319348
969.185,0.055997,373162,328020
972.976,0.057104,382632,335488
976.763,0.057857,391202,342408
981.806,0.058340,400190,349886
985.583,0.058908,406088,354578
989.355,0.059126,410162,357956
993.124,0.060089,412868,359519
996.888,0.060924,414263,360041
1000.65,0.061122,415476,360931
1004.4,0.062093,415479,360127
1009.41,0.063680,414358,357846
1013.15,0.064352,412923,356055
1016.89,0.064785,411526,354497
1020.63,0.064118,409066,352919
1024.36,0.064661,406777,350506
1028.09,0.064134,404427,348904
1031.82,0.064439,401911,346490
1036.78,0.063505,398410,344211
1040.49,0.062261,396204,343287
1044.2,0.062221,394236,341614
1047.91,0.061375,392042,340375
1051.61,0.060286,389823,339298
1055.31,0.060055,388234,338095
1059,0.059574,387599,337916
1063.92,0.058456,386688,337991
1067.61,0.057524,386598,338638
1071.29,0.056705,387377,339961
1074.96,0.056471,388536,341162
1078.63,0.055138,389855,343372
1082.3,0.054586,391215,345008
1085.96,0.053314,393215,347789
1090.84,0.053264,396270,350532
1094.49,0.052965,398760,352977
1098.14,0.052337,400987,355462
1101.79,0.052225,403477,357762
1105.43,0.051812,406116,360444
1109.06,0.051145,407701,362407
1112.7,0.051303,409859,364193
1117.53,0.051706,412494,366194
1121.15,0.052312,414909,367825
1124.77,0.052972,416559,368727
1128.38,0.054835,418532,368887
1131.99,0.055749,419956,369364
1135.6,0.058372,421946,368880
1139.2,0.059914,423881,369258
1143.99,0.063037,426786,369125
1147.58,0.064663,428617,369323
1151.17,0.065859,431169,370500
1154.75,0.067377,433579,371271
1158.33,0.069500,436264,371749
1161.91,0.071797,439132,372219
1165.48,0.075029,442389,372199
1169.04,0.077866,446101,372878
1173.79,0.082410,451929,373818
1177.34,0.084628,456026,375285
1180.9,0.087381,461306,377232
1184.44,0.089297,467657,380742
1187.99,0.089940,473969,385310
1191.52,0.089568,479856,390430
1195.06,0.088884,487372,397170
1199.76,0.087130,497347,406939
1203.29,0.086263,504311,413462
1206.81,0.085184,511507,420405
1210.33,0.083627,519078,428160
1213.84,0.082888,527163,435569
1217.35,0.081375,534208,442930
1220.85,0.080546,540472,448980
1225.51,0.078778,549929,458700
1229.01,0.077906,556888,465438
1232.5,0.077661,562180,470126
1235.98,0.076759,567975,475960
1239.46,0.075117,574815,483516
1242.94,0.074556,582782,490852
1246.41,0.073587,591476,499287
1251.03,0.073250,604016,510268
1254.5,0.073275,612289,517227
1257.96,0.073273,619125,523004
1261.41,0.074268,624551,526381
1264.86,0.074770,629900,530276
1268.31,0.075439,634345,533196
1271.75,0.076370,638574,535601
1276.33,0.076803,642499,538356
1279.76,0.076521,645905,541561
1283.19,0.076049,648307,544167
1286.61,0.075452,650446,546713
1290.03,0.075469,652132,548109
1293.44,0.074612,653907,550686
1296.85,0.074415,655963,552668
1301.39,0.074091,657349,554249
1304.8,0.074047,657558,554482
1308.19,0.074814,658515,554309
1311.58,0.074803,658804,554566
1314.97,0.075561,659011,553773
1318.36,0.076049,658272,552531
1321.73,0.076476,658022,551778
1326.23,0.077972,657870,549753
1329.6,0.078752,656482,547609
1332.97,0.080221,654926,544466
1336.33,0.081499,653727,541873
1339.69,0.083192,652497,538749
1343.04,0.085335,649913,533974
1346.39,0.088170,647671,528670
1349.73,0.090334,645338,524147
1354.18,0.093942,641175,516458
1357.52,0.096267,638376,511457
1360.85,0.099100,635805,506086
1364.17,0.101522,633413,501378
1367.49,0.103770,631026,496910
1370.81,0.106832,628050,491091
1374.12,0.109669,625034,485551
1378.54,0.113327,620272,477810
1381.84,0.117697,616892,470449
1385.14,0.122417,613613,462890
1388.43,0.127953,611526,455472
1391.72,0.134063,610663,448475
1395.01,0.140477,610634,441880
1398.29,0.146621,611700,436433
1402.66,0.155971,614051,428779
1405.93,0.163153,616268,423269
1409.2,0.170301,617795,417391
1412.46,0.176832,618872,411878
1415.72,0.182816,619795,406848
1418.98,0.187634,620495,402814
1422.23,0.192371,621087,398824
1426.56,0.197558,621375,394272
1429.8,0.201129,621616,391195
1433.04,0.203826,622129,389094
1436.27,0.207040,621526,385851
1439.5,0.209244,621113,383642
1442.72,0.211578,620921,381468
1445.94,0.214407,620270,378594
1450.23,0.218057,618860,374572
1453.44,0.220876,617697,371449
1456.64,0.224012,616264,367921
1459.85,0.226733,614413,364525
1463.04,0.229819,612307,360703
1466.24,0.232006,610032,357558
1469.43,0.235072,607345,353479
1473.67,0.239046,603789,348208
1476.85,0.243783,601175,342940
1480.02,0.249170,597737,336775
1483.19,0.254382,594479,330944
1486.36,0.260048,591232,324870
1489.52,0.264530,587853,319697
1492.68,0.268171,583875,314883
1496.89,0.271303,578062,309508
1500.03,0.271952,574159,306959
1503.18,0.272046,570285,304822
1506.32,0.271502,565444,302613
1509.45,0.270213,560571,300897
1512.58,0.269220,555821,299030
1515.71,0.266834,550344,297715
1519.87,0.263309,543983,296672
1522.99,0.260879,538764,295474
1526.1,0.258644,533692,294203
1529.21,0.256056,527902,292750
1532.32,0.252252,521886,291960
1535.42,0.248874,515888,290858
1538.51,0.246181,509987,289320
1541.6,0.242483,503936,288332
1545.72,0.237893,494694,286051
1548.8,0.234620,488378,284535
1551.88,0.231353,481832,282841
1554.95,0.229589,474989,279959
1558.02,0.227422,467818,277112
1561.08,0.225384,460730,274197
1564.15,0.224806,454170,270653
1568.22,0.223949,444181,265223
1571.27,0.223019,436947,261463
1574.32,0.222612,429598,257306
1577.36,0.220442,422039,254045
1580.4,0.218742,414375,250410
1583.43,0.217066,406354,246512
1586.46,0.214105,398475,243386
1590.49,0.211766,388982,238871
1593.51,0.209339,380708,235100
1596.53,0.206508,372727,231677
1599.54,0.204188,365060,228127
1602.55,0.201899,357543,224610
1605.55,0.199440,349495,220801
1608.55,0.197452,341154,216520
1612.54,0.193839,330877,211752
1615.53,0.192944,322904,207076
1618.51,0.190904,315116,203033
1621.49,0.188736,307217,198934
1624.47,0.187338,299481,194550
1627.44,0.185452,292112,190589
1630.41,0.184262,284245,185965
1634.36,0.182934,274079,179863
1637.32,0.182221,266916,175450
1640.27,0.180854,259612,171187
1643.22,0.178973,251804,166759
1646.16,0.178009,244348,162181
1649.1,0.177149,236703,157418
1652.04,0.178057,228171,151427
1655.95,0.175754,215408,143717
1658.88,0.174469,204937,137136
1661.8,0.173355,193395,129745
1664.72,0.171787,179728,121012
1667.63,0.167388,163642,111303
1670.54,0.161376,146312,100903
1673.44,0.158519,128451,89170
1677.31,0.153623,105080,73773
1680.21,0.152947,88906,62515
1683.1,0.156975,75033,52273
1685.99,0.161952,63520,43748
1688.87,0.167331,53714,36539
1691.75,0.177697,45653,30323
1694.62,0.177197,39137,26025
1697.49,0.169855,33776,22843
1701.31,0.171247,28175,18994