File: samples/wool/wool-000811/Column 1_050605_20150331_122549.csv
Method:,Column 1,,
Host Date-Time:,31/3/15 @ 12:25:49,,
Header Version:,1,,
System Temp (C):,33.99,,
Detector Temp (C):,34.8,,
Humidity (%):,1.71,,
Lamp PD:,3819,,
Shift Vector Coefficients:,-10.5391,0.0761263,-0.000134223,,
Pixel to Wavelength Coefficients:,1775.68,-0.916766,-0.000235065,,
Serial Number:,5510004,,
Scan Config Name:,Column 1,,
Scan Config Type:,Slew,,
Section 1,,
Start wavelength (nm):,900,,
End wavelength (nm):,1700,,
Pattern Pixel Width (nm):,   7.03,,,,
Exposure (ms):,  0.635,,,,
Digital Resolution:,228,,
Num Repeats:,6,,
PGA Gain:,64,,
Total Measurement Time in sec:,  2.718,,
Wavelength (nm),Absorbance (AU),Reference Signal (unitless),Sample Signal (unitless)
901.51,0.068862,108485,92578
905.376,0.074652,121306,102148
909.237,0.077014,131909,110474
913.095,0.077924,143299,119762
916.948,0.079109,156982,130840
922.079,0.079032,179937,149999
925.923,0.081897,200504,166045
929.762,0.081618,222660,184512
933.597,0.081982,244426,202379
937.427,0.080331,263972,219395
941.254,0.079877,281845,234495
945.076,0.078127,297271,248328
950.165,0.077739,315605,263879
953.978,0.077022,328029,274720
957.786,0.078077,340470,284447
961.59,0.077764,352317,294557
965.389,0.077559,363056,303679
969.185,0.077460,373162,312203
972.976,0.078119,382632,319641
976.763,0.078276,391202,326682
981.806,0.077952,400190,334437
985.583,0.079540,406088,338127
989.355,0.079767,410162,341341
993.124,0.080417,412868,343079
996.888,0.080358,414263,344285
1000.65,0.081222,415476,344607
1004.4,0.082888,415479,343290
1009.41,0.083721,414358,341708
1013.15,0.084509,412923,339907
1016.89,0.084592,411526,338692
1020.63,0.084258,409066,336927
1024.36,0.084478,406777,334872
1028.09,0.084198,404427,333152
1031.82,0.084181,401911,331092
1036.78,0.083730,398410,328549
1040.49,0.083242,396204,327097
1044.2,0.083942,394236,324948
1047.91,0.083414,392042,323533
1051.61,0.084062,389823,321222
1055.31,0.082833,388234,320819
1059,0.081337,387599,321400
1063.92,0.080877,386688,320984
1067.61,0.080876,386598,320910
1071.29,0.080138,387377,322104
1074.96,0.079762,388536,323347
1078.63,0.078809,389855,325158
1082.3,0.077995,391215,326904
1085.96,0.077475,393215,328969
1090.84,0.076883,396270,331977
1094.49,0.075916,398760,334808
1098.14,0.075575,400987,336942
1101.79,0.075276,403477,339268
1105.43,0.075109,406116,341618
1109.06,0.073955,407701,343864
1112.7,0.073845,409859,345772
1117.53,0.073538,412494,348241
1121.15,0.074000,414909,349907
1124.77,0.074298,416559,351058
1128.38,0.075076,418532,352089
1131.99,0.075889,419956,352626
1135.6,0.077430,421946,353042
1139.2,0.078960,423881,353414
1143.99,0.081066,426786,354115
1147.58,0.081247,428617,355486
1151.17,0.082505,431169,356568
1154.75,0.083123,433579,358051
1158.33,0.084809,436264,358873
1161.91,0.086732,439132,359636
1165.48,0.088319,442389,360982
1169.04,0.091169,446101,361630
1173.79,0.094086,451929,363902
1177.34,0.095728,456026,365815
1180.9,0.098315,461306,367853
1184.44,0.100263,467657,371248
1187.99,0.101413,473969,375264
1191.52,0.101601,479856,379761
1195.06,0.101099,487372,386155
1199.76,0.100489,497347,394612
1203.29,0.100239,504311,400368
1206.81,0.099660,511507,406623
1210.33,0.098884,519078,413379
1213.84,0.098199,527163,420481
1217.35,0.097911,534208,426383
1220.85,0.096845,540472,432442
1225.51,0.096324,549929,440537
1229.01,0.095904,556888,446544
1232.5,0.095133,562180,451588
1235.98,0.094402,567975,457012
1239.46,0.092951,574815,464063
1242.94,0.092707,582782,470759
1246.41,0.091938,591476,478629
1251.03,0.091637,604016,489116
1254.5,0.091911,612289,495502
1257.96,0.092126,619125,500786
1261.41,0.092736,624551,504466
1264.86,0.093304,629900,508122
1268.31,0.093707,634345,511232
1271.75,0.094139,638574,514129
1276.33,0.094691,642499,516632
1279.76,0.094392,645905,519729
1283.19,0.094072,648307,522046
1286.61,0.093919,650446,523953
1290.03,0.093226,652132,526150
1293.44,0.092982,653907,527879
1296.85,0.092659,655963,529932
1301.39,0.092648,657349,531066
1304.8,0.092001,657558,532026
1308.19,0.092186,658515,532574
1311.58,0.092503,658804,532419
1314.97,0.093225,659011,531701
1318.36,0.093466,658272,530810
1321.73,0.093870,658022,530115
1326.23,0.094843,657870,528807
1329.6,0.094958,656482,527551
1332.97,0.096380,654926,524581
1336.33,0.096969,653727,522910
1339.69,0.098565,652497,520012
1343.04,0.100191,649913,516017
1346.39,0.101835,647671,512294
1349.73,0.103985,645338,507928
1354.18,0.106755,641175,501443
1357.52,0.108674,638376,497053
1360.85,0.111084,635805,492311
1364.17,0.113103,633413,488184
1367.49,0.114908,631026,484328
1370.81,0.117254,628050,479447
1374.12,0.119637,625034,474533
1378.54,0.122327,620272,468010
1381.84,0.124602,616892,463028
1385.14,0.128242,613613,456723
1388.43,0.131834,611526,451420
1391.72,0.136130,610663,446346
1395.01,0.140569,610634,441786
1398.29,0.144578,611700,438491
1402.66,0.150914,614051,433801
1405.93,0.155633,616268,430662
1409.2,0.160402,617795,427014
1412.46,0.165046,618872,423209
1415.72,0.168880,619795,420115
1418.98,0.173019,620495,416600
1422.23,0.176028,621087,414118
1426.56,0.180195,621375,410354
1429.8,0.182589,621616,408257
1433.04,0.185172,622129,406171
1436.27,0.187098,621526,403981
1439.5,0.189202,621113,401762
1442.72,0.191758,620921,399281
1445.94,0.193667,620270,397113
1450.23,0.197492,618860,392736
1453.44,0.200074,617697,389674
1456.64,0.203100,616264,386071
1459.85,0.205807,614413,382519
1463.04,0.208669,612307,378704
1466.24,0.211589,610032,374769
1469.43,0.215975,607345,369369
1473.67,0.222057,603789,362100
1476.85,0.227156,601175,356324
1480.02,0.233319,597737,349294
1483.19,0.239206,594479,342713
1486.36,0.246043,591232,335517
1489.52,0.250108,587853,330492
1492.68,0.253498,583875,325703
1496.89,0.255643,578062,320872
1500.03,0.256022,574159,318427
1503.18,0.256149,570285,316186
1506.32,0.255297,565444,314118
1509.45,0.254039,560571,312314
1512.58,0.252256,555821,310942
1515.71,0.250113,550344,309401
1519.87,0.247466,543983,307694
1522.99,0.244337,538764,306946
1526.1,0.242500,533692,305345
1529.21,0.239891,527902,303852
1532.32,0.236800,521886,302535
1535.42,0.233709,515888,301194
1538.51,0.230855,509987,299712
1541.6,0.227874,503936,298196
1545.72,0.223835,494694,295462
1548.8,0.221028,488378,293581
1551.88,0.218548,481832,291305
1554.95,0.216726,474989,288375
1558.02,0.215264,467818,284979
1561.08,0.214065,460730,281437
1564.15,0.213661,454170,277688
1568.22,0.212318,444181,272422
1571.27,0.211465,436947,268512
1574.32,0.211268,429598,264116
1577.36,0.209667,422039,260427
1580.4,0.208874,414375,256165
1583.43,0.207926,406354,251755
1586.46,0.204942,398475,248576
1590.49,0.204009,388982,243176
1593.51,0.201471,380708,239398
1596.53,0.199042,372727,235694
1599.54,0.196938,365060,231967
1602.55,0.195192,357543,228106
1605.55,0.194136,349495,223514
1608.55,0.191611,341154,219452
1612.54,0.191051,330877,213116
1615.53,0.188458,322904,209226
1618.51,0.187147,315116,204797
1621.49,0.186404,307217,200005
1624.47,0.185136,299481,195539
1627.44,0.184832,292112,190861
1630.41,0.182495,284245,186723
1634.36,0.182078,274079,180218
1637.32,0.181860,266916,175596
1640.27,0.180119,259612,171477
1643.22,0.179281,251804,166641
1646.16,0.179430,244348,161651
1649.1,0.178144,236703,157058
1652.04,0.176017,228171,152140
1655.95,0.173343,215408,144517
1658.88,0.169159,204937,138823
1661.8,0.164882,193395,132301
1664.72,0.156308,179728,125403
1667.63,0.143920,163642,117483
1670.54,0.129646,146312,108551
1673.44,0.113089,128451,99003
1677.31,0.093416,105080,84743
1680.21,0.082289,88906,73560
1683.1,0.078220,75033,62666
1685.99,0.077203,63520,53175
1688.87,0.080120,53714,44665
1691.75,0.084790,45653,37556
1694.62,0.087478,39137,31997
1697.49,0.091714,33776,27346
1701.31,0.108390,28175,21952