File: samples/wool/wool-000811/Column 1_050615_20150331_123057.csv
Method:,Column 1,,
Host Date-Time:,31/3/15 @ 12:30:57,,
Header Version:,1,,
System Temp (C):,34.12,,
Detector Temp (C):,34.92,,
Humidity (%):,1.66,,
Lamp PD:,3818,,
Shift Vector Coefficients:,-10.5391,0.0761263,-0.000134223,,
Pixel to Wavelength Coefficients:,1775.68,-0.916766,-0.000235065,,
Serial Number:,5510004,,
Scan Config Name:,Column 1,,
Scan Config Type:,Slew,,
Section 1,,
Start wavelength (nm):,900,,
End wavelength (nm):,1700,,
Pattern Pixel Width (nm):,   7.03,,,,
Exposure (ms):,  0.635,,,,
Digital Resolution:,228,,
Num Repeats:,6,,
PGA Gain:,64,,
Total Measurement Time in sec:,  2.663,,
Wavelength (nm),Absorbance (AU),Reference Signal (unitless),Sample Signal (unitless)
901.51,0.068356,108485,92686
905.376,0.076365,121306,101746
909.237,0.076319,131909,110651
913.095,0.078995,143299,119467
916.948,0.078330,156982,131075
922.079,0.079780,179937,149741
925.923,0.081743,200504,166104
929.762,0.082180,222660,184273
933.597,0.082124,244426,202313
937.427,0.081021,263972,219047
941.254,0.079686,281845,234598
945.076,0.078384,297271,248181
950.165,0.078535,315605,263396
953.978,0.077228,328029,274590
957.786,0.077409,340470,284885
961.59,0.077436,352317,294780
965.389,0.077725,363056,303563
969.185,0.076975,373162,312552
972.976,0.077615,382632,320012
976.763,0.078413,391202,326579
981.806,0.078030,400190,334377
985.583,0.079738,406088,337973
989.355,0.079730,410162,341370
993.124,0.079810,412868,343559
996.888,0.080777,414263,343953
1000.65,0.081897,415476,344072
1004.4,0.082017,415479,343979
1009.41,0.083906,414358,341562
1013.15,0.084168,412923,340174
1016.89,0.084831,411526,338506
1020.63,0.084696,409066,336587
1024.36,0.084742,406777,334668
1028.09,0.083984,404427,333316
1031.82,0.084507,401911,330844
1036.78,0.083690,398410,328579
1040.49,0.083519,396204,326889
1044.2,0.083860,394236,325010
1047.91,0.083433,392042,323519
1051.61,0.082696,389823,322234
1055.31,0.083431,388234,320378
1059,0.082303,387599,320686
1063.92,0.081499,386688,320525
1067.61,0.081002,386598,320817
1071.29,0.080491,387377,321842
1074.96,0.079787,388536,323329
1078.63,0.079854,389855,324376
1082.3,0.077791,391215,327058
1085.96,0.077553,393215,328910
1090.84,0.076446,396270,332311
1094.49,0.076096,398760,334669
1098.14,0.076012,400987,336603
1101.79,0.075104,403477,339402
1105.43,0.075079,406116,341642
1109.06,0.074098,407701,343751
1112.7,0.073486,409859,346058
1117.53,0.073546,412494,348234
1121.15,0.073994,414909,349912
1124.77,0.074230,416559,351113
1128.38,0.074582,418532,352490
1131.99,0.075933,419956,352591
1135.6,0.077114,421946,353299
1139.2,0.078856,423881,353499
1143.99,0.080556,426786,354531
1147.58,0.081439,428617,355329
1151.17,0.082047,431169,356944
1154.75,0.082988,433579,358163
1158.33,0.084823,436264,358861
1161.91,0.086559,439132,359779
1165.48,0.088179,442389,361098
1169.04,0.090089,446101,362530
1173.79,0.093569,451929,364335
1177.34,0.095903,456026,365668
1180.9,0.098186,461306,367962
1184.44,0.100101,467657,371387
1187.99,0.100817,473969,375779
1191.52,0.100748,479856,380507
1195.06,0.100881,487372,386349
1199.76,0.100210,497347,394866
1203.29,0.099422,504311,401122
1206.81,0.098882,511507,407352
1210.33,0.098459,519078,413784
1213.84,0.097916,527163,420755
1217.35,0.097421,534208,426864
1220.85,0.096183,540472,433102
1225.51,0.095820,549929,441049
1229.01,0.095338,556888,447126
1232.5,0.094391,562180,452360
1235.98,0.093927,567975,457512
1239.46,0.093259,574815,463734
1242.94,0.092116,582782,471401
1246.41,0.091570,591476,479035
1251.03,0.091421,604016,489359
1254.5,0.091698,612289,495745
1257.96,0.091868,619125,501084
1261.41,0.092867,624551,504314
1264.86,0.093383,629900,508029
1268.31,0.093443,634345,511544
1271.75,0.094296,638574,513943
1276.33,0.094508,642499,516850
1279.76,0.094103,645905,520075
1283.19,0.094166,648307,521933
1286.61,0.093648,650446,524280
1290.03,0.093195,652132,526187
1293.44,0.092928,653907,527944
1296.85,0.092568,655963,530043
1301.39,0.092151,657349,531674
1304.8,0.091922,657558,532123
1308.19,0.092006,658515,532794
1311.58,0.092177,658804,532819
1314.97,0.092631,659011,532429
1318.36,0.092933,658272,531462
1321.73,0.093581,658022,530468
1326.23,0.094095,657870,529719
1329.6,0.095109,656482,527368
1332.97,0.095596,654926,525529
1336.33,0.096881,653727,523017
1339.69,0.098041,652497,520640
1343.04,0.099472,649913,516872
1346.39,0.101413,647671,512792
1349.73,0.103526,645338,508465
1354.18,0.106215,641175,502067
1357.52,0.108185,638376,497613
1360.85,0.110340,635805,493155
1364.17,0.112456,633413,488912
1367.49,0.114426,631026,484866
1370.81,0.117373,628050,479315
1374.12,0.118918,625034,475319
1378.54,0.121624,620272,468768
1381.84,0.124081,616892,463584
1385.14,0.126976,613613,458056
1388.43,0.130402,611526,452911
1391.72,0.134806,610663,447709
1395.01,0.139033,610634,443351
1398.29,0.142634,611700,440458
1402.66,0.149128,614051,435589
1405.93,0.153944,616268,432340
1409.2,0.158483,617795,428905
1412.46,0.163098,618872,425111
1415.72,0.166473,619795,422450
1418.98,0.169921,620495,419582
1422.23,0.173348,621087,416682
1426.56,0.177307,621375,413092
1429.8,0.179437,621616,411230
1433.04,0.182188,622129,408971
1436.27,0.183863,621526,407002
1439.5,0.185637,621113,405073
1442.72,0.188755,620921,402051
1445.94,0.191292,620270,399290
1450.23,0.194287,618860,395645
1453.44,0.197391,617697,392089
1456.64,0.200791,616264,388129
1459.85,0.203265,614413,384765
1463.04,0.206050,612307,380995
1466.24,0.209315,610032,376736
1469.43,0.212860,607345,372028
1473.67,0.219514,603789,364226
1476.85,0.225865,601175,357385
1480.02,0.231859,597737,350470
1483.19,0.238029,594479,343643
1486.36,0.244519,591232,336697
1489.52,0.248881,587853,331427
1492.68,0.252233,583875,326653
1496.89,0.254553,578062,321678
1500.03,0.255142,574159,319073
1503.18,0.254846,570285,317136
1506.32,0.254424,565444,314750
1509.45,0.253642,560571,312600
1512.58,0.251188,555821,311707
1515.71,0.249092,550344,310129
1519.87,0.245585,543983,309030
1522.99,0.243057,538764,307852
1526.1,0.240845,533692,306511
1529.21,0.237918,527902,305236
1532.32,0.235360,521886,303540
1535.42,0.231951,515888,302416
1538.51,0.229488,509987,300657
1541.6,0.226771,503936,298954
1545.72,0.222774,494694,296185
1548.8,0.219576,488378,294564
1551.88,0.217039,481832,292319
1554.95,0.215517,474989,289179
1558.02,0.213441,467818,286178
1561.08,0.212167,460730,282670
1564.15,0.211480,454170,279086
1568.22,0.210622,444181,273488
1571.27,0.210018,436947,269408
1574.32,0.209183,429598,265387
1577.36,0.208371,422039,261205
1580.4,0.207295,414375,257098
1583.43,0.205583,406354,253117
1586.46,0.204195,398475,249004
1590.49,0.202550,388982,243994
1593.51,0.200656,380708,239848
1596.53,0.198473,372727,236003
1599.54,0.195889,365060,232528
1602.55,0.195371,357543,228012
1605.55,0.192827,349495,224189
1608.55,0.191020,341154,219751
1612.54,0.188938,330877,214155
1615.53,0.187403,322904,209735
1618.51,0.186833,315116,204945
1621.49,0.185808,307217,200280
1624.47,0.183613,299481,196226
1627.44,0.183369,292112,191505
1630.41,0.181819,284245,187014
1634.36,0.180156,274079,181017
1637.32,0.180657,266916,176083
1640.27,0.179468,259612,171734
1643.22,0.178149,251804,167076
1646.16,0.177284,244348,162452
1649.1,0.178365,236703,156978
1652.04,0.175929,228171,152171
1655.95,0.173139,215408,144585
1658.88,0.168040,204937,139181
1661.8,0.162300,193395,133090
1664.72,0.156464,179728,125358
1667.63,0.142657,163642,117825
1670.54,0.129086,146312,108691
1673.44,0.114064,128451,98781
1677.31,0.091984,105080,85023
1680.21,0.078720,88906,74167
1683.1,0.074487,75033,63207
1685.99,0.071902,63520,53828
1688.87,0.075276,53714,45166
1691.75,0.082898,45653,37720
1694.62,0.090256,39137,31793
1697.49,0.085846,33776,27718
1701.31,0.098512,28175,22457