File: samples/wool/wool-000811/Column 1_050586_20150331_121656.csv
Method:,Column 1,,
Host Date-Time:,31/3/15 @ 12:16:56,,
Header Version:,1,,
System Temp (C):,33.77,,
Detector Temp (C):,34.57,,
Humidity (%):,1.86,,
Lamp PD:,3819,,
Shift Vector Coefficients:,-10.5391,0.0761263,-0.000134223,,
Pixel to Wavelength Coefficients:,1775.68,-0.916766,-0.000235065,,
Serial Number:,5510004,,
Scan Config Name:,Column 1,,
Scan Config Type:,Slew,,
Section 1,,
Start wavelength (nm):,900,,
End wavelength (nm):,1700,,
Pattern Pixel Width (nm):,   7.03,,,,
Exposure (ms):,  0.635,,,,
Digital Resolution:,228,,
Num Repeats:,6,,
PGA Gain:,64,,
Total Measurement Time in sec:,  2.715,,
Wavelength (nm),Absorbance (AU),Reference Signal (unitless),Sample Signal (unitless)
901.51,0.070060,108485,92323
905.376,0.075866,121306,101863
909.237,0.078042,131909,110213
913.095,0.079039,143299,119455
916.948,0.079611,156982,130689
922.079,0.080517,179937,149487
925.923,0.082476,200504,165824
929.762,0.083446,222660,183737
933.597,0.083799,244426,201534
937.427,0.082482,263972,218311
941.254,0.082690,281845,232981
945.076,0.080795,297271,246807
950.165,0.079780,315605,262642
953.978,0.079624,328029,273079
957.786,0.079244,340470,283684
961.59,0.079730,352317,293227
965.389,0.079523,363056,302309
969.185,0.080131,373162,310289
972.976,0.080181,382632,318127
976.763,0.080722,391202,324847
981.806,0.080583,400190,332417
985.583,0.081843,406088,336339
989.355,0.082369,410162,339302
993.124,0.082549,412868,341399
996.888,0.083124,414263,342099
1000.65,0.084332,415476,342148
1004.4,0.085118,415479,341532
1009.41,0.085866,414358,340024
1013.15,0.086445,412923,338395
1016.89,0.087419,411526,336495
1020.63,0.086381,409066,335284
1024.36,0.086864,406777,333037
1028.09,0.086805,404427,331158
1031.82,0.086888,401911,329035
1036.78,0.085879,398410,326927
1040.49,0.086180,396204,324892
1044.2,0.085938,394236,323458
1047.91,0.085133,392042,322255
1051.61,0.085348,389823,320272
1055.31,0.085351,388234,318965
1059,0.084233,387599,319264
1063.92,0.084234,386688,318513
1067.61,0.083131,386598,319248
1071.29,0.082944,387377,320029
1074.96,0.082656,388536,321200
1078.63,0.081949,389855,322815
1082.3,0.080832,391215,324776
1085.96,0.079920,393215,327122
1090.84,0.079522,396270,329966
1094.49,0.078860,398760,332546
1098.14,0.078440,400987,334727
1101.79,0.077688,403477,337389
1105.43,0.077708,406116,339580
1109.06,0.077151,407701,341343
1112.7,0.076752,409859,343465
1117.53,0.076013,412494,346262
1121.15,0.076999,414909,347499
1124.77,0.076979,416559,348897
1128.38,0.077360,418532,350242
1131.99,0.078599,419956,350433
1135.6,0.080433,421946,350610
1139.2,0.081541,423881,351320
1143.99,0.083429,426786,352193
1147.58,0.084284,428617,353009
1151.17,0.085598,431169,354038
1154.75,0.086541,433579,355244
1158.33,0.087594,436264,356579
1161.91,0.089321,439132,357498
1165.48,0.091659,442389,358216
1169.04,0.093974,446101,359302
1173.79,0.097205,451929,361298
1177.34,0.099490,456026,362660
1180.9,0.101607,461306,365075
1184.44,0.103680,467657,368339
1187.99,0.103955,473969,373074
1191.52,0.104134,479856,377552
1195.06,0.104261,487372,383354
1199.76,0.103645,497347,391755
1203.29,0.102324,504311,398451
1206.81,0.102314,511507,404145
1210.33,0.101953,519078,410468
1213.84,0.101113,527163,417669
1217.35,0.100203,534208,424138
1220.85,0.099437,540472,429869
1225.51,0.099059,549929,437772
1229.01,0.098983,556888,443389
1232.5,0.098095,562180,448519
1235.98,0.097247,567975,454028
1239.46,0.096215,574815,460589
1242.94,0.095405,582782,467844
1246.41,0.094759,591476,475530
1251.03,0.095031,604016,485308
1254.5,0.094772,612289,492249
1257.96,0.095584,619125,496815
1261.41,0.095836,624551,500878
1264.86,0.096272,629900,504661
1268.31,0.096673,634345,507753
1271.75,0.097415,638574,510265
1276.33,0.098129,642499,512559
1279.76,0.097798,645905,515669
1283.19,0.097070,648307,518454
1286.61,0.096581,650446,520751
1290.03,0.096115,652132,522661
1293.44,0.096142,653907,524052
1296.85,0.095990,655963,525883
1301.39,0.095846,657349,527169
1304.8,0.095374,657558,527910
1308.19,0.095799,658515,528161
1311.58,0.095786,658804,528409
1314.97,0.096505,659011,527701
1318.36,0.096859,658272,526680
1321.73,0.097272,658022,525979
1326.23,0.098296,657870,524619
1329.6,0.099038,656482,522619
1332.97,0.100094,654926,520114
1336.33,0.101004,653727,518075
1339.69,0.102595,652497,515209
1343.04,0.104013,649913,511496
1346.39,0.106332,647671,507017
1349.73,0.108310,645338,502895
1354.18,0.111314,641175,496207
1357.52,0.113179,638376,491924
1360.85,0.115303,635805,487552
1364.17,0.117601,633413,483154
1367.49,0.119581,631026,479144
1370.81,0.121548,628050,474729
1374.12,0.124078,625034,469706
1378.54,0.127116,620272,462878
1381.84,0.130488,616892,456795
1385.14,0.133917,613613,450793
1388.43,0.137796,611526,445265
1391.72,0.142193,610663,440158
1395.01,0.147327,610634,434965
1398.29,0.151833,611700,431227
1402.66,0.159173,614051,425629
1405.93,0.164900,616268,421570
1409.2,0.170133,617795,417553
1412.46,0.174882,618872,413732
1415.72,0.179197,619795,410252
1418.98,0.183369,620495,406789
1422.23,0.187041,621087,403749
1426.56,0.191004,621375,400267
1429.8,0.193503,621616,398125
1433.04,0.196137,622129,396044
1436.27,0.198475,621526,393536
1439.5,0.200379,621113,391554
1442.72,0.202861,620921,389202
1445.94,0.205435,620270,386497
1450.23,0.208480,618860,382924
1453.44,0.210992,617697,380000
1456.64,0.213752,616264,376717
1459.85,0.216343,614413,373351
1463.04,0.219086,612307,369729
1466.24,0.222127,610032,365785
1469.43,0.224987,607345,361783
1473.67,0.231594,603789,354235
1476.85,0.235352,601175,349662
1480.02,0.241388,597737,342864
1483.19,0.246770,594479,336796
1486.36,0.252098,591232,330872
1489.52,0.256238,587853,325860
1492.68,0.259439,583875,321278
1496.89,0.261844,578062,316323
1500.03,0.261948,574159,314112
1503.18,0.262369,570285,311690
1506.32,0.261241,565444,309848
1509.45,0.260380,560571,307787
1512.58,0.258534,555821,306479
1515.71,0.256495,550344,304887
1519.87,0.254244,543983,302929
1522.99,0.251694,538764,301790
1526.1,0.248440,533692,301197
1529.21,0.245604,527902,299881
1532.32,0.243310,521886,298034
1535.42,0.239314,515888,297332
1538.51,0.236937,509987,295544
1541.6,0.234361,503936,293775
1545.72,0.230565,494694,290919
1548.8,0.227525,488378,289222
1551.88,0.225185,481832,286887
1554.95,0.223347,474989,284012
1558.02,0.221252,467818,281077
1561.08,0.220498,460730,277299
1564.15,0.219985,454170,273674
1568.22,0.218595,444181,268513
1571.27,0.217363,436947,264890
1574.32,0.216294,429598,261077
1577.36,0.215583,422039,256903
1580.4,0.213594,414375,253396
1583.43,0.212566,406354,249080
1586.46,0.210723,398475,245289
1590.49,0.208928,388982,240437
1593.51,0.206956,380708,236394
1596.53,0.205572,372727,232177
1599.54,0.202413,365060,229061
1602.55,0.200997,357543,225077
1605.55,0.199877,349495,220579
1608.55,0.196667,341154,216912
1612.54,0.195670,330877,210861
1615.53,0.194124,322904,206514
1618.51,0.193138,315116,201991
1621.49,0.191975,307217,197456
1624.47,0.190306,299481,193225
1627.44,0.189271,292112,188920
1630.41,0.188389,284245,184206
1634.36,0.187634,274079,177927
1637.32,0.185885,266916,173976
1640.27,0.186687,259612,168903
1643.22,0.185451,251804,164290
1646.16,0.184495,244348,159777
1649.1,0.183959,236703,154969
1652.04,0.182233,228171,149978
1655.95,0.177935,215408,142997
1658.88,0.176453,204937,136511
1661.8,0.169326,193395,130954
1664.72,0.162995,179728,123487
1667.63,0.149766,163642,115912
1670.54,0.135114,146312,107193
1673.44,0.120692,128451,97285
1677.31,0.103196,105080,82856
1680.21,0.090869,88906,72121
1683.1,0.084060,75033,61829
1685.99,0.086265,63520,52077
1688.87,0.090661,53714,43594
1691.75,0.098070,45653,36425
1694.62,0.102615,39137,30901
1697.49,0.106100,33776,26455
1701.31,0.116558,28175,21543