File: samples/wool/wool-000811/Column 1_050628_20150331_123654.csv
Method:,Column 1,,
Host Date-Time:,31/3/15 @ 12:36:54,,
Header Version:,1,,
System Temp (C):,34.16,,
Detector Temp (C):,35.06,,
Humidity (%):,1.56,,
Lamp PD:,3818,,
Shift Vector Coefficients:,-10.5391,0.0761263,-0.000134223,,
Pixel to Wavelength Coefficients:,1775.68,-0.916766,-0.000235065,,
Serial Number:,5510004,,
Scan Config Name:,Column 1,,
Scan Config Type:,Slew,,
Section 1,,
Start wavelength (nm):,900,,
End wavelength (nm):,1700,,
Pattern Pixel Width (nm):,   7.03,,,,
Exposure (ms):,  0.635,,,,
Digital Resolution:,228,,
Num Repeats:,6,,
PGA Gain:,64,,
Total Measurement Time in sec:,  2.681,,
Wavelength (nm),Absorbance (AU),Reference Signal (unitless),Sample Signal (unitless)
901.51,0.067176,108485,92938
905.376,0.073540,121306,102410
909.237,0.074799,131909,111039
913.095,0.077884,143299,119773
916.948,0.077886,156982,131209
922.079,0.079768,179937,149745
925.923,0.080706,200504,166501
929.762,0.081964,222660,184365
933.597,0.081465,244426,202620
937.427,0.080381,263972,219370
941.254,0.079730,281845,234574
945.076,0.078538,297271,248093
950.165,0.077882,315605,263792
953.978,0.076610,328029,274981
957.786,0.076996,340470,285156
961.59,0.077221,352317,294926
965.389,0.077124,363056,303983
969.185,0.077520,373162,312160
972.976,0.077498,382632,320098
976.763,0.077887,391202,326975
981.806,0.077739,400190,334601
985.583,0.078649,406088,338822
989.355,0.078898,410162,342025
993.124,0.079180,412868,344058
996.888,0.079750,414263,344767
1000.65,0.081247,415476,344587
1004.4,0.082233,415479,343808
1009.41,0.083705,414358,341720
1013.15,0.083658,412923,340574
1016.89,0.084486,411526,338775
1020.63,0.083849,409066,337244
1024.36,0.083815,406777,335383
1028.09,0.084083,404427,333240
1031.82,0.083329,401911,331742
1036.78,0.083519,398410,328709
1040.49,0.083228,396204,327108
1044.2,0.083021,394236,325638
1047.91,0.083121,392042,323751
1051.61,0.082489,389823,322388
1055.31,0.081973,388234,321455
1059,0.082215,387599,320751
1063.92,0.081400,386688,320598
1067.61,0.079871,386598,321654
1071.29,0.079381,387377,322666
1074.96,0.078671,388536,324161
1078.63,0.079299,389855,324791
1082.3,0.077317,391215,327415
1085.96,0.076573,393215,329653
1090.84,0.076048,396270,332616
1094.49,0.075278,398760,335300
1098.14,0.075355,400987,337113
1101.79,0.074253,403477,340068
1105.43,0.074102,406116,342411
1109.06,0.073068,407701,344567
1112.7,0.072825,409859,346585
1117.53,0.072602,412494,348992
1121.15,0.073241,414909,350519
1124.77,0.072786,416559,352282
1128.38,0.074619,418532,352460
1131.99,0.075183,419956,353200
1135.6,0.076328,421946,353939
1139.2,0.077563,423881,354553
1143.99,0.079906,426786,355062
1147.58,0.080424,428617,356160
1151.17,0.081737,431169,357199
1154.75,0.082510,433579,358557
1158.33,0.083202,436264,360203
1161.91,0.085699,439132,360492
1165.48,0.087231,442389,361887
1169.04,0.090095,446101,362525
1173.79,0.093081,451929,364745
1177.34,0.095084,456026,366358
1180.9,0.097318,461306,368698
1184.44,0.099015,467657,372317
1187.99,0.100298,473969,376229
1191.52,0.100047,479856,381122
1195.06,0.099606,487372,387485
1199.76,0.099386,497347,395616
1203.29,0.098710,504311,401780
1206.81,0.098248,511507,407947
1210.33,0.097589,519078,414614
1213.84,0.096910,527163,421730
1217.35,0.096532,534208,427739
1220.85,0.095895,540472,433389
1225.51,0.095164,549929,441715
1229.01,0.094769,556888,447712
1232.5,0.094081,562180,452683
1235.98,0.093487,567975,457975
1239.46,0.092391,574815,464662
1242.94,0.091491,582782,472080
1246.41,0.090511,591476,480204
1251.03,0.090606,604016,490278
1254.5,0.091025,612289,496514
1257.96,0.091494,619125,501516
1261.41,0.091855,624551,505490
1264.86,0.093836,629900,507499
1268.31,0.092659,634345,512468
1271.75,0.093477,638574,514914
1276.33,0.094038,642499,517409
1279.76,0.093653,645905,520614
1283.19,0.093213,648307,523080
1286.61,0.092877,650446,525212
1290.03,0.092401,652132,527150
1293.44,0.091911,653907,529182
1296.85,0.091813,655963,530966
1301.39,0.091170,657349,532876
1304.8,0.091371,657558,532799
1308.19,0.091122,658515,533880
1311.58,0.091230,658804,533981
1314.97,0.091979,659011,533229
1318.36,0.092208,658272,532350
1321.73,0.092555,658022,531723
1326.23,0.093074,657870,530965
1329.6,0.094119,656482,528571
1332.97,0.094751,654926,526552
1336.33,0.095617,653727,524541
1339.69,0.097466,652497,521330
1343.04,0.098352,649913,518207
1346.39,0.100633,647671,513714
1349.73,0.102728,645338,509400
1354.18,0.105096,641175,503362
1357.52,0.107159,638376,498790
1360.85,0.109006,635805,494673
1364.17,0.111301,633413,490214
1367.49,0.113284,631026,486142
1370.81,0.115504,628050,481382
1374.12,0.117536,625034,476835
1378.54,0.119931,620272,470599
1381.84,0.122709,616892,465050
1385.14,0.125910,613613,459182
1388.43,0.129415,611526,453942
1391.72,0.132818,610663,449763
1395.01,0.137170,610634,445257
1398.29,0.140904,611700,442216
1402.66,0.146870,614051,437859
1405.93,0.151555,616268,434725
1409.2,0.155830,617795,431533
1412.46,0.160188,618872,427970
1415.72,0.163899,619795,424961
1418.98,0.167232,620495,422188
1422.23,0.170493,621087,419430
1426.56,0.174314,621375,415949
1429.8,0.175787,621616,414701
1433.04,0.179152,622129,411840
1436.27,0.181252,621526,409456
1439.5,0.183201,621113,407352
1442.72,0.186018,620921,404593
1445.94,0.188397,620270,401961
1450.23,0.192292,618860,397466
1453.44,0.194741,617697,394489
1456.64,0.197592,616264,390998
1459.85,0.200242,614413,387452
1463.04,0.203299,612307,383416
1466.24,0.206690,610032,379020
1469.43,0.210805,607345,373792
1473.67,0.217142,603789,366221
1476.85,0.223621,601175,359236
1480.02,0.229579,597737,352315
1483.19,0.236656,594479,344731
1486.36,0.242190,591232,338507
1489.52,0.247418,587853,332545
1492.68,0.250662,583875,327837
1496.89,0.253193,578062,322687
1500.03,0.253111,574159,320569
1503.18,0.253498,570285,318122
1506.32,0.252466,565444,316172
1509.45,0.251329,560571,314269
1512.58,0.249895,555821,312637
1515.71,0.247405,550344,311336
1519.87,0.243721,543983,310359
1522.99,0.242248,538764,308426
1526.1,0.239787,533692,307258
1529.21,0.236650,527902,306128
1532.32,0.234141,521886,304393
1535.42,0.230646,515888,303326
1538.51,0.227308,509987,302170
1541.6,0.224823,503936,300298
1545.72,0.220246,494694,297914
1548.8,0.218141,488378,295539
1551.88,0.214903,481832,293760
1554.95,0.214085,474989,290134
1558.02,0.212032,467818,287108
1561.08,0.210985,460730,283440
1564.15,0.210566,454170,279674
1568.22,0.209310,444181,274315
1571.27,0.208695,436947,270230
1574.32,0.208053,429598,266078
1577.36,0.207043,422039,262005
1580.4,0.205417,414375,258212
1583.43,0.203847,406354,254131
1586.46,0.203217,398475,249565
1590.49,0.200942,388982,244899
1593.51,0.198845,380708,240850
1596.53,0.197283,372727,236651
1599.54,0.194416,365060,233318
1602.55,0.192050,357543,229762
1605.55,0.190578,349495,225353
1608.55,0.189605,341154,220468
1612.54,0.188241,330877,214499
1615.53,0.185660,322904,210578
1618.51,0.184782,315116,205915
1621.49,0.183731,307217,201240
1624.47,0.181859,299481,197020
1627.44,0.181198,292112,192465
1630.41,0.179401,284245,188058
1634.36,0.177983,274079,181925
1637.32,0.178684,266916,176885
1640.27,0.178259,259612,172213
1643.22,0.177606,251804,167285
1646.16,0.175531,244348,163109
1649.1,0.175574,236703,157990
1652.04,0.172676,228171,153315
1655.95,0.171116,215408,145260
1658.88,0.167270,204937,139428
1661.8,0.161097,193395,133459
1664.72,0.154214,179728,126009
1667.63,0.140008,163642,118546
1670.54,0.125612,146312,109564
1673.44,0.109007,128451,99938
1677.31,0.089767,105080,85458
1680.21,0.075105,88906,74787
1683.1,0.072239,75033,63535
1685.99,0.067224,63520,54411
1688.87,0.069848,53714,45734
1691.75,0.078111,45653,38138
1694.62,0.079090,39137,32621
1697.49,0.089528,33776,27484
1701.31,0.089346,28175,22936