File: samples/wool/wool-000811/Column 1_050576_20150331_121217.csv
Method:,Column 1,,
Host Date-Time:,31/3/15 @ 12:12:17,,
Header Version:,1,,
System Temp (C):,33.79,,
Detector Temp (C):,34.62,,
Humidity (%):,2.69,,
Lamp PD:,3819,,
Shift Vector Coefficients:,-10.5391,0.0761263,-0.000134223,,
Pixel to Wavelength Coefficients:,1775.68,-0.916766,-0.000235065,,
Serial Number:,5510004,,
Scan Config Name:,Column 1,,
Scan Config Type:,Slew,,
Section 1,,
Start wavelength (nm):,900,,
End wavelength (nm):,1700,,
Pattern Pixel Width (nm):,   7.03,,,,
Exposure (ms):,  0.635,,,,
Digital Resolution:,228,,
Num Repeats:,6,,
PGA Gain:,64,,
Total Measurement Time in sec:,  2.678,,
Wavelength (nm),Absorbance (AU),Reference Signal (unitless),Sample Signal (unitless)
901.51,0.072276,108485,91853
905.376,0.079007,121306,101129
909.237,0.080012,131909,109714
913.095,0.080817,143299,118967
916.948,0.082187,156982,129916
922.079,0.083087,179937,148605
925.923,0.084313,200504,165124
929.762,0.084729,222660,183195
933.597,0.084684,244426,201124
937.427,0.084498,263972,217300
941.254,0.083352,281845,232626
945.076,0.082359,297271,245920
950.165,0.081843,315605,261397
953.978,0.081278,328029,272041
957.786,0.081390,340470,282286
961.59,0.081628,352317,291948
965.389,0.081093,363056,301218
969.185,0.082186,373162,308824
972.976,0.081849,382632,316907
976.763,0.082210,391202,323736
981.806,0.083226,400190,330400
985.583,0.083695,406088,334908
989.355,0.084566,410162,337590
993.124,0.083823,412868,340399
996.888,0.084738,414263,340830
1000.65,0.085252,415476,341424
1004.4,0.086511,415479,340438
1009.41,0.087807,414358,338508
1013.15,0.088716,412923,336630
1016.89,0.089349,411526,335003
1020.63,0.088759,409066,333453
1024.36,0.088549,406777,331747
1028.09,0.088670,404427,329739
1031.82,0.088347,401911,327931
1036.78,0.087835,398410,325458
1040.49,0.087951,396204,323570
1044.2,0.087376,394236,322389
1047.91,0.087419,392042,320563
1051.61,0.087938,389823,318368
1055.31,0.086888,388234,317838
1059,0.086061,387599,317923
1063.92,0.086167,386688,317098
1067.61,0.085367,386598,317609
1071.29,0.085365,387377,318250
1074.96,0.083918,388536,320268
1078.63,0.083900,389855,321368
1082.3,0.082573,391215,323476
1085.96,0.082154,393215,325444
1090.84,0.081547,396270,328431
1094.49,0.080790,398760,331071
1098.14,0.080541,400987,333111
1101.79,0.079839,403477,335722
1105.43,0.079428,406116,338238
1109.06,0.079322,407701,339641
1112.7,0.079002,409859,341690
1117.53,0.078014,412494,344670
1121.15,0.079031,414909,345877
1124.77,0.079307,416559,347032
1128.38,0.079808,418532,348274
1131.99,0.081321,419956,348243
1135.6,0.082368,421946,349051
1139.2,0.084248,423881,349137
1143.99,0.086100,426786,350034
1147.58,0.086812,428617,350960
1151.17,0.088141,431169,351971
1154.75,0.089572,433579,352774
1158.33,0.090752,436264,353995
1161.91,0.092264,439132,355084
1165.48,0.094940,442389,355520
1169.04,0.096203,446101,357462
1173.79,0.099687,451929,359239
1177.34,0.102198,456026,360406
1180.9,0.104281,461306,362834
1184.44,0.105955,467657,366414
1187.99,0.106385,473969,370992
1191.52,0.106967,479856,375097
1195.06,0.106418,487372,381454
1199.76,0.106006,497347,389631
1203.29,0.105484,504311,395562
1206.81,0.105014,511507,401641
1210.33,0.103841,519078,408688
1213.84,0.103651,527163,415235
1217.35,0.103180,534208,421241
1220.85,0.102001,540472,427339
1225.51,0.101805,549929,435012
1229.01,0.100950,556888,441385
1232.5,0.100894,562180,445637
1235.98,0.099589,567975,451586
1239.46,0.098823,574815,457831
1242.94,0.098299,582782,464737
1246.41,0.097300,591476,472756
1251.03,0.097471,604016,482589
1254.5,0.097815,612289,488812
1257.96,0.097884,619125,494191
1261.41,0.098508,624551,497806
1264.86,0.099053,629900,501440
1268.31,0.099492,634345,504468
1271.75,0.100236,638574,506962
1276.33,0.100320,642499,509979
1279.76,0.100235,645905,512783
1283.19,0.099689,648307,515337
1286.61,0.099651,650446,517083
1290.03,0.099330,652132,518807
1293.44,0.098958,653907,520665
1296.85,0.098420,655963,522949
1301.39,0.098250,657349,524259
1304.8,0.098118,657558,524585
1308.19,0.098506,658515,524880
1311.58,0.098894,658804,524641
1314.97,0.098878,659011,524825
1318.36,0.099693,658272,523254
1321.73,0.100437,658022,522160
1326.23,0.101493,657870,520771
1329.6,0.102291,656482,518719
1332.97,0.103132,654926,516488
1336.33,0.104372,653727,514073
1339.69,0.106157,652497,511001
1343.04,0.108008,649913,506812
1346.39,0.110312,647671,502392
1349.73,0.112551,645338,498008
1354.18,0.115054,641175,491952
1357.52,0.117031,638376,487580
1360.85,0.119078,635805,483332
1364.17,0.120724,633413,479692
1367.49,0.123261,631026,475101
1370.81,0.125439,628050,470495
1374.12,0.127771,625034,465728
1378.54,0.131117,620272,458633
1381.84,0.134560,616892,452532
1385.14,0.138904,613613,445647
1388.43,0.142967,611526,439995
1391.72,0.148083,610663,434229
1395.01,0.152911,610634,429408
1398.29,0.158935,611700,424232
1402.66,0.166507,614051,418502
1405.93,0.173126,616268,413660
1409.2,0.178983,617795,409130
1412.46,0.184353,618872,404807
1415.72,0.189196,619795,400915
1418.98,0.193584,620495,397333
1422.23,0.197609,621087,394043
1426.56,0.202130,621375,390143
1429.8,0.204506,621616,388165
1433.04,0.207672,622129,385663
1436.27,0.209969,621526,383257
1439.5,0.211910,621113,381295
1442.72,0.214833,620921,378620
1445.94,0.217210,620270,376158
1450.23,0.219799,618860,373073
1453.44,0.222798,617697,369809
1456.64,0.225693,616264,366500
1459.85,0.227661,614413,363747
1463.04,0.230576,612307,360075
1466.24,0.232947,610032,356784
1469.43,0.236026,607345,352703
1473.67,0.240509,603789,347037
1476.85,0.244652,601175,342254
1480.02,0.249636,597737,336414
1483.19,0.254821,594479,330610
1486.36,0.259960,591232,324936
1489.52,0.264016,587853,320076
1492.68,0.265581,583875,316766
1496.89,0.267625,578062,312140
1500.03,0.268796,574159,309198
1503.18,0.267897,570285,307748
1506.32,0.267037,565444,305740
1509.45,0.266286,560571,303630
1512.58,0.265488,555821,301611
1515.71,0.263077,550344,300301
1519.87,0.260333,543983,298712
1522.99,0.258266,538764,297257
1526.1,0.255684,533692,296215
1529.21,0.252496,527902,295160
1532.32,0.249735,521886,293657
1535.42,0.247083,515888,292060
1538.51,0.244189,509987,290650
1541.6,0.241695,503936,288855
1545.72,0.237770,494694,286132
1548.8,0.234097,488378,284878
1551.88,0.231933,481832,282464
1554.95,0.230047,474989,279664
1558.02,0.228467,467818,276446
1561.08,0.226789,460730,273311
1564.15,0.226062,454170,269871
1568.22,0.224878,444181,264656
1571.27,0.224880,436947,260345
1574.32,0.223078,429598,257030
1577.36,0.221915,422039,253185
1580.4,0.220870,414375,249186
1583.43,0.219522,406354,245122
1586.46,0.217711,398475,241374
1590.49,0.215044,388982,237075
1593.51,0.213106,380708,233070
1596.53,0.211442,372727,229060
1599.54,0.209653,365060,225274
1602.55,0.207845,357543,221556
1605.55,0.206100,349495,217441
1608.55,0.204049,341154,213256
1612.54,0.200808,330877,208381
1615.53,0.198920,322904,204246
1618.51,0.198767,315116,199390
1621.49,0.197393,307217,195008
1624.47,0.196000,299481,190708
1627.44,0.195472,292112,186242
1630.41,0.193352,284245,182113
1634.36,0.192415,274079,175979
1637.32,0.191984,266916,171550
1640.27,0.189926,259612,167648
1643.22,0.190490,251804,162395
1646.16,0.188898,244348,158165
1649.1,0.187866,236703,153581
1652.04,0.186870,228171,148385
1655.95,0.183790,215408,141082
1658.88,0.180814,204937,135147
1661.8,0.174494,193395,129405
1664.72,0.167410,179728,122238
1667.63,0.155055,163642,114509
1670.54,0.141262,146312,105686
1673.44,0.124557,128451,96423
1677.31,0.104882,105080,82535
1680.21,0.094959,88906,71445
1683.1,0.086921,75033,61423
1685.99,0.089067,63520,51742
1688.87,0.095540,53714,43107
1691.75,0.098702,45653,36372
1694.62,0.105619,39137,30688
1697.49,0.106675,33776,26420
1701.31,0.114727,28175,21634