File: samples/wool/wool-000811/Column 1_050613_20150331_122951.csv
Method:,Column 1,,
Host Date-Time:,31/3/15 @ 12:29:51,,
Header Version:,1,,
System Temp (C):,34.06,,
Detector Temp (C):,34.95,,
Humidity (%):,1.66,,
Lamp PD:,3818,,
Shift Vector Coefficients:,-10.5391,0.0761263,-0.000134223,,
Pixel to Wavelength Coefficients:,1775.68,-0.916766,-0.000235065,,
Serial Number:,5510004,,
Scan Config Name:,Column 1,,
Scan Config Type:,Slew,,
Section 1,,
Start wavelength (nm):,900,,
End wavelength (nm):,1700,,
Pattern Pixel Width (nm):,   7.03,,,,
Exposure (ms):,  0.635,,,,
Digital Resolution:,228,,
Num Repeats:,6,,
PGA Gain:,64,,
Total Measurement Time in sec:,  2.667,,
Wavelength (nm),Absorbance (AU),Reference Signal (unitless),Sample Signal (unitless)
901.51,0.068182,108485,92723
905.376,0.073629,121306,102389
909.237,0.074553,131909,111102
913.095,0.077272,143299,119942
916.948,0.079156,156982,130826
922.079,0.080058,179937,149645
925.923,0.080964,200504,166402
929.762,0.082938,222660,183952
933.597,0.081358,244426,202670
937.427,0.080438,263972,219341
941.254,0.079647,281845,234619
945.076,0.078703,297271,247999
950.165,0.078146,315605,263632
953.978,0.076627,328029,274970
957.786,0.076916,340470,285209
961.59,0.076551,352317,295381
965.389,0.077093,363056,304005
969.185,0.077153,373162,312424
972.976,0.077576,382632,320041
976.763,0.078212,391202,326730
981.806,0.078152,400190,334283
985.583,0.078988,406088,338557
989.355,0.079646,410162,341436
993.124,0.080231,412868,343226
996.888,0.080478,414263,344190
1000.65,0.080884,415476,344875
1004.4,0.082005,415479,343989
1009.41,0.083933,414358,341541
1013.15,0.083899,412923,340385
1016.89,0.084608,411526,338680
1020.63,0.084389,409066,336825
1024.36,0.084472,406777,334876
1028.09,0.084836,404427,332663
1031.82,0.084504,401911,330846
1036.78,0.083811,398410,328488
1040.49,0.083042,396204,327248
1044.2,0.083149,394236,325542
1047.91,0.082449,392042,324253
1051.61,0.082816,389823,322145
1055.31,0.082521,388234,321050
1059,0.082062,387599,320864
1063.92,0.081217,386688,320733
1067.61,0.080650,386598,321077
1071.29,0.080175,387377,322076
1074.96,0.078921,388536,323974
1078.63,0.079393,389855,324721
1082.3,0.077163,391215,327531
1085.96,0.077515,393215,328939
1090.84,0.076087,396270,332586
1094.49,0.075933,398760,334795
1098.14,0.075651,400987,336883
1101.79,0.074746,403477,339682
1105.43,0.074163,406116,342363
1109.06,0.074049,407701,343790
1112.7,0.073016,409859,346432
1117.53,0.072643,412494,348959
1121.15,0.073515,414909,350298
1124.77,0.074011,416559,351290
1128.38,0.074414,418532,352626
1131.99,0.075712,419956,352770
1135.6,0.077155,421946,353266
1139.2,0.078400,423881,353870
1143.99,0.080142,426786,354869
1147.58,0.081439,428617,355329
1151.17,0.082335,431169,356708
1154.75,0.082635,433579,358454
1158.33,0.084743,436264,358927
1161.91,0.086277,439132,360013
1165.48,0.088582,442389,360763
1169.04,0.090210,446101,362429
1173.79,0.093938,451929,364026
1177.34,0.095988,456026,365596
1180.9,0.097837,461306,368258
1184.44,0.099565,467657,371845
1187.99,0.100853,473969,375748
1191.52,0.100558,479856,380674
1195.06,0.100868,487372,386360
1199.76,0.100169,497347,394903
1203.29,0.098961,504311,401548
1206.81,0.098300,511507,407898
1210.33,0.097976,519078,414244
1213.84,0.097912,527163,420759
1217.35,0.097498,534208,426788
1220.85,0.096804,540472,432483
1225.51,0.095634,549929,441238
1229.01,0.095043,556888,447430
1232.5,0.094482,562180,452265
1235.98,0.093693,567975,457758
1239.46,0.092637,574815,464399
1242.94,0.091832,582782,471709
1246.41,0.091547,591476,479060
1251.03,0.090766,604016,490098
1254.5,0.091701,612289,495742
1257.96,0.091552,619125,501448
1261.41,0.092190,624551,505101
1264.86,0.092883,629900,508614
1268.31,0.093436,634345,511552
1271.75,0.093735,638574,514608
1276.33,0.094375,642499,517008
1279.76,0.094109,645905,520067
1283.19,0.093611,648307,522600
1286.61,0.093087,650446,524958
1290.03,0.092785,652132,526684
1293.44,0.092398,653907,528589
1296.85,0.092393,655963,530257
1301.39,0.091657,657349,532278
1304.8,0.091942,657558,532098
1308.19,0.092505,658515,532182
1311.58,0.092178,658804,532817
1314.97,0.092580,659011,532491
1318.36,0.092627,658272,531837
1321.73,0.093022,658022,531152
1326.23,0.093935,657870,529914
1329.6,0.095014,656482,527483
1332.97,0.095687,654926,525418
1336.33,0.096408,653727,523586
1339.69,0.098095,652497,520575
1343.04,0.099367,649913,516997
1346.39,0.101321,647671,512901
1349.73,0.103127,645338,508933
1354.18,0.106126,641175,502170
1357.52,0.108276,638376,497508
1360.85,0.110149,635805,493372
1364.17,0.111527,633413,489959
1367.49,0.114234,631026,485080
1370.81,0.116606,628050,480163
1374.12,0.118549,625034,475724
1378.54,0.120957,620272,469489
1381.84,0.123590,616892,464108
1385.14,0.127434,613613,457573
1388.43,0.130893,611526,452399
1391.72,0.135052,610663,447455
1395.01,0.138697,610634,443694
1398.29,0.143315,611700,439768
1402.66,0.149333,614051,435383
1405.93,0.153816,616268,432468
1409.2,0.158392,617795,428995
1412.46,0.162934,618872,425272
1415.72,0.166604,619795,422322
1418.98,0.170181,620495,419331
1422.23,0.173694,621087,416350
1426.56,0.177000,621375,413384
1429.8,0.179518,621616,411154
1433.04,0.182005,622129,409143
1436.27,0.184609,621526,406303
1439.5,0.186247,621113,404505
1442.72,0.188951,620921,401870
1445.94,0.191473,620270,399124
1450.23,0.194760,618860,395214
1453.44,0.197725,617697,391787
1456.64,0.200807,616264,388114
1459.85,0.203097,614413,384914
1463.04,0.206437,612307,380656
1466.24,0.209070,610032,376949
1469.43,0.213014,607345,371896
1473.67,0.219322,603789,364387
1476.85,0.225507,601175,357679
1480.02,0.231415,597737,350829
1483.19,0.237911,594479,343736
1486.36,0.244645,591232,336599
1489.52,0.249028,587853,331315
1492.68,0.252620,583875,326362
1496.89,0.253717,578062,322298
1500.03,0.254844,574159,319292
1503.18,0.255034,570285,316999
1506.32,0.254668,565444,314573
1509.45,0.252932,560571,313111
1512.58,0.250875,555821,311932
1515.71,0.249095,550344,310127
1519.87,0.246564,543983,308334
1522.99,0.243044,538764,307861
1526.1,0.240423,533692,306809
1529.21,0.237475,527902,305547
1532.32,0.234546,521886,304109
1535.42,0.231734,515888,302567
1538.51,0.229231,509987,300835
1541.6,0.225623,503936,299745
1545.72,0.222371,494694,296460
1548.8,0.219517,488378,294604
1551.88,0.216750,481832,292513
1554.95,0.214807,474989,289652
1558.02,0.213215,467818,286327
1561.08,0.212217,460730,282637
1564.15,0.211983,454170,278763
1568.22,0.210338,444181,273667
1571.27,0.210371,436947,269189
1574.32,0.209875,429598,264964
1577.36,0.208413,422039,261180
1580.4,0.206972,414375,257289
1583.43,0.206054,406354,252843
1586.46,0.203632,398475,249327
1590.49,0.202369,388982,244096
1593.51,0.200117,380708,240146
1596.53,0.197955,372727,236285
1599.54,0.196871,365060,232003
1602.55,0.193910,357543,228780
1605.55,0.190836,349495,225219
1608.55,0.190707,341154,219909
1612.54,0.188632,330877,214306
1615.53,0.186869,322904,209993
1618.51,0.185435,315116,205606
1621.49,0.184621,307217,200828
1624.47,0.183445,299481,196302
1627.44,0.183612,292112,191398
1630.41,0.181457,284245,187170
1634.36,0.181038,274079,180650
1637.32,0.181121,266916,175895
1640.27,0.178557,259612,172095
1643.22,0.178559,251804,166918
1646.16,0.178119,244348,162140
1649.1,0.177014,236703,157467
1652.04,0.174299,228171,152743
1655.95,0.171645,215408,145083
1658.88,0.168162,204937,139142
1661.8,0.162195,193395,133122
1664.72,0.154118,179728,126037
1667.63,0.142377,163642,117901
1670.54,0.129214,146312,108659
1673.44,0.112699,128451,99092
1677.31,0.092285,105080,84964
1680.21,0.077872,88906,74312
1683.1,0.073088,75033,63411
1685.99,0.072548,63520,53748
1688.87,0.075228,53714,45171
1691.75,0.083381,45653,37678
1694.62,0.081694,39137,32426
1697.49,0.087086,33776,27639
1701.31,0.092482,28175,22771