File: samples/wool/wool-000811/Column 1_050589_20150331_121819.csv
Method:,Column 1,,
Host Date-Time:,31/3/15 @ 12:18:19,,
Header Version:,1,,
System Temp (C):,33.84,,
Detector Temp (C):,34.59,,
Humidity (%):,1.86,,
Lamp PD:,3818,,
Shift Vector Coefficients:,-10.5391,0.0761263,-0.000134223,,
Pixel to Wavelength Coefficients:,1775.68,-0.916766,-0.000235065,,
Serial Number:,5510004,,
Scan Config Name:,Column 1,,
Scan Config Type:,Slew,,
Section 1,,
Start wavelength (nm):,900,,
End wavelength (nm):,1700,,
Pattern Pixel Width (nm):,   7.03,,,,
Exposure (ms):,  0.635,,,,
Digital Resolution:,228,,
Num Repeats:,6,,
PGA Gain:,64,,
Total Measurement Time in sec:,  2.678,,
Wavelength (nm),Absorbance (AU),Reference Signal (unitless),Sample Signal (unitless)
901.51,0.070620,108485,92204
905.376,0.075593,121306,101927
909.237,0.077821,131909,110269
913.095,0.081098,143299,118890
916.948,0.080389,156982,130455
922.079,0.082270,179937,148885
925.923,0.083955,200504,165260
929.762,0.082053,222660,184327
933.597,0.083379,244426,201729
937.427,0.082944,263972,218079
941.254,0.081699,281845,233513
945.076,0.080371,297271,247048
950.165,0.080223,315605,262374
953.978,0.078731,328029,273641
957.786,0.079212,340470,283705
961.59,0.079238,352317,293559
965.389,0.078910,363056,302736
969.185,0.079900,373162,310454
972.976,0.080057,382632,318218
976.763,0.079697,391202,325615
981.806,0.080416,400190,332545
985.583,0.081578,406088,336544
989.355,0.081585,410162,339915
993.124,0.082187,412868,341684
996.888,0.082564,414263,342541
1000.65,0.083606,415476,342720
1004.4,0.084584,415479,341952
1009.41,0.085908,414358,339991
1013.15,0.086489,412923,338361
1016.89,0.086574,411526,337150
1020.63,0.086241,409066,335392
1024.36,0.086967,406777,332958
1028.09,0.086256,404427,331577
1031.82,0.086914,401911,329015
1036.78,0.085899,398410,326912
1040.49,0.086126,396204,324932
1044.2,0.085533,394236,323760
1047.91,0.085792,392042,321766
1051.61,0.084931,389823,320580
1055.31,0.084681,388234,319457
1059,0.084570,387599,319016
1063.92,0.083091,386688,319352
1067.61,0.083187,386598,319207
1071.29,0.082048,387377,320690
1074.96,0.081859,388536,321790
1078.63,0.081219,389855,323358
1082.3,0.080305,391215,325170
1085.96,0.080153,393215,326947
1090.84,0.079063,396270,330315
1094.49,0.078132,398760,333104
1098.14,0.078023,400987,335048
1101.79,0.077766,403477,337328
1105.43,0.076719,406116,340354
1109.06,0.076795,407701,341623
1112.7,0.075892,409859,344146
1117.53,0.075567,412494,346618
1121.15,0.076199,414909,348140
1124.77,0.076258,416559,349477
1128.38,0.077248,418532,350333
1131.99,0.078731,419956,350326
1135.6,0.080048,421946,350921
1139.2,0.081009,423881,351751
1143.99,0.083060,426786,352493
1147.58,0.083831,428617,353377
1151.17,0.084851,431169,354647
1154.75,0.086092,433579,355612
1158.33,0.087096,436264,356988
1161.91,0.089280,439132,357532
1165.48,0.091328,442389,358489
1169.04,0.093166,446101,359971
1173.79,0.096486,451929,361896
1177.34,0.098853,456026,363192
1180.9,0.100527,461306,365984
1184.44,0.103047,467657,368876
1187.99,0.103497,473969,373468
1191.52,0.103261,479856,378312
1195.06,0.102911,487372,384547
1199.76,0.103216,497347,392142
1203.29,0.102314,504311,398460
1206.81,0.101553,511507,404854
1210.33,0.101274,519078,411111
1213.84,0.100334,527163,418419
1217.35,0.100106,534208,424233
1220.85,0.098979,540472,430323
1225.51,0.098212,549929,438626
1229.01,0.098013,556888,444380
1232.5,0.097796,562180,448827
1235.98,0.096465,567975,454846
1239.46,0.098149,574815,458542
1242.94,0.095082,582782,468192
1246.41,0.094254,591476,476083
1251.03,0.094203,604016,486234
1254.5,0.094340,612289,492739
1257.96,0.094971,619125,497516
1261.41,0.095306,624551,501490
1264.86,0.095781,629900,505232
1268.31,0.096296,634345,508194
1271.75,0.096965,638574,510794
1276.33,0.097340,642499,513490
1279.76,0.096878,645905,516762
1283.19,0.095944,648307,519800
1286.61,0.096469,650446,520885
1290.03,0.096358,652132,522369
1293.44,0.095357,653907,525000
1296.85,0.095432,655963,526559
1301.39,0.094991,657349,528208
1304.8,0.095068,657558,528282
1308.19,0.095397,658515,528651
1311.58,0.095300,658804,529001
1314.97,0.096033,659011,528275
1318.36,0.096236,658272,527436
1321.73,0.096841,658022,526501
1326.23,0.097441,657870,525653
1329.6,0.098577,656482,523173
1332.97,0.099527,654926,520793
1336.33,0.100612,653727,518543
1339.69,0.102309,652497,515549
1343.04,0.103497,649913,512104
1346.39,0.105795,647671,507644
1349.73,0.107635,645338,503677
1354.18,0.110729,641175,496875
1357.52,0.112505,638376,492688
1360.85,0.114612,635805,488328
1364.17,0.116712,633413,484144
1367.49,0.118753,631026,480059
1370.81,0.120855,628050,475488
1374.12,0.123375,625034,470466
1378.54,0.126132,620272,463928
1381.84,0.129244,616892,458105
1385.14,0.133011,613613,451735
1388.43,0.136641,611526,446451
1391.72,0.140894,610663,441477
1395.01,0.145996,610634,436300
1398.29,0.150504,611700,432548
1402.66,0.157494,614051,427278
1405.93,0.163152,616268,423270
1409.2,0.168196,617795,419419
1412.46,0.173008,618872,415521
1415.72,0.176864,619795,412462
1418.98,0.181219,620495,408808
1422.23,0.184743,621087,405891
1426.56,0.188823,621375,402282
1429.8,0.191208,621616,400234
1433.04,0.194117,622129,397890
1436.27,0.195973,621526,395810
1439.5,0.198315,621113,393419
1442.72,0.200433,620921,391384
1445.94,0.203008,620270,388663
1450.23,0.206602,618860,384583
1453.44,0.208650,617697,382055
1456.64,0.211517,616264,378660
1459.85,0.214004,614413,375367
1463.04,0.216409,612307,372015
1466.24,0.220018,610032,367565
1469.43,0.223494,607345,363029
1473.67,0.229211,603789,356184
1476.85,0.233970,601175,350777
1480.02,0.239703,597737,344197
1483.19,0.245440,594479,337829
1486.36,0.250871,591232,331808
1489.52,0.255481,587853,326428
1492.68,0.258519,583875,321959
1496.89,0.260585,578062,317241
1500.03,0.261025,574159,314780
1503.18,0.261341,570285,312429
1506.32,0.259849,565444,310843
1509.45,0.259176,560571,308642
1512.58,0.257217,555821,307410
1515.71,0.254775,550344,306097
1519.87,0.252338,543983,304262
1522.99,0.249579,538764,303263
1526.1,0.247442,533692,301890
1529.21,0.244172,527902,300872
1532.32,0.241843,521886,299042
1535.42,0.239090,515888,297485
1538.51,0.235687,509987,296396
1541.6,0.233396,503936,294428
1545.72,0.228700,494694,292171
1548.8,0.226247,488378,290074
1551.88,0.223538,481832,287977
1554.95,0.221849,474989,284993
1558.02,0.220270,467818,281713
1561.08,0.219046,460730,278228
1564.15,0.218407,454170,274670
1568.22,0.217472,444181,269208
1571.27,0.216206,436947,265597
1574.32,0.215446,429598,261587
1577.36,0.215019,422039,257237
1580.4,0.213193,414375,253630
1583.43,0.211535,406354,249672
1586.46,0.210369,398475,245489
1590.49,0.208159,388982,240863
1593.51,0.206612,380708,236581
1596.53,0.204158,372727,232934
1599.54,0.202176,365060,229186
1602.55,0.200058,357543,225564
1605.55,0.197601,349495,221738
1608.55,0.196527,341154,216982
1612.54,0.194288,330877,211533
1615.53,0.192512,322904,207282
1618.51,0.191079,315116,202951
1621.49,0.191118,307217,197846
1624.47,0.189906,299481,193403
1627.44,0.187361,292112,189753
1630.41,0.186681,284245,184932
1634.36,0.186829,274079,178257
1637.32,0.185336,266916,174196
1640.27,0.184617,259612,169710
1643.22,0.184345,251804,164709
1646.16,0.183124,244348,160282
1649.1,0.182934,236703,155335
1652.04,0.180358,228171,150627
1655.95,0.178132,215408,142932
1658.88,0.174121,204937,137246
1661.8,0.170708,193395,130538
1664.72,0.162344,179728,123672
1667.63,0.149074,163642,116097
1670.54,0.135620,146312,107068
1673.44,0.119573,128451,97536
1677.31,0.101094,105080,83258
1680.21,0.090286,88906,72218
1683.1,0.087176,75033,61387
1685.99,0.084625,63520,52274
1688.87,0.087841,53714,43878
1691.75,0.090798,45653,37040
1694.62,0.099157,39137,31148
1697.49,0.107070,33776,26396
1701.31,0.112544,28175,21743