File: samples/wool/wool-000811/Column 1_050622_20150331_123354.csv
Method:,Column 1,,
Host Date-Time:,31/3/15 @ 12:33:54,,
Header Version:,1,,
System Temp (C):,34.12,,
Detector Temp (C):,35.03,,
Humidity (%):,1.56,,
Lamp PD:,3818,,
Shift Vector Coefficients:,-10.5391,0.0761263,-0.000134223,,
Pixel to Wavelength Coefficients:,1775.68,-0.916766,-0.000235065,,
Serial Number:,5510004,,
Scan Config Name:,Column 1,,
Scan Config Type:,Slew,,
Section 1,,
Start wavelength (nm):,900,,
End wavelength (nm):,1700,,
Pattern Pixel Width (nm):,   7.03,,,,
Exposure (ms):,  0.635,,,,
Digital Resolution:,228,,
Num Repeats:,6,,
PGA Gain:,64,,
Total Measurement Time in sec:,  2.678,,
Wavelength (nm),Absorbance (AU),Reference Signal (unitless),Sample Signal (unitless)
901.51,0.069881,108485,92361
905.376,0.075269,121306,102003
909.237,0.076260,131909,110666
913.095,0.078675,143299,119555
916.948,0.078990,156982,130876
922.079,0.079438,179937,149859
925.923,0.081502,200504,166196
929.762,0.082692,222660,184056
933.597,0.082783,244426,202006
937.427,0.080521,263972,219299
941.254,0.080055,281845,234399
945.076,0.078764,297271,247964
950.165,0.077410,315605,264079
953.978,0.077092,328029,274676
957.786,0.077168,340470,285043
961.59,0.077368,352317,294826
965.389,0.077670,363056,303601
969.185,0.077191,373162,312397
972.976,0.077999,382632,319729
976.763,0.078537,391202,326486
981.806,0.078898,400190,333709
985.583,0.079127,406088,338449
989.355,0.078754,410162,342138
993.124,0.080632,412868,342909
996.888,0.080459,414263,344205
1000.65,0.081241,415476,344592
1004.4,0.082136,415479,343885
1009.41,0.083531,414358,341857
1013.15,0.084216,412923,340136
1016.89,0.083995,411526,339158
1020.63,0.084089,409066,337058
1024.36,0.085252,406777,334275
1028.09,0.084236,404427,333123
1031.82,0.083764,401911,331410
1036.78,0.084087,398410,328279
1040.49,0.083291,396204,327060
1044.2,0.082989,394236,325662
1047.91,0.082979,392042,323857
1051.61,0.082886,389823,322093
1055.31,0.082437,388234,321112
1059,0.082112,387599,320827
1063.92,0.081508,386688,320518
1067.61,0.080810,386598,320959
1071.29,0.080845,387377,321580
1074.96,0.080014,388536,323160
1078.63,0.078586,389855,325325
1082.3,0.078034,391215,326875
1085.96,0.077601,393215,328874
1090.84,0.076480,396270,332285
1094.49,0.076034,398760,334717
1098.14,0.075473,400987,337021
1101.79,0.074832,403477,339615
1105.43,0.074615,406116,342007
1109.06,0.073469,407701,344249
1112.7,0.073457,409859,346081
1117.53,0.073195,412494,348516
1121.15,0.073590,414909,350238
1124.77,0.073641,416559,351589
1128.38,0.074586,418532,352487
1131.99,0.075695,419956,352784
1135.6,0.076952,421946,353431
1139.2,0.078238,423881,354002
1143.99,0.080563,426786,354525
1147.58,0.081262,428617,355474
1151.17,0.081937,431169,357035
1154.75,0.082974,433579,358174
1158.33,0.083839,436264,359675
1161.91,0.085796,439132,360412
1165.48,0.087945,442389,361293
1169.04,0.090196,446101,362441
1173.79,0.093610,451929,364301
1177.34,0.095659,456026,365873
1180.9,0.097858,461306,368240
1184.44,0.099501,467657,371900
1187.99,0.100857,473969,375745
1191.52,0.100506,479856,380719
1195.06,0.101205,487372,386061
1199.76,0.100162,497347,394909
1203.29,0.099549,504311,401005
1206.81,0.098642,511507,407577
1210.33,0.098006,519078,414216
1213.84,0.097517,527163,421141
1217.35,0.096943,534208,427334
1220.85,0.096161,540472,433124
1225.51,0.095077,549929,441804
1229.01,0.095841,556888,446608
1232.5,0.094371,562180,452381
1235.98,0.093898,567975,457542
1239.46,0.092769,574815,464258
1242.94,0.092123,582782,471393
1246.41,0.091106,591476,479547
1251.03,0.091383,604016,489402
1254.5,0.091849,612289,495573
1257.96,0.091875,619125,501076
1261.41,0.092602,624551,504622
1264.86,0.092789,629900,508724
1268.31,0.093167,634345,511869
1271.75,0.094209,638574,514046
1276.33,0.094145,642499,517282
1279.76,0.093990,645905,520210
1283.19,0.093516,648307,522715
1286.61,0.093035,650446,525020
1290.03,0.093022,652132,526397
1293.44,0.092534,653907,528423
1296.85,0.092282,655963,530392
1301.39,0.091870,657349,532018
1304.8,0.091715,657558,532377
1308.19,0.091892,658515,532934
1311.58,0.091790,658804,533293
1314.97,0.092280,659011,532859
1318.36,0.092923,658272,531475
1321.73,0.093325,658022,530781
1326.23,0.093802,657870,530076
1329.6,0.094430,656482,528193
1332.97,0.095301,654926,525886
1336.33,0.096205,653727,523831
1339.69,0.097467,652497,521329
1343.04,0.098869,649913,517591
1346.39,0.100881,647671,513421
1349.73,0.102931,645338,509162
1354.18,0.105586,641175,502794
1357.52,0.107569,638376,498319
1360.85,0.109518,635805,494090
1364.17,0.111411,633413,490090
1367.49,0.114042,631026,485294
1370.81,0.116174,628050,480640
1374.12,0.117983,625034,476344
1378.54,0.120777,620272,469683
1381.84,0.123412,616892,464298
1385.14,0.126734,613613,458311
1388.43,0.130266,611526,453053
1391.72,0.133616,610663,448937
1395.01,0.138248,610634,444153
1398.29,0.141937,611700,441165
1402.66,0.148089,614051,436632
1405.93,0.152494,616268,433786
1409.2,0.157236,617795,430139
1412.46,0.161117,618872,427055
1415.72,0.165123,619795,423765
1418.98,0.168315,620495,421137
1422.23,0.172237,621087,417749
1426.56,0.176064,621375,414276
1429.8,0.178015,621616,412579
1433.04,0.180722,622129,410354
1436.27,0.182947,621526,407861
1439.5,0.184947,621113,405717
1442.72,0.187470,620921,403243
1445.94,0.189821,620270,400645
1450.23,0.193367,618860,396484
1453.44,0.196097,617697,393259
1456.64,0.198847,616264,389870
1459.85,0.201467,614413,386361
1463.04,0.204912,612307,381995
1466.24,0.208160,610032,377740
1469.43,0.211912,607345,372841
1473.67,0.218657,603789,364946
1476.85,0.224572,601175,358450
1480.02,0.230598,597737,351489
1483.19,0.236933,594479,344511
1486.36,0.243442,591232,337533
1489.52,0.248407,587853,331789
1492.68,0.251475,583875,327224
1496.89,0.253857,578062,322194
1500.03,0.254292,574159,319698
1503.18,0.254159,570285,317638
1506.32,0.253518,565444,315407
1509.45,0.251859,560571,313886
1512.58,0.250988,555821,311851
1515.71,0.247983,550344,310922
1519.87,0.245368,543983,309184
1522.99,0.242535,538764,308222
1526.1,0.239957,533692,307138
1529.21,0.236803,527902,306020
1532.32,0.234569,521886,304093
1535.42,0.231725,515888,302573
1538.51,0.228125,509987,301602
1541.6,0.225990,503936,299492
1545.72,0.221558,494694,297015
1548.8,0.218919,488378,295010
1551.88,0.215981,481832,293032
1554.95,0.214450,474989,289890
1558.02,0.213251,467818,286303
1561.08,0.211586,460730,283048
1564.15,0.211238,454170,279242
1568.22,0.209998,444181,273881
1571.27,0.209823,436947,269529
1574.32,0.208530,429598,265786
1577.36,0.207527,422039,261713
1580.4,0.206657,414375,257476
1583.43,0.205033,406354,253438
1586.46,0.204047,398475,249089
1590.49,0.201594,388982,244532
1593.51,0.199941,380708,240243
1596.53,0.197666,372727,236442
1599.54,0.195829,365060,232560
1602.55,0.194973,357543,228221
1605.55,0.192490,349495,224363
1608.55,0.190252,341154,220140
1612.54,0.188312,330877,214464
1615.53,0.185444,322904,210683
1618.51,0.185063,315116,205782
1621.49,0.184954,307217,200674
1624.47,0.183425,299481,196311
1627.44,0.183045,292112,191648
1630.41,0.181684,284245,187072
1634.36,0.180168,274079,181012
1637.32,0.179349,266916,176614
1640.27,0.178763,259612,172013
1643.22,0.177489,251804,167330
1646.16,0.177468,244348,162383
1649.1,0.176336,236703,157713
1652.04,0.175566,228171,152298
1655.95,0.171609,215408,145095
1658.88,0.169813,204937,138614
1661.8,0.162901,193395,132906
1664.72,0.154887,179728,125814
1667.63,0.141729,163642,118077
1670.54,0.127284,146312,109143
1673.44,0.109711,128451,99776
1677.31,0.090225,105080,85368
1680.21,0.077960,88906,74297
1683.1,0.073362,75033,63371
1685.99,0.070790,63520,53966
1688.87,0.081913,53714,44481
1691.75,0.075048,45653,38408
1694.62,0.085853,39137,32117
1697.49,0.084189,33776,27824
1701.31,0.094125,28175,22685