File: samples/wool/wool-000811/Column 1_050624_20150331_123454.csv
Method:,Column 1,,
Host Date-Time:,31/3/15 @ 12:34:54,,
Header Version:,1,,
System Temp (C):,34.11,,
Detector Temp (C):,35.05,,
Humidity (%):,1.56,,
Lamp PD:,3818,,
Shift Vector Coefficients:,-10.5391,0.0761263,-0.000134223,,
Pixel to Wavelength Coefficients:,1775.68,-0.916766,-0.000235065,,
Serial Number:,5510004,,
Scan Config Name:,Column 1,,
Scan Config Type:,Slew,,
Section 1,,
Start wavelength (nm):,900,,
End wavelength (nm):,1700,,
Pattern Pixel Width (nm):,   7.03,,,,
Exposure (ms):,  0.635,,,,
Digital Resolution:,228,,
Num Repeats:,6,,
PGA Gain:,64,,
Total Measurement Time in sec:,  2.671,,
Wavelength (nm),Absorbance (AU),Reference Signal (unitless),Sample Signal (unitless)
901.51,0.067761,108485,92813
905.376,0.073125,121306,102508
909.237,0.073409,131909,111395
913.095,0.076378,143299,120189
916.948,0.077870,156982,131214
922.079,0.080099,179937,149631
925.923,0.081510,200504,166193
929.762,0.081356,222660,184623
933.597,0.080810,244426,202926
937.427,0.079973,263972,219576
941.254,0.079662,281845,234611
945.076,0.078704,297271,247998
950.165,0.077762,315605,263865
953.978,0.076401,328029,275113
957.786,0.076486,340470,285491
961.59,0.077031,352317,295055
965.389,0.076421,363056,304476
969.185,0.077659,373162,312060
972.976,0.076510,382632,320827
976.763,0.078146,391202,326780
981.806,0.078291,400190,334176
985.583,0.078881,406088,338641
989.355,0.079094,410162,341870
993.124,0.079288,412868,343972
996.888,0.079846,414263,344691
1000.65,0.081168,415476,344650
1004.4,0.082078,415479,343931
1009.41,0.083200,414358,342118
1013.15,0.083616,412923,340607
1016.89,0.084237,411526,338969
1020.63,0.083979,409066,337143
1024.36,0.083962,406777,335270
1028.09,0.083979,404427,333320
1031.82,0.083673,401911,331480
1036.78,0.083199,398410,328951
1040.49,0.083019,396204,327265
1044.2,0.083033,394236,325629
1047.91,0.082624,392042,324122
1051.61,0.082280,389823,322543
1055.31,0.081882,388234,321523
1059,0.081395,387599,321357
1063.92,0.080276,386688,321429
1067.61,0.079890,386598,321640
1071.29,0.079958,387377,322237
1074.96,0.078802,388536,324063
1078.63,0.078431,389855,325441
1082.3,0.077390,391215,327360
1085.96,0.076323,393215,329843
1090.84,0.075616,396270,332947
1094.49,0.075606,398760,335047
1098.14,0.075080,400987,337326
1101.79,0.073968,403477,340291
1105.43,0.073670,406116,342752
1109.06,0.073030,407701,344597
1112.7,0.072406,409859,346919
1117.53,0.072161,412494,349347
1121.15,0.072803,414909,350873
1124.77,0.073442,416559,351750
1128.38,0.074223,418532,352781
1131.99,0.075050,419956,353308
1135.6,0.076486,421946,353811
1139.2,0.077819,423881,354344
1143.99,0.080109,426786,354896
1147.58,0.080443,428617,356145
1151.17,0.081210,431169,357633
1154.75,0.082167,433579,358840
1158.33,0.083831,436264,359682
1161.91,0.085513,439132,360647
1165.48,0.087768,442389,361440
1169.04,0.089506,446101,363017
1173.79,0.093028,451929,364789
1177.34,0.094970,456026,366454
1180.9,0.097871,461306,368229
1184.44,0.098679,467657,372605
1187.99,0.100095,473969,376405
1191.52,0.100379,479856,380831
1195.06,0.100124,487372,387023
1199.76,0.099540,497347,395475
1203.29,0.098566,504311,401913
1206.81,0.097858,511507,408313
1210.33,0.097417,519078,414778
1213.84,0.097054,527163,421591
1217.35,0.096741,534208,427533
1220.85,0.095793,540472,433491
1225.51,0.095317,549929,441560
1229.01,0.094317,556888,448178
1232.5,0.094202,562180,452557
1235.98,0.093298,567975,458175
1239.46,0.092220,574815,464845
1242.94,0.091457,582782,472116
1246.41,0.090599,591476,480107
1251.03,0.090454,604016,490450
1254.5,0.090992,612289,496552
1257.96,0.091168,619125,501892
1261.41,0.091551,624551,505844
1264.86,0.092144,629900,509480
1268.31,0.092688,634345,512433
1271.75,0.093471,638574,514921
1276.33,0.094052,642499,517393
1279.76,0.093589,645905,520691
1283.19,0.092706,648307,523690
1286.61,0.092567,650446,525587
1290.03,0.092455,652132,527085
1293.44,0.091702,653907,529437
1296.85,0.091841,655963,530931
1301.39,0.091773,657349,532137
1304.8,0.091259,657558,532936
1308.19,0.091820,658515,533023
1311.58,0.091557,658804,533580
1314.97,0.091702,659011,533569
1318.36,0.092122,658272,532455
1321.73,0.092782,658022,531445
1326.23,0.093449,657870,530507
1329.6,0.093861,656482,528886
1332.97,0.094420,654926,526953
1336.33,0.095736,653727,524397
1339.69,0.097164,652497,521693
1343.04,0.098427,649913,518118
1346.39,0.100680,647671,513658
1349.73,0.102805,645338,509310
1354.18,0.105231,641175,503206
1357.52,0.107080,638376,498881
1360.85,0.109325,635805,494309
1364.17,0.111380,633413,490125
1367.49,0.113097,631026,486351
1370.81,0.115665,628050,481204
1374.12,0.117408,625034,476975
1378.54,0.120055,620272,470465
1381.84,0.123063,616892,464672
1385.14,0.125883,613613,459210
1388.43,0.129416,611526,453940
1391.72,0.133295,610663,449269
1395.01,0.137188,610634,445239
1398.29,0.141279,611700,441834
1402.66,0.147124,614051,437603
1405.93,0.151550,616268,434730
1409.2,0.156767,617795,430603
1412.46,0.160705,618872,427460
1415.72,0.163903,619795,424957
1418.98,0.167654,620495,421778
1422.23,0.170847,621087,419088
1426.56,0.174704,621375,415575
1429.8,0.177448,621616,413118
1433.04,0.180151,622129,410894
1436.27,0.181963,621526,408786
1439.5,0.183617,621113,406962
1442.72,0.186712,620921,403947
1445.94,0.188281,620270,402068
1450.23,0.192365,618860,397400
1453.44,0.195286,617697,393994
1456.64,0.197980,616264,390649
1459.85,0.201106,614413,386682
1463.04,0.204158,612307,382658
1466.24,0.207567,610032,378256
1469.43,0.211244,607345,373415
1473.67,0.217757,603789,365703
1476.85,0.223440,601175,359386
1480.02,0.230500,597737,351569
1483.19,0.236908,594479,344531
1486.36,0.242527,591232,338245
1489.52,0.247528,587853,332461
1492.68,0.250785,583875,327744
1496.89,0.252600,578062,323128
1500.03,0.255470,574159,318832
1503.18,0.253364,570285,318220
1506.32,0.252715,565444,315991
1509.45,0.251101,560571,314434
1512.58,0.249582,555821,312862
1515.71,0.247077,550344,311571
1519.87,0.244528,543983,309783
1522.99,0.242169,538764,308482
1526.1,0.239552,533692,307425
1529.21,0.236439,527902,306277
1532.32,0.233956,521886,304523
1535.42,0.230405,515888,303494
1538.51,0.228089,509987,301627
1541.6,0.224631,503936,300431
1545.72,0.220457,494694,297769
1548.8,0.217461,488378,296002
1551.88,0.215473,481832,293375
1554.95,0.213421,474989,290578
1558.02,0.212552,467818,286764
1561.08,0.210746,460730,283596
1564.15,0.210691,454170,279594
1568.22,0.209268,444181,274342
1571.27,0.208782,436947,270176
1574.32,0.208473,429598,265821
1577.36,0.206306,422039,262450
1580.4,0.206303,414375,257686
1583.43,0.204156,406354,253950
1586.46,0.202873,398475,249763
1590.49,0.200879,388982,244935
1593.51,0.199257,380708,240622
1596.53,0.196888,372727,236866
1599.54,0.194500,365060,233273
1602.55,0.192536,357543,229505
1605.55,0.190834,349495,225220
1608.55,0.188389,341154,221086
1612.54,0.187458,330877,214886
1615.53,0.185368,322904,210720
1618.51,0.184222,315116,206181
1621.49,0.183904,307217,201160
1624.47,0.182397,299481,196776
1627.44,0.181776,292112,192209
1630.41,0.181016,284245,187360
1634.36,0.179377,274079,181342
1637.32,0.178372,266916,177012
1640.27,0.178958,259612,171936
1643.22,0.176449,251804,167731
1646.16,0.176434,244348,162770
1649.1,0.175607,236703,157978
1652.04,0.173277,228171,153103
1655.95,0.171101,215408,145265
1658.88,0.167367,204937,139397
1661.8,0.160415,193395,133669
1664.72,0.153746,179728,126145
1667.63,0.140319,163642,118461
1670.54,0.127364,146312,109123
1673.44,0.109677,128451,99784
1677.31,0.089600,105080,85491
1680.21,0.074246,88906,74935
1683.1,0.071563,75033,63634
1685.99,0.067751,63520,54345
1688.87,0.068303,53714,45897
1691.75,0.075715,45653,38349
1694.62,0.079317,39137,32604
1697.49,0.086442,33776,27680
1701.31,0.088382,28175,22987