File: samples/wool/wool-000811/Column 1_050550_20150331_120005.csv
Method:,Column 1,,
Host Date-Time:,31/3/15 @ 12:0:5,,
Header Version:,1,,
System Temp (C):,33.27,,
Detector Temp (C):,32.38,,
Humidity (%):,3.86,,
Lamp PD:,3820,,
Shift Vector Coefficients:,-10.5391,0.0761263,-0.000134223,,
Pixel to Wavelength Coefficients:,1775.68,-0.916766,-0.000235065,,
Serial Number:,5510004,,
Scan Config Name:,Column 1,,
Scan Config Type:,Slew,,
Section 1,,
Start wavelength (nm):,900,,
End wavelength (nm):,1700,,
Pattern Pixel Width (nm):,   7.03,,,,
Exposure (ms):,  0.635,,,,
Digital Resolution:,228,,
Num Repeats:,6,,
PGA Gain:,64,,
Total Measurement Time in sec:,  2.682,,
Wavelength (nm),Absorbance (AU),Reference Signal (unitless),Sample Signal (unitless)
901.51,0.045742,108485,97640
905.376,0.053307,121306,107294
909.237,0.054848,131909,116259
913.095,0.054328,143299,126449
916.948,0.055848,156982,138039
922.079,0.054612,179937,158675
925.923,0.055982,200504,176255
929.762,0.056973,222660,195285
933.597,0.057399,244426,214165
937.427,0.057110,263972,231445
941.254,0.057218,281845,247054
945.076,0.056624,297271,260933
950.165,0.056474,315605,277121
953.978,0.055771,328029,288497
957.786,0.056785,340470,298740
961.59,0.057631,352317,308534
965.389,0.056872,363056,318494
969.185,0.057696,373162,326739
972.976,0.058185,382632,334654
976.763,0.058511,391202,341893
981.806,0.059272,400190,349136
985.583,0.059638,406088,353983
989.355,0.060836,410162,356549
993.124,0.061247,412868,358562
996.888,0.061923,414263,359214
1000.65,0.062968,415476,359400
1004.4,0.064375,415479,358240
1009.41,0.065723,414358,356166
1013.15,0.065870,412923,354813
1016.89,0.066332,411526,353236
1020.63,0.066069,409066,351337
1024.36,0.066577,406777,348963
1028.09,0.066038,404427,347378
1031.82,0.065994,401911,345252
1036.78,0.065757,398410,342431
1040.49,0.064537,396204,341493
1044.2,0.064528,394236,339804
1047.91,0.064271,392042,338113
1051.61,0.063156,389823,337063
1055.31,0.063288,388234,335587
1059,0.062034,387599,336007
1063.92,0.060788,386688,336181
1067.61,0.060084,386598,336648
1071.29,0.059592,387377,337708
1074.96,0.058597,388536,339496
1078.63,0.058595,389855,340650
1082.3,0.057778,391215,342482
1085.96,0.057157,393215,344725
1090.84,0.056325,396270,348070
1094.49,0.056299,398760,350278
1098.14,0.055801,400987,352638
1101.79,0.055626,403477,354971
1105.43,0.055977,406116,357004
1109.06,0.055399,407701,358875
1112.7,0.055473,409859,360713
1117.53,0.055122,412494,363325
1121.15,0.056311,414909,364453
1124.77,0.056984,416559,365336
1128.38,0.058559,418532,365738
1131.99,0.059751,419956,365976
1135.6,0.061664,421946,366094
1139.2,0.063721,423881,366035
1143.99,0.066290,426786,366370
1147.58,0.067220,428617,367155
1151.17,0.068619,431169,368153
1154.75,0.069909,433579,369113
1158.33,0.071512,436264,370030
1161.91,0.073861,439132,370454
1165.48,0.076480,442389,370958
1169.04,0.078428,446101,372396
1173.79,0.082081,451929,374101
1177.34,0.084845,456026,375098
1180.9,0.086887,461306,377661
1184.44,0.088398,467657,381531
1187.99,0.089279,473969,385897
1191.52,0.089894,479856,390137
1195.06,0.088991,487372,397072
1199.76,0.088406,497347,405745
1203.29,0.087085,504311,412680
1206.81,0.086633,511507,419004
1210.33,0.085051,519078,426758
1213.84,0.085160,527163,433296
1217.35,0.084283,534208,439974
1220.85,0.083598,540472,445836
1225.51,0.082116,549929,455188
1229.01,0.081801,556888,461282
1232.5,0.081190,562180,466321
1235.98,0.080755,567975,471600
1239.46,0.079157,574815,479039
1242.94,0.078290,582782,486649
1246.41,0.078247,591476,493958
1251.03,0.077955,604016,504770
1254.5,0.077694,612289,511991
1257.96,0.078198,619125,517107
1261.41,0.078540,624551,521228
1264.86,0.079678,629900,524317
1268.31,0.079846,634345,527812
1271.75,0.080334,638574,530735
1276.33,0.080199,642499,534163
1279.76,0.080536,645905,536578
1283.19,0.079567,648307,539776
1286.61,0.079487,650446,541657
1290.03,0.078970,652132,543708
1293.44,0.078498,653907,545780
1296.85,0.077981,655963,548149
1301.39,0.077943,657349,549355
1304.8,0.077855,657558,549641
1308.19,0.078216,658515,549984
1311.58,0.077819,658804,550728
1314.97,0.078554,659011,549970
1318.36,0.079454,658272,548216
1321.73,0.079171,658022,548364
1326.23,0.080589,657870,546451
1329.6,0.081494,656482,544163
1332.97,0.082880,654926,541143
1336.33,0.084045,653727,538705
1339.69,0.085634,652497,535728
1343.04,0.087723,649913,531046
1346.39,0.089663,647671,526856
1349.73,0.092455,645338,521593
1354.18,0.095482,641175,514629
1357.52,0.097573,638376,509922
1360.85,0.099886,635805,505171
1364.17,0.102132,633413,500674
1367.49,0.104643,631026,495912
1370.81,0.106868,628050,491051
1374.12,0.109552,625034,485682
1378.54,0.113569,620272,477544
1381.84,0.116805,616892,471416
1385.14,0.121429,613613,463944
1388.43,0.125969,611526,457558
1391.72,0.131144,610663,451500
1395.01,0.136543,610634,445901
1398.29,0.142804,611700,440286
1402.66,0.151292,614051,433423
1405.93,0.158040,616268,428282
1409.2,0.164203,617795,423293
1412.46,0.169747,618872,418653
1415.72,0.175587,619795,413677
1418.98,0.180421,620495,409560
1422.23,0.184802,621087,405836
1426.56,0.189806,621375,401373
1429.8,0.193425,621616,398196
1433.04,0.196679,622129,395550
1436.27,0.199518,621526,392592
1439.5,0.202010,621113,390086
1442.72,0.204591,620921,387655
1445.94,0.207646,620270,384534
1450.23,0.211167,618860,380562
1453.44,0.214048,617697,377335
1456.64,0.217001,616264,373909
1459.85,0.220229,614413,370025
1463.04,0.222746,612307,366626
1466.24,0.225615,610032,362859
1469.43,0.229720,607345,357862
1473.67,0.234525,603789,351852
1476.85,0.239207,601175,346572
1480.02,0.243397,597737,341282
1483.19,0.250417,594479,333979
1486.36,0.255283,591232,328454
1489.52,0.259323,587853,323553
1492.68,0.263037,583875,318627
1496.89,0.264263,578062,314566
1500.03,0.265096,574159,311843
1503.18,0.264363,570285,310262
1506.32,0.264814,565444,307309
1509.45,0.262901,560571,306006
1512.58,0.261794,555821,304187
1515.71,0.259699,550344,302646
1519.87,0.256114,543983,301628
1522.99,0.253986,538764,300201
1526.1,0.250907,533692,299491
1529.21,0.247992,527902,298237
1532.32,0.245511,521886,296527
1535.42,0.241775,515888,295652
1538.51,0.239445,509987,293842
1541.6,0.236449,503936,292366
1545.72,0.231793,494694,290097
1548.8,0.229067,488378,288197
1551.88,0.226017,481832,286338
1554.95,0.224279,474989,283403
1558.02,0.221612,467818,280844
1561.08,0.220634,460730,277212
1564.15,0.219764,454170,273813
1568.22,0.218889,444181,268331
1571.27,0.218466,436947,264218
1574.32,0.217018,429598,260642
1577.36,0.215609,422039,256888
1580.4,0.213765,414375,253296
1583.43,0.212193,406354,249294
1586.46,0.210470,398475,245432
1590.49,0.208840,388982,240486
1593.51,0.206386,380708,236704
1596.53,0.203962,372727,233039
1599.54,0.201992,365060,229283
1602.55,0.199812,357543,225692
1605.55,0.197162,349495,221962
1608.55,0.195326,341154,217583
1612.54,0.193019,330877,212152
1615.53,0.191415,322904,207806
1618.51,0.190506,315116,203219
1621.49,0.189473,307217,198597
1624.47,0.188375,299481,194086
1627.44,0.186597,292112,190087
1630.41,0.184984,284245,185656
1634.36,0.183272,274079,179723
1637.32,0.183292,266916,175018
1640.27,0.182127,259612,170686
1643.22,0.181536,251804,165778
1646.16,0.180164,244348,161378
1649.1,0.178312,236703,156997
1652.04,0.178467,228171,151284
1655.95,0.174230,215408,144222
1658.88,0.172750,204937,137680
1661.8,0.167318,193395,131561
1664.72,0.164012,179728,123198
1667.63,0.155298,163642,114445
1670.54,0.146363,146312,104452
1673.44,0.136984,128451,93703
1677.31,0.125429,105080,78721
1680.21,0.123206,88906,66946
1683.1,0.118746,75033,57083
1685.99,0.127031,63520,47411
1688.87,0.129572,53714,39858
1691.75,0.133634,45653,33561
1694.62,0.143804,39137,28105
1697.49,0.152013,33776,23801
1701.31,0.160654,28175,19463