File: samples/wool/wool-000811/Column 1_050612_20150331_122914.csv
Method:,Column 1,,
Host Date-Time:,31/3/15 @ 12:29:14,,
Header Version:,1,,
System Temp (C):,34.07,,
Detector Temp (C):,34.9,,
Humidity (%):,1.66,,
Lamp PD:,3818,,
Shift Vector Coefficients:,-10.5391,0.0761263,-0.000134223,,
Pixel to Wavelength Coefficients:,1775.68,-0.916766,-0.000235065,,
Serial Number:,5510004,,
Scan Config Name:,Column 1,,
Scan Config Type:,Slew,,
Section 1,,
Start wavelength (nm):,900,,
End wavelength (nm):,1700,,
Pattern Pixel Width (nm):,   7.03,,,,
Exposure (ms):,  0.635,,,,
Digital Resolution:,228,,
Num Repeats:,6,,
PGA Gain:,64,,
Total Measurement Time in sec:,  2.665,,
Wavelength (nm),Absorbance (AU),Reference Signal (unitless),Sample Signal (unitless)
901.51,0.068566,108485,92641
905.376,0.073523,121306,102414
909.237,0.075660,131909,110819
913.095,0.076505,143299,120154
916.948,0.078045,156982,131161
922.079,0.081020,179937,149314
925.923,0.080680,200504,166511
929.762,0.081669,222660,184490
933.597,0.081656,244426,202531
937.427,0.079813,263972,219657
941.254,0.079782,281845,234546
945.076,0.079120,297271,247761
950.165,0.078528,315605,263400
953.978,0.076643,328029,274960
957.786,0.077449,340470,284859
961.59,0.077658,352317,294629
965.389,0.077163,363056,303956
969.185,0.077455,373162,312207
972.976,0.078035,382632,319703
976.763,0.078003,391202,326887
981.806,0.078824,400190,333766
985.583,0.079864,406088,337875
989.355,0.079275,410162,341728
993.124,0.079828,412868,343545
996.888,0.080675,414263,344034
1000.65,0.081411,415476,344457
1004.4,0.082717,415479,343425
1009.41,0.083820,414358,341630
1013.15,0.084662,412923,339787
1016.89,0.084866,411526,338479
1020.63,0.084604,409066,336658
1024.36,0.084888,406777,334556
1028.09,0.084349,404427,333036
1031.82,0.084054,401911,331189
1036.78,0.084050,398410,328307
1040.49,0.083617,396204,326815
1044.2,0.083518,394236,325266
1047.91,0.083214,392042,323682
1051.61,0.083466,389823,321663
1055.31,0.083014,388234,320686
1059,0.082353,387599,320649
1063.92,0.081351,386688,320634
1067.61,0.080437,386598,321235
1071.29,0.079964,387377,322233
1074.96,0.079914,388536,323234
1078.63,0.079652,389855,324527
1082.3,0.078542,391215,326493
1085.96,0.077953,393215,328607
1090.84,0.076756,396270,332074
1094.49,0.076057,398760,334699
1098.14,0.075388,400987,337087
1101.79,0.075435,403477,339144
1105.43,0.075109,406116,341618
1109.06,0.073920,407701,343892
1112.7,0.073212,409859,346276
1117.53,0.073277,412494,348450
1121.15,0.073598,414909,350231
1124.77,0.073755,416559,351497
1128.38,0.074779,418532,352330
1131.99,0.076048,419956,352497
1135.6,0.077858,421946,352695
1139.2,0.077993,423881,354202
1143.99,0.080609,426786,354488
1147.58,0.081902,428617,354950
1151.17,0.082201,431169,356818
1154.75,0.082852,433579,358275
1158.33,0.085109,436264,358625
1161.91,0.086494,439132,359833
1165.48,0.088891,442389,360507
1169.04,0.091127,446101,361665
1173.79,0.094071,451929,363914
1177.34,0.096298,456026,365335
1180.9,0.098206,461306,367945
1184.44,0.099807,467657,371638
1187.99,0.101243,473969,375411
1191.52,0.100555,479856,380676
1195.06,0.100911,487372,386322
1199.76,0.100521,497347,394583
1203.29,0.099422,504311,401122
1206.81,0.099044,511507,407200
1210.33,0.098470,519078,413773
1213.84,0.097854,527163,420815
1217.35,0.097329,534208,426954
1220.85,0.096448,540472,432838
1225.51,0.095685,549929,441186
1229.01,0.095459,556888,447001
1232.5,0.094736,562180,452001
1235.98,0.094220,567975,457203
1239.46,0.093210,574815,463787
1242.94,0.092157,582782,471356
1246.41,0.091559,591476,479047
1251.03,0.091821,604016,488908
1254.5,0.092030,612289,495366
1257.96,0.092382,619125,500491
1261.41,0.092741,624551,504460
1264.86,0.093347,629900,508071
1268.31,0.093578,634345,511385
1271.75,0.094151,638574,514115
1276.33,0.094442,642499,516928
1279.76,0.094212,645905,519944
1283.19,0.093690,648307,522505
1286.61,0.093268,650446,524739
1290.03,0.093034,652132,526382
1293.44,0.092695,653907,528227
1296.85,0.092821,655963,529735
1301.39,0.092361,657349,531417
1304.8,0.091981,657558,532051
1308.19,0.092352,658515,532370
1311.58,0.092062,658804,532960
1314.97,0.092708,659011,532335
1318.36,0.093188,658272,531150
1321.73,0.093361,658022,530737
1326.23,0.094324,657870,529439
1329.6,0.094997,656482,527504
1332.97,0.095685,654926,525421
1336.33,0.096871,653727,523028
1339.69,0.098356,652497,520262
1343.04,0.099518,649913,516818
1346.39,0.101721,647671,512429
1349.73,0.103910,645338,508016
1354.18,0.106370,641175,501888
1357.52,0.108489,638376,497265
1360.85,0.109971,635805,493575
1364.17,0.112318,633413,489068
1367.49,0.114300,631026,485006
1370.81,0.116375,628050,480418
1374.12,0.118821,625034,475426
1378.54,0.121562,620272,468835
1381.84,0.124366,616892,463280
1385.14,0.127657,613613,457338
1388.43,0.131386,611526,451886
1391.72,0.135314,610663,447185
1395.01,0.139099,610634,443284
1398.29,0.143808,611700,439269
1402.66,0.149695,614051,435020
1405.93,0.154384,616268,431902
1409.2,0.159204,617795,428194
1412.46,0.163496,618872,424722
1415.72,0.167716,619795,421242
1418.98,0.170541,620495,418984
1422.23,0.174027,621087,416031
1426.56,0.177768,621375,412654
1429.8,0.179989,621616,410708
1433.04,0.182930,622129,408273
1436.27,0.184971,621526,405965
1439.5,0.187180,621113,403637
1442.72,0.189306,620921,401541
1445.94,0.192181,620270,398474
1450.23,0.195562,618860,394485
1453.44,0.197988,617697,391550
1456.64,0.201113,616264,387841
1459.85,0.203826,614413,384268
1463.04,0.206398,612307,380690
1466.24,0.210209,610032,375962
1469.43,0.213719,607345,371293
1473.67,0.220049,603789,363778
1476.85,0.226327,601175,357005
1480.02,0.232322,597737,350097
1483.19,0.238198,594479,343509
1486.36,0.243695,591232,337336
1489.52,0.249576,587853,330897
1492.68,0.252364,583875,326555
1496.89,0.254819,578062,321481
1500.03,0.255641,574159,318707
1503.18,0.254982,570285,317037
1506.32,0.254918,565444,314392
1509.45,0.253471,560571,312723
1512.58,0.251799,555821,311269
1515.71,0.249048,550344,310160
1519.87,0.246643,543983,308278
1522.99,0.243161,538764,307778
1526.1,0.241168,533692,306283
1529.21,0.238316,527902,304956
1532.32,0.235540,521886,303414
1535.42,0.233281,515888,301491
1538.51,0.229995,509987,300306
1541.6,0.227115,503936,298717
1545.72,0.222381,494694,296453
1548.8,0.220186,488378,294151
1551.88,0.217812,481832,291799
1554.95,0.215628,474989,289105
1558.02,0.214690,467818,285356
1561.08,0.212742,460730,282296
1564.15,0.212648,454170,278337
1568.22,0.211962,444181,272645
1571.27,0.210856,436947,268889
1574.32,0.209623,429598,265118
1577.36,0.209155,422039,260734
1580.4,0.207985,414375,256690
1583.43,0.206279,406354,252712
1586.46,0.205176,398475,248442
1590.49,0.203136,388982,243665
1593.51,0.201651,380708,239299
1596.53,0.198646,372727,235909
1599.54,0.196850,365060,232014
1602.55,0.194615,357543,228409
1605.55,0.192534,349495,224340
1608.55,0.190747,341154,219889
1612.54,0.189131,330877,214060
1615.53,0.187469,322904,209703
1618.51,0.187113,315116,204813
1621.49,0.185838,307217,200266
1624.47,0.185018,299481,195592
1627.44,0.183689,292112,191364
1630.41,0.182200,284245,186850
1634.36,0.180862,274079,180723
1637.32,0.181655,266916,175679
1640.27,0.180251,259612,171425
1643.22,0.178390,251804,166983
1646.16,0.178504,244348,161996
1649.1,0.177158,236703,157415
1652.04,0.175803,228171,152215
1655.95,0.172610,215408,144761
1658.88,0.169581,204937,138688
1661.8,0.163185,193395,132819
1664.72,0.155758,179728,125562
1667.63,0.143480,163642,117602
1670.54,0.128424,146312,108857
1673.44,0.114407,128451,98703
1677.31,0.090979,105080,85220
1680.21,0.081187,88906,73747
1683.1,0.075416,75033,63072
1685.99,0.072766,63520,53721
1688.87,0.077261,53714,44960
1691.75,0.082875,45653,37722
1694.62,0.088634,39137,31912
1697.49,0.095639,33776,27100
1701.31,0.098725,28175,22446