File: samples/wool/wool-000811/Column 1_050599_20150331_122307.csv
Method:,Column 1,,
Host Date-Time:,31/3/15 @ 12:23:7,,
Header Version:,1,,
System Temp (C):,34.04,,
Detector Temp (C):,34.72,,
Humidity (%):,1.76,,
Lamp PD:,3818,,
Shift Vector Coefficients:,-10.5391,0.0761263,-0.000134223,,
Pixel to Wavelength Coefficients:,1775.68,-0.916766,-0.000235065,,
Serial Number:,5510004,,
Scan Config Name:,Column 1,,
Scan Config Type:,Slew,,
Section 1,,
Start wavelength (nm):,900,,
End wavelength (nm):,1700,,
Pattern Pixel Width (nm):,   7.03,,,,
Exposure (ms):,  0.635,,,,
Digital Resolution:,228,,
Num Repeats:,6,,
PGA Gain:,64,,
Total Measurement Time in sec:,  2.724,,
Wavelength (nm),Absorbance (AU),Reference Signal (unitless),Sample Signal (unitless)
901.51,0.070224,108485,92288
905.376,0.076536,121306,101706
909.237,0.077793,131909,110276
913.095,0.079181,143299,119416
916.948,0.080083,156982,130547
922.079,0.081413,179937,149179
925.923,0.082350,200504,165872
929.762,0.083410,222660,183752
933.597,0.082714,244426,202038
937.427,0.081626,263972,218742
941.254,0.081603,281845,233565
945.076,0.079172,297271,247731
950.165,0.078733,315605,263276
953.978,0.078436,328029,273827
957.786,0.078233,340470,284345
961.59,0.078279,352317,294208
965.389,0.078624,363056,302935
969.185,0.078257,373162,311631
972.976,0.079247,382632,318812
976.763,0.079545,391202,325729
981.806,0.079752,400190,333054
985.583,0.080133,406088,337666
989.355,0.080681,410162,340623
993.124,0.081186,412868,342472
996.888,0.081749,414263,343184
1000.65,0.082555,415476,343551
1004.4,0.083779,415479,342586
1009.41,0.084866,414358,340808
1013.15,0.084944,412923,339567
1016.89,0.085630,411526,337884
1020.63,0.085988,409066,335587
1024.36,0.086356,406777,333427
1028.09,0.085314,404427,332297
1031.82,0.085178,401911,330333
1036.78,0.084757,398410,327773
1040.49,0.084186,396204,326387
1044.2,0.084609,394236,324450
1047.91,0.084453,392042,322760
1051.61,0.083981,389823,321282
1055.31,0.083390,388234,320408
1059,0.083253,387599,319985
1063.92,0.082644,386688,319681
1067.61,0.081730,386598,320280
1071.29,0.082010,387377,320718
1074.96,0.080744,388536,322617
1078.63,0.080528,389855,323873
1082.3,0.079843,391215,325516
1085.96,0.078833,393215,327942
1090.84,0.077664,396270,331381
1094.49,0.076957,398760,334006
1098.14,0.076891,400987,335923
1101.79,0.076098,403477,338626
1105.43,0.076205,406116,340757
1109.06,0.075097,407701,342961
1112.7,0.074893,409859,344938
1117.53,0.074638,412494,347360
1121.15,0.075068,414909,349048
1124.77,0.074801,416559,350651
1128.38,0.076079,418532,351277
1131.99,0.076715,419956,351956
1135.6,0.078328,421946,352313
1139.2,0.079813,423881,352721
1143.99,0.081735,426786,353570
1147.58,0.082138,428617,354757
1151.17,0.084299,431169,355098
1154.75,0.084792,433579,356678
1158.33,0.085920,436264,357956
1161.91,0.087790,439132,358761
1165.48,0.090173,442389,359444
1169.04,0.092181,446101,360788
1173.79,0.095213,451929,362959
1177.34,0.097573,456026,364264
1180.9,0.099702,461306,366680
1184.44,0.101119,467657,370517
1187.99,0.102227,473969,374561
1191.52,0.102338,479856,379117
1195.06,0.101907,487372,385437
1199.76,0.101720,497347,393495
1203.29,0.100825,504311,399828
1206.81,0.100158,511507,406157
1210.33,0.099803,519078,412505
1213.84,0.099319,527163,419398
1217.35,0.098684,534208,425624
1220.85,0.097928,540472,431365
1225.51,0.097133,549929,439717
1229.01,0.096801,556888,445622
1232.5,0.096575,562180,450091
1235.98,0.095202,567975,456170
1239.46,0.094705,574815,462193
1242.94,0.093496,582782,469905
1246.41,0.092920,591476,477548
1251.03,0.092836,604016,487767
1254.5,0.093296,612289,493924
1257.96,0.093354,619125,499372
1261.41,0.093912,624551,503102
1264.86,0.094701,629900,506490
1268.31,0.095094,634345,509602
1271.75,0.095919,638574,512026
1276.33,0.096105,642499,514953
1279.76,0.095535,645905,518363
1283.19,0.095036,648307,520889
1286.61,0.094621,650446,523107
1290.03,0.094490,652132,524621
1293.44,0.094137,653907,526477
1296.85,0.093765,655963,528585
1301.39,0.093439,657349,530099
1304.8,0.093495,657558,530199
1308.19,0.093816,658515,530578
1311.58,0.093754,658804,530887
1314.97,0.094170,659011,530545
1318.36,0.094486,658272,529565
1321.73,0.095286,658022,528390
1326.23,0.095762,657870,527689
1329.6,0.096665,656482,525482
1332.97,0.097588,654926,523123
1336.33,0.098515,653727,521052
1339.69,0.099760,652497,518583
1343.04,0.101508,649913,514455
1346.39,0.103708,647671,510090
1349.73,0.105595,645338,506049
1354.18,0.108400,641175,499547
1357.52,0.110404,638376,495077
1360.85,0.112281,635805,490956
1364.17,0.114424,633413,486702
1367.49,0.116664,631026,482373
1370.81,0.118649,628050,477909
1374.12,0.120929,625034,473124
1378.54,0.123816,620272,466408
1381.84,0.126934,616892,460548
1385.14,0.130014,613613,454863
1388.43,0.133901,611526,449277
1391.72,0.137921,610663,444509
1395.01,0.142420,610634,439907
1398.29,0.146488,611700,436567
1402.66,0.153890,614051,430838
1405.93,0.157927,616268,428393
1409.2,0.162900,617795,424565
1412.46,0.167603,618872,420725
1415.72,0.172714,619795,416422
1418.98,0.175399,620495,414323
1422.23,0.178922,621087,411368
1426.56,0.182590,621375,408097
1429.8,0.185251,621616,405762
1433.04,0.188021,622129,403515
1436.27,0.189939,621526,401347
1439.5,0.191831,621113,399337
1442.72,0.194404,620921,396855
1445.94,0.197198,620270,393897
1450.23,0.200614,618860,389923
1453.44,0.203282,617697,386806
1456.64,0.206064,616264,383445
1459.85,0.208696,614413,379983
1463.04,0.210889,612307,376773
1466.24,0.214615,610032,372167
1469.43,0.218078,607345,367585
1473.67,0.223687,603789,360743
1476.85,0.229760,601175,354194
1480.02,0.235128,597737,347842
1483.19,0.242229,594479,340336
1486.36,0.247542,591232,334361
1489.52,0.252134,587853,328954
1492.68,0.255421,583875,324264
1496.89,0.257663,578062,319383
1500.03,0.257926,574159,317034
1503.18,0.257886,570285,314924
1506.32,0.256954,565444,312922
1509.45,0.256197,560571,310766
1512.58,0.253702,555821,309908
1515.71,0.251820,550344,308187
1519.87,0.248797,543983,306753
1522.99,0.246861,538764,305167
1526.1,0.243692,533692,304508
1529.21,0.241082,527902,303020
1532.32,0.238799,521886,301146
1535.42,0.235524,515888,299938
1538.51,0.233082,509987,298179
1541.6,0.229378,503936,297165
1545.72,0.225480,494694,294345
1548.8,0.222557,488378,292549
1551.88,0.220826,481832,289781
1554.95,0.218354,474989,287296
1558.02,0.216577,467818,284119
1561.08,0.215803,460730,280313
1564.15,0.215545,454170,276486
1568.22,0.214093,444181,271311
1571.27,0.213209,436947,267436
1574.32,0.212938,429598,263102
1577.36,0.211796,422039,259153
1580.4,0.210074,414375,255458
1583.43,0.208557,406354,251390
1586.46,0.206970,398475,247418
1590.49,0.204613,388982,242838
1593.51,0.203368,380708,238355
1596.53,0.201518,372727,234354
1599.54,0.199456,365060,230626
1602.55,0.196981,357543,227168
1605.55,0.194926,349495,223108
1608.55,0.192485,341154,219011
1612.54,0.191777,330877,212760
1615.53,0.189127,322904,208904
1618.51,0.189256,315116,203805
1621.49,0.187348,307217,199571
1624.47,0.187151,299481,194634
1627.44,0.186218,292112,190253
1630.41,0.184589,284245,185825
1634.36,0.183345,274079,179693
1637.32,0.182523,266916,175328
1640.27,0.182203,259612,170656
1643.22,0.181630,251804,165742
1646.16,0.180100,244348,161402
1649.1,0.180206,236703,156314
1652.04,0.179419,228171,150953
1655.95,0.174550,215408,144116
1658.88,0.170472,204937,138404
1661.8,0.166540,193395,131797
1664.72,0.157400,179728,125088
1667.63,0.146705,163642,116732
1670.54,0.132299,146312,107890
1673.44,0.115442,128451,98468
1677.31,0.097453,105080,83959
1680.21,0.086394,88906,72868
1683.1,0.080750,75033,62302
1685.99,0.082718,63520,52504
1688.87,0.082812,53714,44389
1691.75,0.089230,45653,37174
1694.62,0.097404,39137,31274
1697.49,0.101463,33776,26739
1701.31,0.097218,28175,22524