File: samples/wool/wool-000811/Column 1_050562_20150331_120533.csv
Method:,Column 1,,
Host Date-Time:,31/3/15 @ 12:5:33,,
Header Version:,1,,
System Temp (C):,33.78,,
Detector Temp (C):,33.38,,
Humidity (%):,2.05,,
Lamp PD:,3819,,
Shift Vector Coefficients:,-10.5391,0.0761263,-0.000134223,,
Pixel to Wavelength Coefficients:,1775.68,-0.916766,-0.000235065,,
Serial Number:,5510004,,
Scan Config Name:,Column 1,,
Scan Config Type:,Slew,,
Section 1,,
Start wavelength (nm):,900,,
End wavelength (nm):,1700,,
Pattern Pixel Width (nm):,   7.03,,,,
Exposure (ms):,  0.635,,,,
Digital Resolution:,228,,
Num Repeats:,6,,
PGA Gain:,64,,
Total Measurement Time in sec:,  2.667,,
Wavelength (nm),Absorbance (AU),Reference Signal (unitless),Sample Signal (unitless)
901.51,0.035161,108485,100048
905.376,0.040292,121306,110558
909.237,0.042227,131909,119687
913.095,0.043330,143299,129692
916.948,0.044238,156982,141779
922.079,0.045340,179937,162099
925.923,0.047560,200504,179706
929.762,0.047001,222660,199821
933.597,0.047838,244426,218932
937.427,0.047079,263972,236853
941.254,0.047421,281845,252691
945.076,0.046340,297271,267185
950.165,0.046105,315605,283817
953.978,0.045892,328029,295135
957.786,0.045735,340470,306439
961.59,0.046475,352317,316562
965.389,0.047037,363056,325789
969.185,0.046962,373162,334916
972.976,0.046584,382632,343714
976.763,0.047677,391202,350529
981.806,0.048346,400190,358031
985.583,0.048905,406088,362840
989.355,0.049351,410162,366104
993.124,0.049681,412868,368239
996.888,0.050403,414263,368870
1000.65,0.050873,415476,369550
1004.4,0.053054,415479,367701
1009.41,0.054057,414358,365863
1013.15,0.054336,412923,364362
1016.89,0.054718,411526,362810
1020.63,0.054824,409066,360553
1024.36,0.054620,406777,358704
1028.09,0.053929,404427,357200
1031.82,0.054200,401911,354756
1036.78,0.053689,398410,352080
1040.49,0.053750,396204,350081
1044.2,0.052849,394236,349066
1047.91,0.052552,392042,347361
1051.61,0.052413,389823,345505
1055.31,0.051481,388234,344836
1059,0.050815,387599,344800
1063.92,0.049895,386688,344719
1067.61,0.049057,386598,345305
1071.29,0.049308,387377,345801
1074.96,0.048425,388536,347541
1078.63,0.047411,389855,349536
1082.3,0.047659,391215,350555
1085.96,0.046532,393215,353263
1090.84,0.045589,396270,356781
1094.49,0.045164,398760,359375
1098.14,0.044539,400987,361902
1101.79,0.044431,403477,364240
1105.43,0.044295,406116,366737
1109.06,0.043967,407701,368447
1112.7,0.043908,409859,370447
1117.53,0.043778,412494,372941
1121.15,0.044818,414909,374227
1124.77,0.045357,416559,375249
1128.38,0.046656,418532,375900
1131.99,0.048163,419956,375873
1135.6,0.049791,421946,376241
1139.2,0.051694,423881,376314
1143.99,0.053819,426786,377043
1147.58,0.055357,428617,377322
1151.17,0.056483,431169,378586
1154.75,0.057871,433579,379487
1158.33,0.059621,436264,380302
1161.91,0.061589,439132,381071
1165.48,0.064058,442389,381721
1169.04,0.066351,446101,382897
1173.79,0.070965,451929,383800
1177.34,0.072549,456026,385870
1180.9,0.075037,461306,388108
1184.44,0.077107,467657,391580
1187.99,0.077740,473969,396287
1191.52,0.077368,479856,401553
1195.06,0.077145,487372,408052
1199.76,0.075869,497347,417629
1203.29,0.075219,504311,424111
1206.81,0.074590,511507,430786
1210.33,0.073439,519078,438322
1213.84,0.073049,527163,445549
1217.35,0.072422,534208,452156
1220.85,0.070936,540472,459026
1225.51,0.070543,549929,467481
1229.01,0.069810,556888,474196
1232.5,0.069155,562180,479425
1235.98,0.068634,567975,484948
1239.46,0.067218,574815,492391
1242.94,0.066345,582782,500220
1246.41,0.065453,591476,508726
1251.03,0.065841,604016,519048
1254.5,0.065928,612289,526052
1257.96,0.066220,619125,531568
1261.41,0.066362,624551,536051
1264.86,0.067481,629900,539251
1268.31,0.067974,634345,542440
1271.75,0.068636,638574,545224
1276.33,0.069130,642499,547952
1279.76,0.069123,645905,550865
1283.19,0.068772,648307,553361
1286.61,0.068203,650446,555915
1290.03,0.067993,652132,557625
1293.44,0.067240,653907,560114
1296.85,0.067118,655963,562033
1301.39,0.067008,657349,563363
1304.8,0.067073,657558,563458
1308.19,0.067629,658515,563555
1311.58,0.067424,658804,564069
1314.97,0.068157,659011,563295
1318.36,0.068490,658272,562232
1321.73,0.068943,658022,561432
1326.23,0.069968,657870,559980
1329.6,0.071090,656482,557356
1332.97,0.071676,654926,555285
1336.33,0.072806,653727,552828
1339.69,0.074834,652497,549218
1343.04,0.076298,649913,545202
1346.39,0.078740,647671,540275
1349.73,0.080649,645338,535967
1354.18,0.084248,641175,528115
1357.52,0.086085,638376,523590
1360.85,0.088700,635805,518351
1364.17,0.090836,633413,513867
1367.49,0.093107,631026,509261
1370.81,0.095859,628050,503657
1374.12,0.098362,625034,498358
1378.54,0.101753,620272,490715
1381.84,0.104834,616892,484591
1385.14,0.108904,613613,477519
1388.43,0.113388,611526,471007
1391.72,0.118575,610663,464758
1395.01,0.123550,610634,459442
1398.29,0.128668,611700,454852
1402.66,0.136096,614051,448857
1405.93,0.141950,616268,444447
1409.2,0.147549,617795,439841
1412.46,0.153166,618872,434945
1415.72,0.157571,619795,431198
1418.98,0.161663,620495,427637
1422.23,0.165801,621087,423986
1426.56,0.169483,621375,420601
1429.8,0.172870,621616,417496
1433.04,0.175410,622129,415404
1436.27,0.177730,621526,412790
1439.5,0.179834,621113,410522
1442.72,0.182655,620921,407738
1445.94,0.185029,620270,405090
1450.23,0.188588,618860,400871
1453.44,0.191714,617697,397248
1456.64,0.194599,616264,393702
1459.85,0.197463,614413,389940
1463.04,0.199867,612307,386458
1466.24,0.203835,610032,381520
1469.43,0.206974,607345,377104
1473.67,0.213538,603789,369273
1476.85,0.218755,601175,363284
1480.02,0.224772,597737,356236
1483.19,0.231231,594479,349064
1486.36,0.237275,591232,342360
1489.52,0.242140,587853,336611
1492.68,0.245652,583875,331641
1496.89,0.248163,578062,326446
1500.03,0.249111,574159,323535
1503.18,0.248923,570285,321491
1506.32,0.248436,565444,319120
1509.45,0.247226,560571,317252
1512.58,0.245677,555821,315688
1515.71,0.242903,550344,314580
1519.87,0.240373,543983,312761
1522.99,0.236504,538764,312532
1526.1,0.234495,533692,311025
1529.21,0.231243,527902,309963
1532.32,0.228426,521886,308425
1535.42,0.225457,515888,306972
1538.51,0.221273,509987,306398
1541.6,0.219139,503936,304254
1545.72,0.214534,494694,301858
1548.8,0.211353,488378,300195
1551.88,0.208430,481832,298171
1554.95,0.206683,474989,295121
1558.02,0.204853,467818,291893
1561.08,0.203158,460730,288595
1564.15,0.202929,454170,284636
1568.22,0.201883,444181,279047
1571.27,0.200927,436947,275107
1574.32,0.199264,429598,271518
1577.36,0.199178,422039,266793
1580.4,0.196437,414375,263607
1583.43,0.195412,406354,259115
1586.46,0.194190,398475,254807
1590.49,0.190325,388982,250960
1593.51,0.189119,380708,246305
1596.53,0.186882,372727,242387
1599.54,0.183679,365060,239158
1602.55,0.182207,357543,235029
1605.55,0.180318,349495,230740
1608.55,0.177854,341154,226515
1612.54,0.175941,330877,220661
1615.53,0.173650,322904,216483
1618.51,0.172090,315116,212022
1621.49,0.171540,307217,206969
1624.47,0.170296,299481,202336
1627.44,0.168970,292112,197961
1630.41,0.168120,284245,193007
1634.36,0.165962,274079,187031
1637.32,0.164841,266916,182614
1640.27,0.164178,259612,177888
1643.22,0.163087,251804,172972
1646.16,0.162707,244348,167997
1649.1,0.161085,236703,163350
1652.04,0.160597,228171,157639
1655.95,0.158737,215408,149460
1658.88,0.154294,204937,143657
1661.8,0.149753,193395,136991
1664.72,0.145105,179728,128680
1667.63,0.134587,163642,120035
1670.54,0.125208,146312,109666
1673.44,0.112103,128451,99228
1677.31,0.097205,105080,84007
1680.21,0.089799,88906,72299
1683.1,0.090300,75033,60947
1685.99,0.094974,63520,51043
1688.87,0.093901,53714,43270
1691.75,0.096867,45653,36526
1694.62,0.105746,39137,30679
1697.49,0.107828,33776,26350
1701.31,0.121158,28175,21316