File: samples/wool/wool-000811/Column 1_050597_20150331_122218.csv
Method:,Column 1,,
Host Date-Time:,31/3/15 @ 12:22:18,,
Header Version:,1,,
System Temp (C):,33.95,,
Detector Temp (C):,34.72,,
Humidity (%):,1.76,,
Lamp PD:,3818,,
Shift Vector Coefficients:,-10.5391,0.0761263,-0.000134223,,
Pixel to Wavelength Coefficients:,1775.68,-0.916766,-0.000235065,,
Serial Number:,5510004,,
Scan Config Name:,Column 1,,
Scan Config Type:,Slew,,
Section 1,,
Start wavelength (nm):,900,,
End wavelength (nm):,1700,,
Pattern Pixel Width (nm):,   7.03,,,,
Exposure (ms):,  0.635,,,,
Digital Resolution:,228,,
Num Repeats:,6,,
PGA Gain:,64,,
Total Measurement Time in sec:,  2.675,,
Wavelength (nm),Absorbance (AU),Reference Signal (unitless),Sample Signal (unitless)
901.51,0.069561,108485,92429
905.376,0.075005,121306,102065
909.237,0.076099,131909,110707
913.095,0.077359,143299,119918
916.948,0.080189,156982,130515
922.079,0.081387,179937,149188
925.923,0.081516,200504,166191
929.762,0.082437,222660,184164
933.597,0.083465,244426,201689
937.427,0.081941,263972,218583
941.254,0.080752,281845,234023
945.076,0.079997,297271,247261
950.165,0.078969,315605,263133
953.978,0.078200,328029,273976
957.786,0.078059,340470,284459
961.59,0.078738,352317,293897
965.389,0.078477,363056,303038
969.185,0.078421,373162,311513
972.976,0.078275,382632,319526
976.763,0.079265,391202,325939
981.806,0.079930,400190,332917
985.583,0.080572,406088,337325
989.355,0.081314,410162,340127
993.124,0.081061,412868,342571
996.888,0.081987,414263,342996
1000.65,0.082627,415476,343494
1004.4,0.083683,415479,342662
1009.41,0.085104,414358,340621
1013.15,0.085262,412923,339318
1016.89,0.085940,411526,337643
1020.63,0.085289,409066,336128
1024.36,0.086518,406777,333302
1028.09,0.085870,404427,331872
1031.82,0.085211,401911,330308
1036.78,0.085244,398410,327406
1040.49,0.084868,396204,325875
1044.2,0.084848,394236,324271
1047.91,0.084555,392042,322684
1051.61,0.084132,389823,321170
1055.31,0.083438,388234,320373
1059,0.083625,387599,319711
1063.92,0.082693,386688,319645
1067.61,0.082076,386598,320025
1071.29,0.081507,387377,321090
1074.96,0.080721,388536,322634
1078.63,0.079751,389855,324453
1082.3,0.079750,391215,325586
1085.96,0.078503,393215,328191
1090.84,0.078141,396270,331017
1094.49,0.077290,398760,333750
1098.14,0.076546,400987,336190
1101.79,0.075919,403477,338766
1105.43,0.075884,406116,341009
1109.06,0.074720,407701,343259
1112.7,0.074841,409859,344980
1117.53,0.074628,412494,347368
1121.15,0.075731,414909,348515
1124.77,0.075545,416559,350051
1128.38,0.076115,418532,351248
1131.99,0.077187,419956,351574
1135.6,0.078598,421946,352094
1139.2,0.079802,423881,352730
1143.99,0.082840,426786,352671
1147.58,0.082429,428617,354520
1151.17,0.083950,431169,355384
1154.75,0.085025,433579,356487
1158.33,0.085853,436264,358011
1161.91,0.088079,439132,358522
1165.48,0.089345,442389,360130
1169.04,0.092322,446101,360671
1173.79,0.094961,451929,363169
1177.34,0.097552,456026,364282
1180.9,0.099917,461306,366498
1184.44,0.101266,467657,370392
1187.99,0.102191,473969,374592
1191.52,0.101977,479856,379432
1195.06,0.102638,487372,384789
1199.76,0.101650,497347,393559
1203.29,0.101415,504311,399285
1206.81,0.100472,511507,405863
1210.33,0.099836,519078,412474
1213.84,0.099417,527163,419303
1217.35,0.098949,534208,425365
1220.85,0.098279,540472,431017
1225.51,0.096984,549929,439868
1229.01,0.096865,556888,445557
1232.5,0.096269,562180,450408
1235.98,0.095792,567975,455551
1239.46,0.094529,574815,462380
1242.94,0.093436,582782,469970
1246.41,0.093220,591476,477218
1251.03,0.092914,604016,487679
1254.5,0.093128,612289,494116
1257.96,0.093692,619125,498984
1261.41,0.093990,624551,503011
1264.86,0.094823,629900,506347
1268.31,0.095160,634345,509525
1271.75,0.095974,638574,511962
1276.33,0.095919,642499,515174
1279.76,0.096051,645905,517747
1283.19,0.095116,648307,520792
1286.61,0.095129,650446,522495
1290.03,0.094901,652132,524124
1293.44,0.094161,653907,526447
1296.85,0.093438,655963,528982
1301.39,0.093458,657349,530076
1304.8,0.093675,657558,529980
1308.19,0.093882,658515,530498
1311.58,0.094088,658804,530479
1314.97,0.094598,659011,530023
1318.36,0.095248,658272,528637
1321.73,0.095162,658022,528541
1326.23,0.096091,657870,527289
1329.6,0.096920,656482,525173
1332.97,0.097569,654926,523146
1336.33,0.098751,653727,520769
1339.69,0.100380,652497,517843
1343.04,0.101746,649913,514173
1346.39,0.103604,647671,510212
1349.73,0.105711,645338,505913
1354.18,0.108632,641175,499280
1357.52,0.110483,638376,494987
1360.85,0.112921,635805,490234
1364.17,0.114516,633413,486599
1367.49,0.116508,631026,482547
1370.81,0.119249,628050,477249
1374.12,0.121338,625034,472678
1378.54,0.124150,620272,466050
1381.84,0.126786,616892,460705
1385.14,0.130500,613613,454354
1388.43,0.134234,611526,448932
1391.72,0.138377,610663,444043
1395.01,0.142814,610634,439508
1398.29,0.146999,611700,436053
1402.66,0.153985,614051,430744
1405.93,0.158873,616268,427461
1409.2,0.163988,617795,423503
1412.46,0.168329,618872,420022
1415.72,0.172449,619795,416677
1418.98,0.176273,620495,413490
1422.23,0.179288,621087,411021
1426.56,0.183436,621375,407303
1429.8,0.186628,621616,404477
1433.04,0.188588,622129,402988
1436.27,0.190889,621526,400470
1439.5,0.193305,621113,397984
1442.72,0.195237,620921,396095
1445.94,0.197745,620270,393401
1450.23,0.200897,618860,389669
1453.44,0.204097,617697,386081
1456.64,0.206230,616264,383298
1459.85,0.209363,614413,379400
1463.04,0.212321,612307,375533
1466.24,0.215258,610032,371616
1469.43,0.218857,607345,366926
1473.67,0.225155,603789,359526
1476.85,0.230212,601175,353825
1480.02,0.236102,597737,347063
1483.19,0.241930,594479,340570
1486.36,0.247611,591232,334308
1489.52,0.252620,587853,328586
1492.68,0.255052,583875,324540
1496.89,0.257756,578062,319314
1500.03,0.258141,574159,316877
1503.18,0.258848,570285,314227
1506.32,0.257759,565444,312342
1509.45,0.256273,560571,310712
1512.58,0.254503,555821,309337
1515.71,0.252456,550344,307736
1519.87,0.249026,543983,306591
1522.99,0.246512,538764,305412
1526.1,0.243596,533692,304575
1529.21,0.241920,527902,302436
1532.32,0.238393,521886,301427
1535.42,0.235756,515888,299778
1538.51,0.233407,509987,297956
1541.6,0.230238,503936,296577
1545.72,0.225898,494694,294062
1548.8,0.223586,488378,291857
1551.88,0.220486,481832,290008
1554.95,0.219591,474989,286479
1558.02,0.217164,467818,283735
1561.08,0.215555,460730,280473
1564.15,0.214292,454170,277285
1568.22,0.215406,444181,270492
1571.27,0.214083,436947,266898
1574.32,0.213764,429598,262602
1577.36,0.211190,422039,259515
1580.4,0.209894,414375,255564
1583.43,0.208401,406354,251480
1586.46,0.207583,398475,247069
1590.49,0.205549,388982,242315
1593.51,0.203889,380708,238069
1596.53,0.201810,372727,234197
1599.54,0.200034,365060,230319
1602.55,0.197704,357543,226790
1605.55,0.195890,349495,222613
1608.55,0.193847,341154,218325
1612.54,0.191428,330877,212931
1615.53,0.189824,322904,208569
1618.51,0.189614,315116,203637
1621.49,0.188808,307217,198901
1624.47,0.187166,299481,194627
1627.44,0.185518,292112,190560
1630.41,0.184460,284245,185880
1634.36,0.184143,274079,179363
1637.32,0.182858,266916,175193
1640.27,0.182679,259612,170469
1643.22,0.181926,251804,165629
1646.16,0.180954,244348,161085
1649.1,0.180428,236703,156234
1652.04,0.177802,228171,151516
1655.95,0.174586,215408,144104
1658.88,0.171181,204937,138178
1661.8,0.166072,193395,131939
1664.72,0.158659,179728,124726
1667.63,0.145895,163642,116950
1670.54,0.130892,146312,108240
1673.44,0.117210,128451,98068
1677.31,0.095492,105080,84339
1680.21,0.085014,88906,73100
1683.1,0.081581,75033,62183
1685.99,0.079127,63520,52940
1688.87,0.083096,53714,44360
1691.75,0.087260,45653,37343
1694.62,0.090953,39137,31742
1697.49,0.094455,33776,27174
1701.31,0.111069,28175,21817