File: samples/wool/wool-000811/Column 1_050579_20150331_121326.csv
Method:,Column 1,,
Host Date-Time:,31/3/15 @ 12:13:26,,
Header Version:,1,,
System Temp (C):,33.79,,
Detector Temp (C):,34.64,,
Humidity (%):,2.05,,
Lamp PD:,3819,,
Shift Vector Coefficients:,-10.5391,0.0761263,-0.000134223,,
Pixel to Wavelength Coefficients:,1775.68,-0.916766,-0.000235065,,
Serial Number:,5510004,,
Scan Config Name:,Column 1,,
Scan Config Type:,Slew,,
Section 1,,
Start wavelength (nm):,900,,
End wavelength (nm):,1700,,
Pattern Pixel Width (nm):,   7.03,,,,
Exposure (ms):,  0.635,,,,
Digital Resolution:,228,,
Num Repeats:,6,,
PGA Gain:,64,,
Total Measurement Time in sec:,  2.730,,
Wavelength (nm),Absorbance (AU),Reference Signal (unitless),Sample Signal (unitless)
901.51,0.071657,108485,91984
905.376,0.076356,121306,101748
909.237,0.080171,131909,109674
913.095,0.081910,143299,118668
916.948,0.082013,156982,129968
922.079,0.083584,179937,148435
925.923,0.084053,200504,165223
929.762,0.084937,222660,183107
933.597,0.084742,244426,201097
937.427,0.083807,263972,217646
941.254,0.083711,281845,232434
945.076,0.081535,297271,246387
950.165,0.082297,315605,261124
953.978,0.080256,328029,272682
957.786,0.081663,340470,282108
961.59,0.080878,352317,292453
965.389,0.081528,363056,300916
969.185,0.081348,373162,309421
972.976,0.081845,382632,316910
976.763,0.082025,391202,323874
981.806,0.082697,400190,330803
985.583,0.083652,406088,334941
989.355,0.083712,410162,338254
993.124,0.083931,412868,340314
996.888,0.084593,414263,340944
1000.65,0.085316,415476,341374
1004.4,0.085662,415479,341104
1009.41,0.087785,414358,338525
1013.15,0.087971,412923,337208
1016.89,0.088769,411526,335450
1020.63,0.088249,409066,333845
1024.36,0.088779,406777,331572
1028.09,0.087813,404427,330390
1031.82,0.088336,401911,327940
1036.78,0.087979,398410,325350
1040.49,0.087371,396204,324002
1044.2,0.088363,394236,321657
1047.91,0.086813,392042,321011
1051.61,0.087081,389823,318997
1055.31,0.086875,388234,317847
1059,0.086042,387599,317937
1063.92,0.085643,386688,317481
1067.61,0.084532,386598,318220
1071.29,0.084300,387377,319032
1074.96,0.083602,388536,320501
1078.63,0.082965,389855,322061
1082.3,0.082427,391215,323585
1085.96,0.082126,393215,325465
1090.84,0.081007,396270,328840
1094.49,0.080253,398760,331481
1098.14,0.080261,400987,333326
1101.79,0.079098,403477,336295
1105.43,0.078907,406116,338644
1109.06,0.078155,407701,340555
1112.7,0.078420,409859,342148
1117.53,0.077813,412494,344830
1121.15,0.078406,414909,346375
1124.77,0.078196,416559,347921
1128.38,0.079724,418532,348341
1131.99,0.080563,419956,348852
1135.6,0.081940,421946,349395
1139.2,0.083346,423881,349863
1143.99,0.085670,426786,350381
1147.58,0.086276,428617,351393
1151.17,0.086981,431169,352912
1154.75,0.088622,433579,353546
1158.33,0.089872,436264,354713
1161.91,0.092037,439132,355270
1165.48,0.093736,442389,356507
1169.04,0.095810,446101,357786
1173.79,0.099791,451929,359153
1177.34,0.101494,456026,360990
1180.9,0.103005,461306,363902
1184.44,0.104990,467657,367229
1187.99,0.106251,473969,371107
1191.52,0.105645,479856,376241
1195.06,0.106192,487372,381653
1199.76,0.105582,497347,390012
1203.29,0.104665,504311,396309
1206.81,0.104107,511507,402480
1210.33,0.103347,519078,409153
1213.84,0.103200,527163,415666
1217.35,0.102380,534208,422017
1220.85,0.102164,540472,427178
1225.51,0.101112,549929,435707
1229.01,0.100295,556888,442051
1232.5,0.099444,562180,447128
1235.98,0.099467,567975,451713
1239.46,0.098024,574815,458674
1242.94,0.097742,582782,465333
1246.41,0.097129,591476,472942
1251.03,0.096693,604016,483454
1254.5,0.096578,612289,490206
1257.96,0.097340,619125,494810
1261.41,0.097544,624551,498912
1264.86,0.098115,629900,502524
1268.31,0.098508,634345,505612
1271.75,0.099397,638574,507942
1276.33,0.099492,642499,510953
1279.76,0.099632,645905,513496
1283.19,0.098882,648307,516296
1286.61,0.099203,650446,517617
1290.03,0.098093,652132,520286
1293.44,0.097930,653907,521899
1296.85,0.097638,655963,523891
1301.39,0.097467,657349,525205
1304.8,0.097838,657558,524923
1308.19,0.097786,658515,525750
1311.58,0.098179,658804,525505
1314.97,0.098508,659011,525272
1318.36,0.099160,658272,523896
1321.73,0.099136,658022,523726
1326.23,0.100783,657870,521624
1329.6,0.101240,656482,519975
1332.97,0.102603,654926,517117
1336.33,0.103557,653727,515038
1339.69,0.105249,652497,512070
1343.04,0.107186,649913,507773
1346.39,0.109282,647671,503585
1349.73,0.110769,645338,500056
1354.18,0.114284,641175,492825
1357.52,0.115983,638376,488758
1360.85,0.118036,635805,484493
1364.17,0.120145,633413,480332
1367.49,0.122400,631026,476044
1370.81,0.124490,628050,471524
1374.12,0.126938,625034,466622
1378.54,0.129811,620272,460014
1381.84,0.133282,616892,453865
1385.14,0.136979,613613,447626
1388.43,0.141597,611526,441385
1391.72,0.146800,610663,435513
1395.01,0.151962,610634,430347
1398.29,0.156642,611700,426478
1402.66,0.164941,614051,420014
1405.93,0.170493,616268,416176
1409.2,0.176040,617795,411912
1412.46,0.181456,618872,407516
1415.72,0.186393,619795,403511
1418.98,0.190871,620495,399823
1422.23,0.195100,621087,396326
1426.56,0.198338,621375,393564
1429.8,0.201415,621616,390937
1433.04,0.204210,622129,388750
1436.27,0.206376,621526,386441
1439.5,0.208756,621113,384074
1442.72,0.211527,620921,381513
1445.94,0.213209,620270,379640
1450.23,0.216149,618860,376221
1453.44,0.218688,617697,373325
1456.64,0.221919,616264,369699
1459.85,0.224513,614413,366393
1463.04,0.227006,612307,363047
1466.24,0.229987,610032,359224
1469.43,0.232519,607345,355563
1473.67,0.237843,603789,349174
1476.85,0.242653,601175,343833
1480.02,0.247462,597737,338102
1483.19,0.252636,594479,332277
1486.36,0.257259,591232,326963
1489.52,0.261314,587853,322073
1492.68,0.263666,583875,318166
1496.89,0.266229,578062,313145
1500.03,0.266370,574159,310930
1503.18,0.266460,570285,308768
1506.32,0.265275,565444,306983
1509.45,0.263604,560571,305511
1512.58,0.262945,555821,303382
1515.71,0.260446,550344,302126
1519.87,0.257573,543983,300616
1522.99,0.255158,538764,299392
1526.1,0.252693,533692,298262
1529.21,0.250233,527902,296702
1532.32,0.247136,521886,295420
1535.42,0.245292,515888,293267
1538.51,0.242141,509987,292024
1541.6,0.239178,503936,290534
1545.72,0.234896,494694,288032
1548.8,0.232673,488378,285814
1551.88,0.229317,481832,284170
1554.95,0.227130,474989,281549
1558.02,0.226307,467818,277824
1561.08,0.225294,460730,274254
1564.15,0.223898,454170,271219
1568.22,0.222879,444181,265877
1571.27,0.222554,436947,261743
1574.32,0.221190,429598,258150
1577.36,0.220574,422039,253968
1580.4,0.218797,414375,250378
1583.43,0.217437,406354,246302
1586.46,0.215473,398475,242621
1590.49,0.213261,388982,238050
1593.51,0.211616,380708,233871
1596.53,0.209308,372727,230188
1599.54,0.207826,365060,226224
1602.55,0.205581,357543,222714
1605.55,0.204145,349495,218422
1608.55,0.202338,341154,214098
1612.54,0.199624,330877,208950
1615.53,0.198083,322904,204640
1618.51,0.196640,315116,200369
1621.49,0.195424,307217,195894
1624.47,0.194198,299481,191501
1627.44,0.193021,292112,187296
1630.41,0.192768,284245,182358
1634.36,0.191166,274079,176486
1637.32,0.191127,266916,171889
1640.27,0.190696,259612,167351
1643.22,0.188614,251804,163098
1646.16,0.188473,244348,158320
1649.1,0.188373,236703,153402
1652.04,0.185480,228171,148861
1655.95,0.181543,215408,141814
1658.88,0.178679,204937,135813
1661.8,0.173147,193395,129807
1664.72,0.166618,179728,122461
1667.63,0.152627,163642,115151
1670.54,0.140835,146312,105790
1673.44,0.125793,128451,96149
1677.31,0.105224,105080,82470
1680.21,0.093872,88906,71624
1683.1,0.090942,75033,60857
1685.99,0.093819,63520,51179
1688.87,0.093630,53714,43297
1691.75,0.098619,45653,36379
1694.62,0.102981,39137,30875
1697.49,0.105428,33776,26496
1701.31,0.125499,28175,21104