File: samples/wool/wool-000811/Column 1_050624_20150331_123508.csv
Method:,Column 1,,
Host Date-Time:,31/3/15 @ 12:35:8,,
Header Version:,1,,
System Temp (C):,34.13,,
Detector Temp (C):,35.09,,
Humidity (%):,1.56,,
Lamp PD:,3818,,
Shift Vector Coefficients:,-10.5391,0.0761263,-0.000134223,,
Pixel to Wavelength Coefficients:,1775.68,-0.916766,-0.000235065,,
Serial Number:,5510004,,
Scan Config Name:,Column 1,,
Scan Config Type:,Slew,,
Section 1,,
Start wavelength (nm):,900,,
End wavelength (nm):,1700,,
Pattern Pixel Width (nm):,   7.03,,,,
Exposure (ms):,  0.635,,,,
Digital Resolution:,228,,
Num Repeats:,6,,
PGA Gain:,64,,
Total Measurement Time in sec:,  2.723,,
Wavelength (nm),Absorbance (AU),Reference Signal (unitless),Sample Signal (unitless)
901.51,0.069073,108485,92533
905.376,0.076365,121306,101746
909.237,0.077573,131909,110332
913.095,0.078200,143299,119686
916.948,0.078857,156982,130916
922.079,0.081751,179937,149063
925.923,0.082240,200504,165914
929.762,0.083914,222660,183539
933.597,0.082512,244426,202132
937.427,0.080894,263972,219111
941.254,0.079627,281845,234630
945.076,0.079269,297271,247676
950.165,0.078916,315605,263165
953.978,0.077223,328029,274593
957.786,0.077615,340470,284750
961.59,0.077664,352317,294625
965.389,0.077703,363056,303578
969.185,0.077473,373162,312194
972.976,0.078018,382632,319715
976.763,0.078039,391202,326860
981.806,0.078395,400190,334096
985.583,0.078974,406088,338568
989.355,0.080165,410162,341028
993.124,0.080083,412868,343343
996.888,0.080518,414263,344158
1000.65,0.080985,415476,344795
1004.4,0.082042,415479,343959
1009.41,0.084466,414358,341122
1013.15,0.084104,412923,340224
1016.89,0.084777,411526,338548
1020.63,0.085123,409066,336256
1024.36,0.084786,406777,334634
1028.09,0.084682,404427,332781
1031.82,0.084824,401911,330602
1036.78,0.084561,398410,327921
1040.49,0.084089,396204,326460
1044.2,0.084041,394236,324874
1047.91,0.083480,392042,323484
1051.61,0.083685,389823,321501
1055.31,0.082475,388234,321084
1059,0.082143,387599,320804
1063.92,0.081569,386688,320473
1067.61,0.080981,386598,320833
1071.29,0.080432,387377,321886
1074.96,0.079903,388536,323242
1078.63,0.079385,389855,324727
1082.3,0.078567,391215,326474
1085.96,0.077377,393215,329043
1090.84,0.076466,396270,332296
1094.49,0.076457,398760,334391
1098.14,0.075932,400987,336665
1101.79,0.075810,403477,338851
1105.43,0.074882,406116,341797
1109.06,0.073660,407701,344098
1112.7,0.073786,409859,345819
1117.53,0.072930,412494,348729
1121.15,0.072990,414909,350722
1124.77,0.073764,416559,351490
1128.38,0.074597,418532,352478
1131.99,0.075679,419956,352797
1135.6,0.077261,421946,353180
1139.2,0.078125,423881,354094
1143.99,0.080487,426786,354587
1147.58,0.081350,428617,355402
1151.17,0.081783,431169,357161
1154.75,0.083532,433579,357714
1158.33,0.084072,436264,359482
1161.91,0.086151,439132,360117
1165.48,0.088895,442389,360503
1169.04,0.090442,446101,362236
1173.79,0.093875,451929,364079
1177.34,0.095751,456026,365796
1180.9,0.097818,461306,368274
1184.44,0.100083,467657,371402
1187.99,0.100344,473969,376189
1191.52,0.100914,479856,380362
1195.06,0.100558,487372,386636
1199.76,0.099934,497347,395117
1203.29,0.099205,504311,401322
1206.81,0.099082,511507,407164
1210.33,0.098128,519078,414099
1213.84,0.098004,527163,420669
1217.35,0.096980,534208,427298
1220.85,0.096470,540472,432816
1225.51,0.095388,549929,441488
1229.01,0.094901,556888,447576
1232.5,0.094800,562180,451934
1235.98,0.093935,567975,457503
1239.46,0.093014,574815,463996
1242.94,0.091913,582782,471621
1246.41,0.091195,591476,479449
1251.03,0.090879,604016,489970
1254.5,0.091575,612289,495886
1257.96,0.091841,619125,501115
1261.41,0.092445,624551,504804
1264.86,0.093133,629900,508322
1268.31,0.093311,634345,511699
1271.75,0.094083,638574,514195
1276.33,0.094012,642499,517440
1279.76,0.094107,645905,520070
1283.19,0.093566,648307,522654
1286.61,0.093330,650446,524664
1290.03,0.092574,652132,526940
1293.44,0.092482,653907,528487
1296.85,0.091904,655963,530854
1301.39,0.091928,657349,531946
1304.8,0.091856,657558,532204
1308.19,0.091615,658515,533274
1311.58,0.091639,658804,533479
1314.97,0.092620,659011,532443
1318.36,0.092747,658272,531690
1321.73,0.092718,658022,531523
1326.23,0.093925,657870,529926
1329.6,0.094216,656482,528454
1332.97,0.095339,654926,525839
1336.33,0.096172,653727,523871
1339.69,0.097878,652497,520836
1343.04,0.099155,649913,517250
1346.39,0.101071,647671,513196
1349.73,0.102949,645338,509141
1354.18,0.105555,641175,502830
1357.52,0.107853,638376,497993
1360.85,0.110411,635805,493075
1364.17,0.111423,633413,490077
1367.49,0.113921,631026,485430
1370.81,0.115846,628050,481004
1374.12,0.118151,625034,476160
1378.54,0.120895,620272,469556
1381.84,0.123668,616892,464025
1385.14,0.126750,613613,458294
1388.43,0.129968,611526,453364
1391.72,0.133975,610663,448566
1395.01,0.138075,610634,444330
1398.29,0.141824,611700,441280
1402.66,0.147783,614051,436940
1405.93,0.152235,616268,434045
1409.2,0.157091,617795,430282
1412.46,0.160986,618872,427184
1415.72,0.165073,619795,423814
1418.98,0.168426,620495,421029
1422.23,0.170760,621087,419172
1426.56,0.175002,621375,415290
1429.8,0.177538,621616,413032
1433.04,0.180090,622129,410951
1436.27,0.182611,621526,408177
1439.5,0.184352,621113,406274
1442.72,0.186930,620921,403744
1445.94,0.189440,620270,400997
1450.23,0.193054,618860,396770
1453.44,0.195628,617697,393684
1456.64,0.198850,616264,389867
1459.85,0.201136,614413,386656
1463.04,0.203969,612307,382825
1466.24,0.207547,610032,378273
1469.43,0.212229,607345,372569
1473.67,0.218429,603789,365137
1476.85,0.224314,601175,358663
1480.02,0.230684,597737,351420
1483.19,0.237313,594479,344210
1486.36,0.243250,591232,337682
1489.52,0.248121,587853,332007
1492.68,0.251427,583875,327260
1496.89,0.253908,578062,322156
1500.03,0.254089,574159,319848
1503.18,0.254382,570285,317475
1506.32,0.253859,565444,315160
1509.45,0.251987,560571,313793
1512.58,0.250842,555821,311956
1515.71,0.248106,550344,310834
1519.87,0.245283,543983,309245
1522.99,0.242782,538764,308047
1526.1,0.240571,533692,306704
1529.21,0.236335,527902,306350
1532.32,0.234345,521886,304250
1535.42,0.231566,515888,302684
1538.51,0.228997,509987,300997
1541.6,0.225441,503936,299871
1545.72,0.221200,494694,297260
1548.8,0.218609,488378,295221
1551.88,0.215761,481832,293180
1554.95,0.214999,474989,289524
1558.02,0.212669,467818,286687
1561.08,0.212084,460730,282724
1564.15,0.210442,454170,279754
1568.22,0.211032,444181,273230
1571.27,0.209506,436947,269726
1574.32,0.209359,429598,265279
1577.36,0.207544,422039,261703
1580.4,0.206515,414375,257560
1583.43,0.205983,406354,252884
1586.46,0.204432,398475,248868
1590.49,0.202365,388982,244098
1593.51,0.199750,380708,240349
1596.53,0.197991,372727,236265
1599.54,0.196222,365060,232350
1602.55,0.194288,357543,228581
1605.55,0.191790,349495,224725
1608.55,0.190577,341154,219975
1612.54,0.188675,330877,214285
1615.53,0.186784,322904,210034
1618.51,0.185559,315116,205547
1621.49,0.184660,307217,200810
1624.47,0.183580,299481,196241
1627.44,0.181963,292112,192126
1630.41,0.182239,284245,186833
1634.36,0.180588,274079,180837
1637.32,0.179603,266916,176511
1640.27,0.179069,259612,171892
1643.22,0.178104,251804,167093
1646.16,0.179267,244348,161712
1649.1,0.177503,236703,157290
1652.04,0.176394,228171,152008
1655.95,0.172775,215408,144706
1658.88,0.167663,204937,139302
1661.8,0.163630,193395,132683
1664.72,0.154987,179728,125785
1667.63,0.141954,163642,118016
1670.54,0.126779,146312,109270
1673.44,0.113111,128451,98998
1677.31,0.090846,105080,85246
1680.21,0.079805,88906,73982
1683.1,0.074920,75033,63144
1685.99,0.072807,63520,53716
1688.87,0.073462,53714,45355
1691.75,0.083116,45653,37701
1694.62,0.088838,39137,31897
1697.49,0.099454,33776,26863
1701.31,0.103863,28175,22182