File: samples/wool/wool-000811/Column 1_050584_20150331_121602.csv
Method:,Column 1,,
Host Date-Time:,31/3/15 @ 12:16:2,,
Header Version:,1,,
System Temp (C):,33.78,,
Detector Temp (C):,34.54,,
Humidity (%):,1.91,,
Lamp PD:,3819,,
Shift Vector Coefficients:,-10.5391,0.0761263,-0.000134223,,
Pixel to Wavelength Coefficients:,1775.68,-0.916766,-0.000235065,,
Serial Number:,5510004,,
Scan Config Name:,Column 1,,
Scan Config Type:,Slew,,
Section 1,,
Start wavelength (nm):,900,,
End wavelength (nm):,1700,,
Pattern Pixel Width (nm):,   7.03,,,,
Exposure (ms):,  0.635,,,,
Digital Resolution:,228,,
Num Repeats:,6,,
PGA Gain:,64,,
Total Measurement Time in sec:,  2.721,,
Wavelength (nm),Absorbance (AU),Reference Signal (unitless),Sample Signal (unitless)
901.51,0.069858,108485,92366
905.376,0.076630,121306,101684
909.237,0.079166,131909,109928
913.095,0.079217,143299,119406
916.948,0.080306,156982,130480
922.079,0.083116,179937,148595
925.923,0.082921,200504,165654
929.762,0.082987,222660,183931
933.597,0.083663,244426,201597
937.427,0.082423,263972,218341
941.254,0.081787,281845,233466
945.076,0.081214,297271,246569
950.165,0.080518,315605,262196
953.978,0.079635,328029,273072
957.786,0.079949,340470,283224
961.59,0.079964,352317,293069
965.389,0.080043,363056,301947
969.185,0.079376,373162,310829
972.976,0.080178,382632,318129
976.763,0.080835,391202,324763
981.806,0.081441,400190,331761
985.583,0.082192,406088,336069
989.355,0.082579,410162,339138
993.124,0.082745,412868,341245
996.888,0.083385,414263,341894
1000.65,0.084100,415476,342331
1004.4,0.085356,415479,341345
1009.41,0.086849,414358,339255
1013.15,0.086539,412923,338322
1016.89,0.087500,411526,336432
1020.63,0.087287,409066,334585
1024.36,0.087488,406777,332559
1028.09,0.086594,404427,331319
1031.82,0.087203,401911,328796
1036.78,0.086758,398410,326266
1040.49,0.086064,396204,324979
1044.2,0.086647,394236,322931
1047.91,0.085753,392042,321795
1051.61,0.085834,389823,319914
1055.31,0.085427,388234,318909
1059,0.085048,387599,318665
1063.92,0.084382,386688,318404
1067.61,0.083150,386598,319234
1071.29,0.083189,387377,319849
1074.96,0.082566,388536,321266
1078.63,0.081971,389855,322799
1082.3,0.081426,391215,324332
1085.96,0.080622,393215,326594
1090.84,0.079704,396270,329828
1094.49,0.079363,398760,332161
1098.14,0.078730,400987,334503
1101.79,0.077837,403477,337273
1105.43,0.077794,406116,339513
1109.06,0.077239,407701,341274
1112.7,0.076320,409859,343807
1117.53,0.076280,412494,346049
1121.15,0.076736,414909,347710
1124.77,0.077551,416559,348438
1128.38,0.077849,418532,349848
1131.99,0.078930,419956,350166
1135.6,0.080196,421946,350801
1139.2,0.082311,423881,350698
1143.99,0.083842,426786,351859
1147.58,0.084887,428617,352519
1151.17,0.085469,431169,354143
1154.75,0.087229,433579,354682
1158.33,0.088159,436264,356115
1161.91,0.090203,439132,356773
1165.48,0.092487,442389,357534
1169.04,0.094198,446101,359116
1173.79,0.097999,451929,360638
1177.34,0.099865,456026,362347
1180.9,0.102145,461306,364623
1184.44,0.103285,467657,368674
1187.99,0.104659,473969,372470
1191.52,0.104253,479856,377449
1195.06,0.104246,487372,383367
1199.76,0.103771,497347,391641
1203.29,0.102638,504311,398163
1206.81,0.102628,511507,403853
1210.33,0.101843,519078,410572
1213.84,0.101247,527163,417540
1217.35,0.100678,534208,423675
1220.85,0.100027,540472,429285
1225.51,0.099568,549929,437259
1229.01,0.098737,556888,443640
1232.5,0.098104,562180,448509
1235.98,0.097694,567975,453561
1239.46,0.096498,574815,460288
1242.94,0.095782,582782,467438
1246.41,0.094883,591476,475395
1251.03,0.094773,604016,485596
1254.5,0.095258,612289,491698
1257.96,0.095519,619125,496889
1261.41,0.096464,624551,500154
1264.86,0.096641,629900,504232
1268.31,0.096982,634345,507392
1271.75,0.097762,638574,509858
1276.33,0.098096,642499,512598
1279.76,0.098028,645905,515395
1283.19,0.097576,648307,517851
1286.61,0.097272,650446,519923
1290.03,0.097284,652132,521257
1293.44,0.095936,653907,524300
1296.85,0.096241,655963,525579
1301.39,0.096057,657349,526913
1304.8,0.096076,657558,527058
1308.19,0.096425,658515,527401
1311.58,0.096180,658804,527930
1314.97,0.097162,659011,526903
1318.36,0.097419,658272,526001
1321.73,0.097728,658022,525427
1326.23,0.098669,657870,524169
1329.6,0.099680,656482,521847
1332.97,0.100427,654926,519715
1336.33,0.101600,653727,517364
1339.69,0.103268,652497,514411
1343.04,0.104703,649913,510684
1346.39,0.107099,647671,506122
1349.73,0.108580,645338,502582
1354.18,0.111696,641175,495770
1357.52,0.113777,638376,491247
1360.85,0.115873,635805,486912
1364.17,0.117824,633413,482906
1367.49,0.120061,631026,478615
1370.81,0.122291,628050,473918
1374.12,0.124285,625034,469482
1378.54,0.127439,620272,462534
1381.84,0.130860,616892,456404
1385.14,0.134320,613613,450375
1388.43,0.138753,611526,444285
1391.72,0.143323,610663,439014
1395.01,0.148079,610634,434212
1398.29,0.153119,611700,429952
1402.66,0.160285,614051,424541
1405.93,0.166303,616268,420210
1409.2,0.171156,617795,416570
1412.46,0.176577,618872,412120
1415.72,0.180627,619795,408904
1418.98,0.184792,620495,405458
1422.23,0.188146,621087,402723
1426.56,0.192247,621375,399123
1429.8,0.195080,621616,396682
1433.04,0.198178,622129,394187
1436.27,0.200159,621526,392013
1439.5,0.202305,621113,389821
1442.72,0.204153,620921,388046
1445.94,0.206871,620270,385221
1450.23,0.210437,618860,381202
1453.44,0.212714,617697,378496
1456.64,0.215738,616264,374998
1459.85,0.218386,614413,371599
1463.04,0.220782,612307,368288
1466.24,0.223556,610032,364583
1469.43,0.227222,607345,359926
1473.67,0.232417,603789,353564
1476.85,0.236745,601175,348543
1480.02,0.242198,597737,342225
1483.19,0.248040,594479,335812
1486.36,0.253137,591232,330081
1489.52,0.257594,587853,324844
1492.68,0.260618,583875,320407
1496.89,0.262327,578062,315971
1500.03,0.263180,574159,313222
1503.18,0.262944,570285,311278
1506.32,0.262888,565444,308675
1509.45,0.261197,560571,307209
1512.58,0.259361,555821,305896
1515.71,0.257408,550344,304247
1519.87,0.254316,543983,302879
1522.99,0.252118,538764,301495
1526.1,0.249157,533692,300700
1529.21,0.246605,527902,299191
1532.32,0.244172,521886,297443
1535.42,0.240831,515888,296295
1538.51,0.238058,509987,294782
1541.6,0.235604,503936,292935
1545.72,0.231561,494694,290252
1548.8,0.227063,488378,289530
1551.88,0.225947,481832,286384
1554.95,0.224356,474989,283353
1558.02,0.223096,467818,279886
1561.08,0.220871,460730,277061
1564.15,0.220452,454170,273380
1568.22,0.219009,444181,268257
1571.27,0.218650,436947,264106
1574.32,0.217837,429598,260151
1577.36,0.216824,422039,256170
1580.4,0.214534,414375,252848
1583.43,0.214451,406354,248001
1586.46,0.211703,398475,244736
1590.49,0.209731,388982,239993
1593.51,0.208433,380708,235591
1596.53,0.207110,372727,231356
1599.54,0.203360,365060,228562
1602.55,0.202551,357543,224273
1605.55,0.200785,349495,220118
1608.55,0.198772,341154,215863
1612.54,0.197152,330877,210143
1615.53,0.194543,322904,206315
1618.51,0.192013,315116,202515
1621.49,0.192798,307217,197082
1624.47,0.191242,299481,192809
1627.44,0.190450,292112,188408
1630.41,0.188833,284245,184018
1634.36,0.188673,274079,177502
1637.32,0.187498,266916,173331
1640.27,0.185827,259612,169238
1643.22,0.185082,251804,164430
1646.16,0.185371,244348,159455
1649.1,0.184798,236703,154670
1652.04,0.181458,228171,150246
1655.95,0.178275,215408,142885
1658.88,0.174554,204937,137109
1661.8,0.171718,193395,130235
1664.72,0.162351,179728,123670
1667.63,0.152028,163642,115310
1670.54,0.138155,146312,106445
1673.44,0.122163,128451,96956
1677.31,0.102531,105080,82983
1680.21,0.092057,88906,71924
1683.1,0.089545,75033,61053
1685.99,0.085814,63520,52131
1688.87,0.091229,53714,43537
1691.75,0.094851,45653,36696
1694.62,0.101618,39137,30972
1697.49,0.106971,33776,26402
1701.31,0.114125,28175,21664