File: samples/wool/wool-000811/Column 1_050552_20150331_120051.csv
Method:,Column 1,,
Host Date-Time:,31/3/15 @ 12:0:51,,
Header Version:,1,,
System Temp (C):,33.37,,
Detector Temp (C):,32.4,,
Humidity (%):,3.03,,
Lamp PD:,3820,,
Shift Vector Coefficients:,-10.5391,0.0761263,-0.000134223,,
Pixel to Wavelength Coefficients:,1775.68,-0.916766,-0.000235065,,
Serial Number:,5510004,,
Scan Config Name:,Column 1,,
Scan Config Type:,Slew,,
Section 1,,
Start wavelength (nm):,900,,
End wavelength (nm):,1700,,
Pattern Pixel Width (nm):,   7.03,,,,
Exposure (ms):,  0.635,,,,
Digital Resolution:,228,,
Num Repeats:,6,,
PGA Gain:,64,,
Total Measurement Time in sec:,  2.729,,
Wavelength (nm),Absorbance (AU),Reference Signal (unitless),Sample Signal (unitless)
901.51,0.032306,108485,100708
905.376,0.037387,121306,111300
909.237,0.042554,131909,119597
913.095,0.041936,143299,130109
916.948,0.042373,156982,142389
922.079,0.043642,179937,162734
925.923,0.044850,200504,180831
929.762,0.045697,222660,200422
933.597,0.045843,244426,219940
937.427,0.046304,263972,237276
941.254,0.045213,281845,253979
945.076,0.045452,297271,267732
950.165,0.045373,315605,284296
953.978,0.044876,328029,295826
957.786,0.046186,340470,306121
961.59,0.046162,352317,316790
965.389,0.045902,363056,326642
969.185,0.046540,373162,335241
972.976,0.046996,382632,343388
976.763,0.047528,391202,350649
981.806,0.048531,400190,357878
985.583,0.049188,406088,362604
989.355,0.049288,410162,366157
993.124,0.049974,412868,367991
996.888,0.050488,414263,368798
1000.65,0.051750,415476,368804
1004.4,0.052360,415479,368289
1009.41,0.053739,414358,366131
1013.15,0.053569,412923,365006
1016.89,0.054971,411526,362599
1020.63,0.054192,409066,361078
1024.36,0.054993,406777,358396
1028.09,0.054465,404427,356759
1031.82,0.054177,401911,354775
1036.78,0.053397,398410,352317
1040.49,0.053928,396204,349938
1044.2,0.053332,394236,348678
1047.91,0.052589,392042,347331
1051.61,0.052313,389823,345585
1055.31,0.051297,388234,344982
1059,0.051456,387599,344292
1063.92,0.050004,386688,344633
1067.61,0.049663,386598,344823
1071.29,0.048512,387377,346435
1074.96,0.048153,388536,347759
1078.63,0.048141,389855,348949
1082.3,0.046774,391215,351270
1085.96,0.046788,393215,353055
1090.84,0.045605,396270,356768
1094.49,0.045125,398760,359407
1098.14,0.045409,400987,361178
1101.79,0.044721,403477,363997
1105.43,0.044513,406116,366553
1109.06,0.044162,407701,368281
1112.7,0.044379,409859,370046
1117.53,0.044414,412494,372395
1121.15,0.045272,414909,373836
1124.77,0.045672,416559,374977
1128.38,0.046755,418532,375815
1131.99,0.048476,419956,375602
1135.6,0.050134,421946,375944
1139.2,0.051735,423881,376278
1143.99,0.054502,426786,376451
1147.58,0.055472,428617,377222
1151.17,0.056828,431169,378285
1154.75,0.058250,433579,379156
1158.33,0.060256,436264,379746
1161.91,0.062709,439132,380090
1165.48,0.064714,442389,381145
1169.04,0.066730,446101,382563
1173.79,0.071181,451929,383609
1177.34,0.073481,456026,385042
1180.9,0.075631,461306,387577
1184.44,0.077415,467657,391302
1187.99,0.078523,473969,395573
1191.52,0.077751,479856,401199
1195.06,0.077584,487372,407640
1199.76,0.076611,497347,416916
1203.29,0.075605,504311,423734
1206.81,0.075248,511507,430134
1210.33,0.074366,519078,437388
1213.84,0.073534,527163,445052
1217.35,0.072318,534208,452264
1220.85,0.071851,540472,458060
1225.51,0.071044,549929,466942
1229.01,0.070786,556888,473131
1232.5,0.070007,562180,478485
1235.98,0.068925,567975,484623
1239.46,0.068015,574815,491488
1242.94,0.067339,582782,499076
1246.41,0.066690,591476,507279
1251.03,0.066035,604016,518816
1254.5,0.066327,612289,525569
1257.96,0.067148,619125,530433
1261.41,0.067559,624551,534575
1264.86,0.067846,629900,538798
1268.31,0.068658,634345,541586
1271.75,0.069183,638574,544538
1276.33,0.069928,642499,546946
1279.76,0.069501,645905,550386
1283.19,0.069435,648307,552517
1286.61,0.069015,650446,554877
1290.03,0.068568,652132,556887
1293.44,0.068026,653907,559101
1296.85,0.067980,655963,560918
1301.39,0.067643,657349,562540
1304.8,0.067840,657558,562463
1308.19,0.067804,658515,563329
1311.58,0.068549,658804,562610
1314.97,0.068921,659011,562305
1318.36,0.069699,658272,560669
1321.73,0.069768,658022,560367
1326.23,0.071104,657870,558516
1329.6,0.072032,656482,556148
1332.97,0.073084,654926,553488
1336.33,0.074337,653727,550883
1339.69,0.076113,652497,547602
1343.04,0.078038,649913,543022
1346.39,0.080512,647671,538074
1349.73,0.082685,645338,533460
1354.18,0.085718,641175,526330
1357.52,0.088291,638376,520938
1360.85,0.090281,635805,516468
1364.17,0.092236,633413,512213
1367.49,0.094997,631026,507049
1370.81,0.097015,628050,502318
1374.12,0.099947,625034,496543
1378.54,0.103629,620272,488600
1381.84,0.107259,616892,481892
1385.14,0.111658,613613,474500
1388.43,0.116337,611526,467819
1391.72,0.121695,610663,461431
1395.01,0.127117,610634,455684
1398.29,0.133249,611700,450080
1402.66,0.140976,614051,443842
1405.93,0.147220,616268,439086
1409.2,0.153675,617795,433680
1412.46,0.159282,618872,428863
1415.72,0.164437,619795,424435
1418.98,0.168823,620495,420645
1422.23,0.172779,621087,417228
1426.56,0.177733,621375,412687
1429.8,0.181093,621616,409665
1433.04,0.183436,622129,407797
1436.27,0.186036,621526,404970
1439.5,0.187856,621113,403009
1442.72,0.191108,620921,399879
1445.94,0.193221,620270,397521
1450.23,0.197692,618860,392555
1453.44,0.199803,617697,389917
1456.64,0.202422,616264,386674
1459.85,0.205257,614413,383004
1463.04,0.207613,612307,379626
1466.24,0.210953,610032,375318
1469.43,0.214407,607345,370705
1473.67,0.219871,603789,363927
1476.85,0.224804,601175,358259
1480.02,0.229986,597737,351985
1483.19,0.235924,594479,345313
1486.36,0.241230,591232,339256
1489.52,0.246424,587853,333307
1492.68,0.249806,583875,328484
1496.89,0.252299,578062,323352
1500.03,0.252721,574159,320857
1503.18,0.252229,570285,319053
1506.32,0.251831,565444,316635
1509.45,0.250611,560571,314789
1512.58,0.248983,555821,313294
1515.71,0.247023,550344,311610
1519.87,0.243353,543983,310622
1522.99,0.240699,538764,309528
1526.1,0.237878,533692,308612
1529.21,0.234869,527902,307386
1532.32,0.231901,521886,305967
1535.42,0.229273,515888,304286
1538.51,0.225907,509987,303146
1541.6,0.222263,503936,302073
1545.72,0.218110,494694,299383
1548.8,0.215294,488378,297483
1551.88,0.212453,481832,295422
1554.95,0.210118,474989,292796
1558.02,0.208340,467818,289559
1561.08,0.207894,460730,285465
1564.15,0.206489,454170,282312
1568.22,0.204624,444181,277291
1571.27,0.204696,436947,272730
1574.32,0.202990,429598,269198
1577.36,0.201576,422039,265324
1580.4,0.200377,414375,261226
1583.43,0.199115,406354,256915
1586.46,0.197202,398475,253046
1590.49,0.193394,388982,249193
1593.51,0.192185,380708,244572
1596.53,0.190653,372727,240291
1599.54,0.189055,365060,236216
1602.55,0.185883,357543,233048
1605.55,0.183951,349495,228818
1608.55,0.181649,341154,224544
1612.54,0.179189,330877,219017
1615.53,0.175977,322904,215326
1618.51,0.176611,315116,209826
1621.49,0.174957,307217,205347
1624.47,0.172187,299481,201457
1627.44,0.172112,292112,196534
1630.41,0.170760,284245,191837
1634.36,0.169541,274079,185496
1637.32,0.168931,266916,180902
1640.27,0.166668,259612,176871
1643.22,0.165792,251804,171898
1646.16,0.165467,244348,166933
1649.1,0.164525,236703,162061
1652.04,0.163924,228171,156436
1655.95,0.160309,215408,148920
1658.88,0.159231,204937,142033
1661.8,0.156691,193395,134820
1664.72,0.152511,179728,126504
1667.63,0.142742,163642,117802
1670.54,0.132468,146312,107848
1673.44,0.123203,128451,96724
1677.31,0.111948,105080,81203
1680.21,0.105761,88906,69690
1683.1,0.103202,75033,59163
1685.99,0.110654,63520,49233
1688.87,0.116309,53714,41094
1691.75,0.119052,45653,34707
1694.62,0.124388,39137,29390
1697.49,0.133072,33776,24862
1701.31,0.124471,28175,21154