File: samples/wool/wool-000811/Column 1_050579_20150331_121348.csv
Method:,Column 1,,
Host Date-Time:,31/3/15 @ 12:13:48,,
Header Version:,1,,
System Temp (C):,33.79,,
Detector Temp (C):,34.59,,
Humidity (%):,1.95,,
Lamp PD:,3818,,
Shift Vector Coefficients:,-10.5391,0.0761263,-0.000134223,,
Pixel to Wavelength Coefficients:,1775.68,-0.916766,-0.000235065,,
Serial Number:,5510004,,
Scan Config Name:,Column 1,,
Scan Config Type:,Slew,,
Section 1,,
Start wavelength (nm):,900,,
End wavelength (nm):,1700,,
Pattern Pixel Width (nm):,   7.03,,,,
Exposure (ms):,  0.635,,,,
Digital Resolution:,228,,
Num Repeats:,6,,
PGA Gain:,64,,
Total Measurement Time in sec:,  2.675,,
Wavelength (nm),Absorbance (AU),Reference Signal (unitless),Sample Signal (unitless)
901.51,0.069834,108485,92371
905.376,0.073421,121306,102438
909.237,0.077502,131909,110350
913.095,0.079712,143299,119270
916.948,0.080589,156982,130395
922.079,0.081821,179937,149039
925.923,0.083008,200504,165621
929.762,0.083805,222660,183585
933.597,0.083846,244426,201512
937.427,0.082512,263972,218296
941.254,0.082096,281845,233300
945.076,0.081833,297271,246218
950.165,0.080175,315605,262403
953.978,0.079610,328029,273088
957.786,0.079727,340470,283369
961.59,0.081151,352317,292269
965.389,0.080312,363056,301760
969.185,0.080890,373162,309747
972.976,0.081148,382632,317419
976.763,0.081434,391202,324315
981.806,0.081513,400190,331706
985.583,0.082362,406088,335937
989.355,0.082580,410162,339137
993.124,0.083113,412868,340956
996.888,0.083734,414263,341619
1000.65,0.084440,415476,342063
1004.4,0.085221,415479,341451
1009.41,0.086759,414358,339326
1013.15,0.087499,412923,337575
1016.89,0.087823,411526,336182
1020.63,0.087676,409066,334285
1024.36,0.087903,406777,332241
1028.09,0.087294,404427,330785
1031.82,0.087268,401911,328747
1036.78,0.087348,398410,325823
1040.49,0.086665,396204,324529
1044.2,0.087017,394236,322656
1047.91,0.086268,392042,321414
1051.61,0.086243,389823,319613
1055.31,0.086232,388234,318318
1059,0.086014,387599,317957
1063.92,0.084377,386688,318408
1067.61,0.083587,386598,318913
1071.29,0.083280,387377,319782
1074.96,0.083546,388536,320542
1078.63,0.082332,389855,322531
1082.3,0.081769,391215,324076
1085.96,0.081056,393215,326268
1090.84,0.080066,396270,329553
1094.49,0.079702,398760,331902
1098.14,0.079099,400987,334219
1101.79,0.078911,403477,336440
1105.43,0.078148,406116,339236
1109.06,0.077897,407701,340757
1112.7,0.077209,409859,343104
1117.53,0.076619,412494,345779
1121.15,0.077825,414909,346839
1124.77,0.077350,416559,348599
1128.38,0.078770,418532,349107
1131.99,0.079803,419956,349463
1135.6,0.081219,421946,349976
1139.2,0.082800,423881,350303
1143.99,0.084882,426786,351017
1147.58,0.085725,428617,351839
1151.17,0.087147,431169,352777
1154.75,0.087816,433579,354203
1158.33,0.089252,436264,355220
1161.91,0.090139,439132,356826
1165.48,0.092922,442389,357176
1169.04,0.095099,446101,358372
1173.79,0.098475,451929,360243
1177.34,0.100814,456026,361556
1180.9,0.102912,461306,363980
1184.44,0.104518,467657,367629
1187.99,0.105269,473969,371947
1191.52,0.105136,479856,376682
1195.06,0.105350,487372,382394
1199.76,0.104174,497347,391278
1203.29,0.103535,504311,397341
1206.81,0.103330,511507,403201
1210.33,0.102755,519078,409711
1213.84,0.102108,527163,416713
1217.35,0.101694,534208,422685
1220.85,0.101063,540472,428263
1225.51,0.100208,549929,436615
1229.01,0.099499,556888,442862
1232.5,0.099262,562180,447315
1235.98,0.098719,567975,452491
1239.46,0.097769,574815,458943
1242.94,0.096542,582782,466621
1246.41,0.096272,591476,473876
1251.03,0.095857,604016,484386
1254.5,0.096366,612289,490445
1257.96,0.096708,619125,495530
1261.41,0.097014,624551,499521
1264.86,0.097389,629900,503365
1268.31,0.097941,634345,506273
1271.75,0.098843,638574,508590
1276.33,0.099087,642499,511429
1279.76,0.099023,645905,514216
1283.19,0.098301,648307,516987
1286.61,0.098094,650446,518940
1290.03,0.097895,652132,520524
1293.44,0.097236,653907,522733
1296.85,0.096926,655963,524751
1301.39,0.096762,657349,526058
1304.8,0.096962,657558,525983
1308.19,0.097393,658515,526226
1311.58,0.097366,658804,526490
1314.97,0.097743,659011,526198
1318.36,0.098651,658272,524511
1321.73,0.099024,658022,523862
1326.23,0.100240,657870,522276
1329.6,0.100632,656482,520704
1332.97,0.101699,654926,518195
1336.33,0.102847,653727,515881
1339.69,0.104991,652497,512374
1343.04,0.106471,649913,508609
1346.39,0.107924,647671,505162
1349.73,0.110143,645338,500777
1354.18,0.113077,641175,494196
1357.52,0.115092,638376,489761
1360.85,0.116936,635805,485722
1364.17,0.119350,633413,481213
1367.49,0.121569,631026,476956
1370.81,0.123229,628050,472895
1374.12,0.126171,625034,467447
1378.54,0.129360,620272,460492
1381.84,0.132836,616892,454332
1385.14,0.136692,613613,447922
1388.43,0.140632,611526,442367
1391.72,0.145724,610663,436594
1395.01,0.150479,610634,431819
1398.29,0.156250,611700,426863
1402.66,0.163666,614051,421249
1405.93,0.168830,616268,417772
1409.2,0.175360,617795,412557
1412.46,0.180267,618872,408633
1415.72,0.184916,619795,404885
1418.98,0.188978,620495,401569
1422.23,0.193011,621087,398237
1426.56,0.197899,621375,393962
1429.8,0.200589,621616,391682
1433.04,0.202670,622129,390131
1436.27,0.204929,621526,387731
1439.5,0.207186,621113,385465
1442.72,0.209787,620921,383045
1445.94,0.211375,620270,381246
1450.23,0.214694,618860,377484
1453.44,0.217220,617697,374589
1456.64,0.219639,616264,371645
1459.85,0.222830,614413,367816
1463.04,0.224949,612307,364771
1466.24,0.227990,610032,360880
1469.43,0.231848,607345,356113
1473.67,0.236486,603789,350267
1476.85,0.241133,601175,345039
1480.02,0.245947,597737,339284
1483.19,0.251368,594479,333249
1486.36,0.256434,591232,327585
1489.52,0.260218,587853,322887
1492.68,0.263440,583875,318332
1496.89,0.265407,578062,313738
1500.03,0.265368,574159,311648
1503.18,0.265461,570285,309479
1506.32,0.264025,565444,307868
1509.45,0.263001,560571,305935
1512.58,0.261473,555821,304412
1515.71,0.259169,550344,303016
1519.87,0.256177,543983,301584
1522.99,0.254059,538764,300151
1526.1,0.251942,533692,298778
1529.21,0.248935,527902,297590
1532.32,0.246282,521886,296001
1535.42,0.243591,515888,294418
1538.51,0.240646,509987,293031
1541.6,0.237983,503936,291335
1545.72,0.233917,494694,288682
1548.8,0.230994,488378,286921
1551.88,0.228681,481832,284587
1554.95,0.226157,474989,282180
1558.02,0.224859,467818,278752
1561.08,0.223803,460730,275197
1564.15,0.222643,454170,272004
1568.22,0.221320,444181,266833
1571.27,0.220751,436947,262832
1574.32,0.219833,429598,258958
1577.36,0.218530,422039,255166
1580.4,0.217431,414375,251167
1583.43,0.215900,406354,247175
1586.46,0.213833,398475,243539
1590.49,0.212241,388982,238610
1593.51,0.210742,380708,234342
1596.53,0.208522,372727,230605
1599.54,0.206151,365060,227098
1602.55,0.203493,357543,223787
1605.55,0.202805,349495,219097
1608.55,0.200352,341154,215079
1612.54,0.198163,330877,209654
1615.53,0.195727,322904,205753
1618.51,0.194689,315116,201271
1621.49,0.193952,307217,196559
1624.47,0.193389,299481,191858
1627.44,0.191417,292112,187989
1630.41,0.190810,284245,183182
1634.36,0.189441,274079,177188
1637.32,0.189792,266916,172418
1640.27,0.188259,259612,168293
1643.22,0.186990,251804,163709
1646.16,0.185338,244348,159467
1649.1,0.184767,236703,154681
1652.04,0.182940,228171,149734
1655.95,0.180766,215408,142068
1658.88,0.176863,204937,136382
1661.8,0.170715,193395,130536
1664.72,0.163111,179728,123454
1667.63,0.152378,163642,115217
1670.54,0.139339,146312,106155
1673.44,0.122459,128451,96890
1677.31,0.103327,105080,82831
1680.21,0.090911,88906,72114
1683.1,0.088047,75033,61264
1685.99,0.084841,63520,52248
1688.87,0.091419,53714,43518
1691.75,0.096523,45653,36555
1694.62,0.099339,39137,31135
1697.49,0.103090,33776,26639
1701.31,0.105197,28175,22114