File: samples/wool/wool-000811/Column 1_050619_20150331_123237.csv
Method:,Column 1,,
Host Date-Time:,31/3/15 @ 12:32:37,,
Header Version:,1,,
System Temp (C):,34.15,,
Detector Temp (C):,35.06,,
Humidity (%):,1.66,,
Lamp PD:,3818,,
Shift Vector Coefficients:,-10.5391,0.0761263,-0.000134223,,
Pixel to Wavelength Coefficients:,1775.68,-0.916766,-0.000235065,,
Serial Number:,5510004,,
Scan Config Name:,Column 1,,
Scan Config Type:,Slew,,
Section 1,,
Start wavelength (nm):,900,,
End wavelength (nm):,1700,,
Pattern Pixel Width (nm):,   7.03,,,,
Exposure (ms):,  0.635,,,,
Digital Resolution:,228,,
Num Repeats:,6,,
PGA Gain:,64,,
Total Measurement Time in sec:,  2.669,,
Wavelength (nm),Absorbance (AU),Reference Signal (unitless),Sample Signal (unitless)
901.51,0.069679,108485,92404
905.376,0.075120,121306,102038
909.237,0.077034,131909,110469
913.095,0.077355,143299,119919
916.948,0.079332,156982,130773
922.079,0.081148,179937,149270
925.923,0.081314,200504,166268
929.762,0.081862,222660,184408
933.597,0.081401,244426,202650
937.427,0.080577,263972,219271
941.254,0.080540,281845,234137
945.076,0.079035,297271,247809
950.165,0.078144,315605,263633
953.978,0.076998,328029,274735
957.786,0.077464,340470,284849
961.59,0.077406,352317,294800
965.389,0.077011,363056,304062
969.185,0.077474,373162,312193
972.976,0.077511,382632,320089
976.763,0.078071,391202,326836
981.806,0.078857,400190,333741
985.583,0.078681,406088,338797
989.355,0.079425,410162,341610
993.124,0.080513,412868,343003
996.888,0.080629,414263,344070
1000.65,0.081451,415476,344425
1004.4,0.083028,415479,343179
1009.41,0.083639,414358,341772
1013.15,0.084439,412923,339962
1016.89,0.084542,411526,338731
1020.63,0.085131,409066,336250
1024.36,0.084537,406777,334826
1028.09,0.084404,404427,332994
1031.82,0.084438,401911,330896
1036.78,0.083951,398410,328382
1040.49,0.083262,396204,327082
1044.2,0.083652,394236,325165
1047.91,0.083352,392042,323579
1051.61,0.082850,389823,322120
1055.31,0.082621,388234,320976
1059,0.081704,387599,321128
1063.92,0.080715,386688,321104
1067.61,0.080357,386598,321294
1071.29,0.079645,387377,322470
1074.96,0.079761,388536,323348
1078.63,0.078753,389855,325200
1082.3,0.077791,391215,327058
1085.96,0.076804,393215,329478
1090.84,0.076160,396270,332530
1094.49,0.076352,398760,334472
1098.14,0.075310,400987,337148
1101.79,0.074708,403477,339712
1105.43,0.074401,406116,342176
1109.06,0.073579,407701,344162
1112.7,0.073513,409859,346036
1117.53,0.072821,412494,348816
1121.15,0.073392,414909,350397
1124.77,0.073967,416559,351325
1128.38,0.074625,418532,352455
1131.99,0.075612,419956,352851
1135.6,0.076901,421946,353473
1139.2,0.078071,423881,354138
1143.99,0.080382,426786,354673
1147.58,0.081417,428617,355347
1151.17,0.081853,431169,357104
1154.75,0.083026,433579,358131
1158.33,0.084320,436264,359277
1161.91,0.086297,439132,359996
1165.48,0.088115,442389,361151
1169.04,0.090225,446101,362417
1173.79,0.094060,451929,363924
1177.34,0.095849,456026,365713
1180.9,0.097451,461306,368585
1184.44,0.099804,467657,371641
1187.99,0.100747,473969,375840
1191.52,0.100453,479856,380766
1195.06,0.100534,487372,386658
1199.76,0.099988,497347,395068
1203.29,0.099027,504311,401487
1206.81,0.098482,511507,407727
1210.33,0.097691,519078,414516
1213.84,0.097498,527163,421160
1217.35,0.097049,534208,427230
1220.85,0.096338,540472,432947
1225.51,0.095571,549929,441302
1229.01,0.095065,556888,447407
1232.5,0.094462,562180,452286
1235.98,0.093887,567975,457554
1239.46,0.092857,574815,464164
1242.94,0.092031,582782,471493
1246.41,0.091809,591476,478771
1251.03,0.091060,604016,489766
1254.5,0.091551,612289,495913
1257.96,0.091661,619125,501323
1261.41,0.092084,624551,505224
1264.86,0.093130,629900,508325
1268.31,0.093454,634345,511531
1271.75,0.093950,638574,514353
1276.33,0.093950,642499,517514
1279.76,0.094130,645905,520042
1283.19,0.093380,648307,522878
1286.61,0.093410,650446,524567
1290.03,0.092806,652132,526659
1293.44,0.092121,653907,528926
1296.85,0.092273,655963,530404
1301.39,0.091939,657349,531933
1304.8,0.091705,657558,532389
1308.19,0.091869,658515,532962
1311.58,0.092262,658804,532714
1314.97,0.092483,659011,532610
1318.36,0.092869,658272,531540
1321.73,0.093117,658022,531035
1326.23,0.093550,657870,530383
1329.6,0.094629,656482,527951
1332.97,0.095507,654926,525636
1336.33,0.096393,653727,523605
1339.69,0.097707,652497,521040
1343.04,0.099271,649913,517112
1346.39,0.101170,647671,513079
1349.73,0.102872,645338,509232
1354.18,0.106126,641175,502170
1357.52,0.107943,638376,497890
1360.85,0.109291,635805,494348
1364.17,0.111678,633413,489789
1367.49,0.113913,631026,485438
1370.81,0.116437,628050,480349
1374.12,0.118029,625034,476294
1378.54,0.120747,620272,469716
1381.84,0.123918,616892,463758
1385.14,0.127046,613613,457982
1388.43,0.130493,611526,452816
1391.72,0.134253,610663,448279
1395.01,0.138128,610634,444276
1398.29,0.142476,611700,440618
1402.66,0.148206,614051,436514
1405.93,0.152947,616268,433334
1409.2,0.157885,617795,429496
1412.46,0.161828,618872,426356
1415.72,0.165742,619795,423161
1418.98,0.168683,620495,420780
1422.23,0.172609,621087,417391
1426.56,0.175648,621375,414673
1429.8,0.178382,621616,412231
1433.04,0.180903,622129,410183
1436.27,0.183162,621526,407659
1439.5,0.184933,621113,405730
1442.72,0.187736,620921,402996
1445.94,0.189952,620270,400524
1450.23,0.193332,618860,396516
1453.44,0.196733,617697,392683
1456.64,0.199444,616264,389334
1459.85,0.201864,614413,386008
1463.04,0.205315,612307,381640
1466.24,0.208953,610032,377051
1469.43,0.212253,607345,372548
1473.67,0.218822,603789,364807
1476.85,0.224776,601175,358282
1480.02,0.231017,597737,351150
1483.19,0.238038,594479,343636
1486.36,0.243612,591232,337401
1489.52,0.248618,587853,331628
1492.68,0.252353,583875,326563
1496.89,0.254255,578062,321899
1500.03,0.254960,574159,319207
1503.18,0.254625,570285,317298
1506.32,0.253264,565444,315592
1509.45,0.252291,560571,313574
1512.58,0.250697,555821,312060
1515.71,0.248374,550344,310642
1519.87,0.245461,543983,309118
1522.99,0.243052,538764,307855
1526.1,0.240159,533692,306995
1529.21,0.237558,527902,305489
1532.32,0.234209,521886,304345
1535.42,0.230896,515888,303151
1538.51,0.228174,509987,301568
1541.6,0.225884,503936,299565
1545.72,0.220975,494694,297414
1548.8,0.218715,488378,295149
1551.88,0.216868,481832,292434
1554.95,0.214605,474989,289787
1558.02,0.212757,467818,286629
1561.08,0.211884,460730,282854
1564.15,0.211569,454170,279029
1568.22,0.209488,444181,274203
1571.27,0.210110,436947,269351
1574.32,0.209371,429598,265272
1577.36,0.208017,422039,261418
1580.4,0.205890,414375,257931
1583.43,0.204661,406354,253655
1586.46,0.203451,398475,249431
1590.49,0.201294,388982,244701
1593.51,0.200343,380708,240021
1596.53,0.197797,372727,236371
1599.54,0.196863,365060,232007
1602.55,0.193808,357543,228834
1605.55,0.192540,349495,224337
1608.55,0.190858,341154,219833
1612.54,0.188926,330877,214161
1615.53,0.187469,322904,209703
1618.51,0.185944,315116,205365
1621.49,0.185359,307217,200487
1624.47,0.182552,299481,196706
1627.44,0.182726,292112,191789
1630.41,0.181007,284245,187364
1634.36,0.179902,274079,181123
1637.32,0.179458,266916,176570
1640.27,0.179130,259612,171868
1643.22,0.178042,251804,167117
1646.16,0.178231,244348,162098
1649.1,0.176149,236703,157781
1652.04,0.175552,228171,152303
1655.95,0.173619,215408,144425
1658.88,0.167716,204937,139285
1661.8,0.162770,193395,132946
1664.72,0.155671,179728,125587
1667.63,0.142602,163642,117840
1670.54,0.127953,146312,108975
1673.44,0.111530,128451,99359
1677.31,0.091402,105080,85137
1680.21,0.077773,88906,74329
1683.1,0.076022,75033,62984
1685.99,0.074589,63520,53496
1688.87,0.075411,53714,45152
1691.75,0.080258,45653,37950
1694.62,0.080197,39137,32538
1697.49,0.084845,33776,27782
1701.31,0.096255,28175,22574