File: samples/wool/wool-000811/Column 1_050578_20150331_121309.csv
Method:,Column 1,,
Host Date-Time:,31/3/15 @ 12:13:9,,
Header Version:,1,,
System Temp (C):,33.83,,
Detector Temp (C):,34.59,,
Humidity (%):,2.05,,
Lamp PD:,3819,,
Shift Vector Coefficients:,-10.5391,0.0761263,-0.000134223,,
Pixel to Wavelength Coefficients:,1775.68,-0.916766,-0.000235065,,
Serial Number:,5510004,,
Scan Config Name:,Column 1,,
Scan Config Type:,Slew,,
Section 1,,
Start wavelength (nm):,900,,
End wavelength (nm):,1700,,
Pattern Pixel Width (nm):,   7.03,,,,
Exposure (ms):,  0.635,,,,
Digital Resolution:,228,,
Num Repeats:,6,,
PGA Gain:,64,,
Total Measurement Time in sec:,  2.668,,
Wavelength (nm),Absorbance (AU),Reference Signal (unitless),Sample Signal (unitless)
901.51,0.073797,108485,91532
905.376,0.079260,121306,101070
909.237,0.080143,131909,109681
913.095,0.081423,143299,118801
916.948,0.080223,156982,130505
922.079,0.084850,179937,148003
925.923,0.084300,200504,165129
929.762,0.085001,222660,183080
933.597,0.085068,244426,200946
937.427,0.083492,263972,217804
941.254,0.083552,281845,232519
945.076,0.082108,297271,246062
950.165,0.081446,315605,261636
953.978,0.080629,328029,272448
957.786,0.081500,340470,282214
961.59,0.081798,352317,291834
965.389,0.081660,363056,300825
969.185,0.082150,373162,308850
972.976,0.082007,382632,316792
976.763,0.082489,391202,323528
981.806,0.082797,400190,330727
985.583,0.083896,406088,334753
989.355,0.083846,410162,338150
993.124,0.084148,412868,340144
996.888,0.084751,414263,340820
1000.65,0.085690,415476,341080
1004.4,0.086912,415479,340124
1009.41,0.088146,414358,338244
1013.15,0.088306,412923,336948
1016.89,0.089034,411526,335246
1020.63,0.088914,409066,333334
1024.36,0.088883,406777,331492
1028.09,0.088928,404427,329543
1031.82,0.088447,401911,327856
1036.78,0.088141,398410,325229
1040.49,0.087756,396204,323715
1044.2,0.088610,394236,321474
1047.91,0.086388,392042,321325
1051.61,0.086987,389823,319066
1055.31,0.086433,388234,318171
1059,0.086324,387599,317730
1063.92,0.085322,386688,317716
1067.61,0.085225,386598,317713
1071.29,0.084321,387377,319016
1074.96,0.083807,388536,320350
1078.63,0.083968,389855,321318
1082.3,0.083390,391215,322868
1085.96,0.082058,393215,325516
1090.84,0.081330,396270,328595
1094.49,0.080515,398760,331281
1098.14,0.080305,400987,333292
1101.79,0.079257,403477,336172
1105.43,0.079423,406116,338242
1109.06,0.078328,407701,340419
1112.7,0.078314,409859,342232
1117.53,0.078043,412494,344647
1121.15,0.078794,414909,346066
1124.77,0.078504,416559,347674
1128.38,0.079649,418532,348401
1131.99,0.080767,419956,348688
1135.6,0.082020,421946,349331
1139.2,0.083584,423881,349671
1143.99,0.085704,426786,350353
1147.58,0.086458,428617,351246
1151.17,0.087602,431169,352408
1154.75,0.088512,433579,353636
1158.33,0.090083,436264,354541
1161.91,0.092142,439132,355184
1165.48,0.094074,442389,356230
1169.04,0.095975,446101,357650
1173.79,0.099331,451929,359533
1177.34,0.101383,456026,361083
1180.9,0.103770,461306,363261
1184.44,0.105261,467657,367000
1187.99,0.106891,473969,370560
1191.52,0.106432,479856,375560
1195.06,0.106398,487372,381472
1199.76,0.105299,497347,390266
1203.29,0.104952,504311,396047
1206.81,0.104725,511507,401908
1210.33,0.103445,519078,409061
1213.84,0.103166,527163,415699
1217.35,0.102259,534208,422135
1220.85,0.101984,540472,427355
1225.51,0.101242,549929,435577
1229.01,0.100817,556888,441520
1232.5,0.099928,562180,446630
1235.98,0.099429,567975,451752
1239.46,0.098985,574815,457660
1242.94,0.097785,582782,465287
1246.41,0.096674,591476,473438
1251.03,0.096970,604016,483146
1254.5,0.097538,612289,489123
1257.96,0.097468,619125,494664
1261.41,0.097606,624551,498841
1264.86,0.098158,629900,502474
1268.31,0.099093,634345,504931
1271.75,0.099369,638574,507975
1276.33,0.099741,642499,510659
1279.76,0.099665,645905,513456
1283.19,0.099574,648307,515474
1286.61,0.099089,650446,517753
1290.03,0.098667,652132,519599
1293.44,0.098072,653907,521728
1296.85,0.097731,655963,523779
1301.39,0.098001,657349,524560
1304.8,0.097768,657558,525008
1308.19,0.098446,658515,524952
1311.58,0.098310,658804,525347
1314.97,0.098878,659011,524825
1318.36,0.099395,658272,523613
1321.73,0.099765,658022,522968
1326.23,0.100603,657870,521840
1329.6,0.101654,656482,519480
1332.97,0.102552,654926,517178
1336.33,0.103762,653727,514795
1339.69,0.105937,652497,511260
1343.04,0.107416,649913,507504
1346.39,0.109284,647671,503582
1349.73,0.111468,645338,499251
1354.18,0.114488,641175,492593
1357.52,0.116273,638376,488431
1360.85,0.118466,635805,484014
1364.17,0.120091,633413,480392
1367.49,0.123249,631026,475115
1370.81,0.124630,628050,471372
1374.12,0.127269,625034,466267
1378.54,0.130196,620272,459606
1381.84,0.133777,616892,453348
1385.14,0.137290,613613,447306
1388.43,0.141695,611526,441286
1391.72,0.147059,610663,435254
1395.01,0.151999,610634,430311
1398.29,0.157738,611700,425403
1402.66,0.165327,614051,419641
1405.93,0.171156,616268,415541
1409.2,0.176773,617795,411217
1412.46,0.182370,618872,406659
1415.72,0.187089,619795,402865
1418.98,0.191280,620495,399446
1422.23,0.195125,621087,396303
1426.56,0.200233,621375,391851
1429.8,0.202343,621616,390103
1433.04,0.204969,622129,388071
1436.27,0.207009,621526,385878
1439.5,0.209110,621113,383761
1442.72,0.211461,620921,381571
1445.94,0.214107,620270,378856
1450.23,0.217188,618860,375322
1453.44,0.220387,617697,371868
1456.64,0.222216,616264,369446
1459.85,0.225541,614413,365527
1463.04,0.227607,612307,362545
1466.24,0.230734,610032,358607
1469.43,0.233806,607345,354511
1473.67,0.238709,603789,348479
1476.85,0.242855,601175,343673
1480.02,0.247542,597737,338040
1483.19,0.253059,594479,331954
1486.36,0.258266,591232,326206
1489.52,0.262224,587853,321399
1492.68,0.265135,583875,317092
1496.89,0.266822,578062,312718
1500.03,0.267488,574159,310130
1503.18,0.267186,570285,308252
1506.32,0.266047,565444,306438
1509.45,0.264834,560571,304647
1512.58,0.263002,555821,303342
1515.71,0.261632,550344,301302
1519.87,0.257791,543983,300465
1522.99,0.256127,538764,298725
1526.1,0.254432,533692,297070
1529.21,0.250904,527902,296244
1532.32,0.247718,521886,295024
1535.42,0.245276,515888,293278
1538.51,0.242737,509987,291623
1541.6,0.240007,503936,289980
1545.72,0.235546,494694,287601
1548.8,0.232695,488378,285799
1551.88,0.230229,481832,283574
1554.95,0.228305,474989,280788
1558.02,0.226509,467818,277695
1561.08,0.225379,460730,274200
1564.15,0.224764,454170,270679
1568.22,0.223553,444181,265465
1571.27,0.222441,436947,261811
1574.32,0.222202,429598,257549
1577.36,0.220174,422039,254202
1580.4,0.219139,414375,250181
1583.43,0.217955,406354,246008
1586.46,0.215664,398475,242514
1590.49,0.213827,388982,237740
1593.51,0.211291,380708,234046
1596.53,0.210788,372727,229405
1599.54,0.208262,365060,225997
1602.55,0.206614,357543,222185
1605.55,0.204214,349495,218387
1608.55,0.202581,341154,213978
1612.54,0.199953,330877,208792
1615.53,0.197920,322904,204717
1618.51,0.197230,315116,200097
1621.49,0.195653,307217,195791
1624.47,0.194468,299481,191382
1627.44,0.195008,292112,186441
1630.41,0.194132,284245,181786
1634.36,0.191062,274079,176528
1637.32,0.189752,266916,172434
1640.27,0.190217,259612,167536
1643.22,0.188774,251804,163038
1646.16,0.186388,244348,159082
1649.1,0.186675,236703,154003
1652.04,0.185313,228171,148918
1655.95,0.183935,215408,141035
1658.88,0.179979,204937,135407
1661.8,0.174733,193395,129334
1664.72,0.165474,179728,122784
1667.63,0.154786,163642,114580
1670.54,0.141846,146312,105544
1673.44,0.125743,128451,96160
1677.31,0.107616,105080,82017
1680.21,0.095622,88906,71336
1683.1,0.091134,75033,60830
1685.99,0.091382,63520,51467
1688.87,0.093600,53714,43300
1691.75,0.104786,45653,35866
1694.62,0.103741,39137,30821
1697.49,0.113685,33776,25997
1701.31,0.118416,28175,21451