File: samples/wool/wool-000811/Column 1_050615_20150331_123048.csv
Method:,Column 1,,
Host Date-Time:,31/3/15 @ 12:30:48,,
Header Version:,1,,
System Temp (C):,34.1,,
Detector Temp (C):,34.93,,
Humidity (%):,1.66,,
Lamp PD:,3818,,
Shift Vector Coefficients:,-10.5391,0.0761263,-0.000134223,,
Pixel to Wavelength Coefficients:,1775.68,-0.916766,-0.000235065,,
Serial Number:,5510004,,
Scan Config Name:,Column 1,,
Scan Config Type:,Slew,,
Section 1,,
Start wavelength (nm):,900,,
End wavelength (nm):,1700,,
Pattern Pixel Width (nm):,   7.03,,,,
Exposure (ms):,  0.635,,,,
Digital Resolution:,228,,
Num Repeats:,6,,
PGA Gain:,64,,
Total Measurement Time in sec:,  2.700,,
Wavelength (nm),Absorbance (AU),Reference Signal (unitless),Sample Signal (unitless)
901.51,0.069280,108485,92489
905.376,0.076250,121306,101773
909.237,0.078207,131909,110171
913.095,0.077004,143299,120016
916.948,0.078241,156982,131102
922.079,0.080052,179937,149647
925.923,0.081814,200504,166077
929.762,0.082041,222660,184332
933.597,0.082790,244426,202003
937.427,0.080862,263972,219127
941.254,0.080264,281845,234286
945.076,0.079319,297271,247647
950.165,0.078202,315605,263598
953.978,0.077867,328029,274186
957.786,0.077354,340470,284921
961.59,0.077826,352317,294515
965.389,0.077575,363056,303668
969.185,0.077395,373162,312250
972.976,0.077783,382632,319888
976.763,0.078904,391202,326210
981.806,0.078941,400190,333676
985.583,0.079813,406088,337915
989.355,0.079892,410162,341243
993.124,0.080782,412868,342791
996.888,0.081148,414263,343659
1000.65,0.081889,415476,344078
1004.4,0.082390,415479,343684
1009.41,0.083854,414358,341603
1013.15,0.084181,412923,340164
1016.89,0.084899,411526,338453
1020.63,0.084828,409066,336485
1024.36,0.084920,406777,334531
1028.09,0.084409,404427,332990
1031.82,0.084725,401911,330678
1036.78,0.083944,398410,328387
1040.49,0.084080,396204,326467
1044.2,0.083838,394236,325026
1047.91,0.083372,392042,323564
1051.61,0.082854,389823,322117
1055.31,0.082712,388234,320909
1059,0.081910,387599,320976
1063.92,0.081660,386688,320406
1067.61,0.080921,386598,320877
1071.29,0.080221,387377,322042
1074.96,0.079484,388536,323554
1078.63,0.079540,389855,324611
1082.3,0.078393,391215,326605
1085.96,0.078039,393215,328542
1090.84,0.076500,396270,332270
1094.49,0.076047,398760,334707
1098.14,0.075066,400987,337337
1101.79,0.075062,403477,339435
1105.43,0.075090,406116,341633
1109.06,0.074028,407701,343806
1112.7,0.073437,409859,346097
1117.53,0.073096,412494,348595
1121.15,0.074256,414909,349701
1124.77,0.073603,416559,351620
1128.38,0.075052,418532,352109
1131.99,0.075736,419956,352751
1135.6,0.077592,421946,352911
1139.2,0.078604,423881,353704
1143.99,0.080834,426786,354304
1147.58,0.080968,428617,355714
1151.17,0.082767,431169,356353
1154.75,0.082783,433579,358332
1158.33,0.084319,436264,359278
1161.91,0.086535,439132,359799
1165.48,0.088504,442389,360828
1169.04,0.090470,446101,362212
1173.79,0.093971,451929,363998
1177.34,0.096382,456026,365265
1180.9,0.097930,461306,368179
1184.44,0.100097,467657,371390
1187.99,0.100408,473969,376133
1191.52,0.101212,479856,380101
1195.06,0.101135,487372,386123
1199.76,0.100170,497347,394902
1203.29,0.099662,504311,400900
1206.81,0.099208,511507,407046
1210.33,0.098575,519078,413673
1213.84,0.097853,527163,420816
1217.35,0.097275,534208,427007
1220.85,0.096320,540472,432965
1225.51,0.095459,549929,441416
1229.01,0.095505,556888,446954
1232.5,0.094712,562180,452026
1235.98,0.094187,567975,457238
1239.46,0.093092,574815,463912
1242.94,0.092642,582782,470830
1246.41,0.091935,591476,478632
1251.03,0.091619,604016,489136
1254.5,0.091456,612289,496021
1257.96,0.092358,619125,500519
1261.41,0.092431,624551,504820
1264.86,0.092905,629900,508588
1268.31,0.093607,634345,511350
1271.75,0.094551,638574,513642
1276.33,0.094152,642499,517274
1279.76,0.094216,645905,519939
1283.19,0.093654,648307,522549
1286.61,0.093254,650446,524756
1290.03,0.093223,652132,526153
1293.44,0.092539,653907,528417
1296.85,0.092614,655963,529987
1301.39,0.091962,657349,531905
1304.8,0.092105,657558,531899
1308.19,0.091996,658515,532807
1311.58,0.092115,658804,532894
1314.97,0.092788,659011,532237
1318.36,0.093295,658272,531019
1321.73,0.093270,658022,530848
1326.23,0.094073,657870,529745
1329.6,0.094789,656482,527757
1332.97,0.095570,654926,525560
1336.33,0.096415,653727,523578
1339.69,0.097678,652497,521075
1343.04,0.099428,649913,516925
1346.39,0.101539,647671,512644
1349.73,0.103296,645338,508734
1354.18,0.106339,641175,501924
1357.52,0.108140,638376,497664
1360.85,0.110076,635805,493456
1364.17,0.112286,633413,489104
1367.49,0.114383,631026,484914
1370.81,0.117023,628050,479702
1374.12,0.118781,625034,475470
1378.54,0.121868,620272,468505
1381.84,0.124385,616892,463259
1385.14,0.127127,613613,457897
1388.43,0.130908,611526,452384
1391.72,0.135378,610663,447119
1395.01,0.138590,610634,443804
1398.29,0.143013,611700,440074
1402.66,0.149083,614051,435634
1405.93,0.153481,616268,432801
1409.2,0.158624,617795,428766
1412.46,0.162683,618872,425518
1415.72,0.166488,619795,422435
1418.98,0.170014,620495,419493
1422.23,0.173060,621087,416958
1426.56,0.177187,621375,413206
1429.8,0.179237,621616,411420
1433.04,0.181814,622129,409323
1436.27,0.184151,621526,406732
1439.5,0.186462,621113,404305
1442.72,0.189215,620921,401626
1445.94,0.191737,620270,398881
1450.23,0.194866,618860,395118
1453.44,0.197811,617697,391710
1456.64,0.199818,616264,388999
1459.85,0.203125,614413,384889
1463.04,0.205705,612307,381298
1466.24,0.209319,610032,376733
1469.43,0.213633,607345,371366
1473.67,0.219548,603789,364198
1476.85,0.225501,601175,357684
1480.02,0.232110,597737,350268
1483.19,0.237819,594479,343809
1486.36,0.244399,591232,336790
1489.52,0.249042,587853,331304
1492.68,0.252493,583875,326458
1496.89,0.255015,578062,321336
1500.03,0.255130,574159,319082
1503.18,0.255262,570285,316833
1506.32,0.254017,565444,315045
1509.45,0.253022,560571,313046
1512.58,0.250989,555821,311850
1515.71,0.248929,550344,310245
1519.87,0.246429,543983,308430
1522.99,0.243535,538764,307513
1526.1,0.241233,533692,306237
1529.21,0.238308,527902,304962
1532.32,0.235049,521886,303757
1535.42,0.232352,515888,302137
1538.51,0.229798,509987,300442
1541.6,0.227008,503936,298791
1545.72,0.221677,494694,296934
1548.8,0.220167,488378,294164
1551.88,0.217413,481832,292067
1554.95,0.215110,474989,289450
1558.02,0.213638,467818,286048
1561.08,0.212430,460730,282499
1564.15,0.212354,454170,278525
1568.22,0.211291,444181,273067
1571.27,0.210849,436947,268893
1574.32,0.209757,429598,265036
1577.36,0.208712,422039,261000
1580.4,0.207148,414375,257185
1583.43,0.206389,406354,252648
1586.46,0.204900,398475,248600
1590.49,0.202727,388982,243895
1593.51,0.200674,380708,239838
1596.53,0.198849,372727,235799
1599.54,0.196749,365060,232068
1602.55,0.195032,357543,228190
1605.55,0.192356,349495,224432
1608.55,0.190615,341154,219956
1612.54,0.189196,330877,214028
1615.53,0.187688,322904,209597
1618.51,0.186153,315116,205266
1621.49,0.185652,307217,200352
1624.47,0.184692,299481,195739
1627.44,0.183533,292112,191433
1630.41,0.183172,284245,186432
1634.36,0.181218,274079,180575
1637.32,0.180071,266916,176321
1640.27,0.179613,259612,171677
1643.22,0.179098,251804,166711
1646.16,0.178405,244348,162033
1649.1,0.176741,236703,157566
1652.04,0.175846,228171,152200
1655.95,0.172250,215408,144881
1658.88,0.169569,204937,138692
1661.8,0.162992,193395,132878
1664.72,0.155581,179728,125613
1667.63,0.143307,163642,117649
1670.54,0.128272,146312,108895
1673.44,0.112822,128451,99064
1677.31,0.090113,105080,85390
1680.21,0.080845,88906,73805
1683.1,0.074528,75033,63201
1685.99,0.076738,63520,53232
1688.87,0.078219,53714,44861
1691.75,0.081449,45653,37846
1694.62,0.088987,39137,31886
1697.49,0.087542,33776,27610
1701.31,0.103785,28175,22186