File: samples/wool/wool-000811/Column 1_050564_20150331_120618.csv
Method:,Column 1,,
Host Date-Time:,31/3/15 @ 12:6:18,,
Header Version:,1,,
System Temp (C):,33.85,,
Detector Temp (C):,33.6,,
Humidity (%):,1.95,,
Lamp PD:,3819,,
Shift Vector Coefficients:,-10.5391,0.0761263,-0.000134223,,
Pixel to Wavelength Coefficients:,1775.68,-0.916766,-0.000235065,,
Serial Number:,5510004,,
Scan Config Name:,Column 1,,
Scan Config Type:,Slew,,
Section 1,,
Start wavelength (nm):,900,,
End wavelength (nm):,1700,,
Pattern Pixel Width (nm):,   7.03,,,,
Exposure (ms):,  0.635,,,,
Digital Resolution:,228,,
Num Repeats:,6,,
PGA Gain:,64,,
Total Measurement Time in sec:,  2.687,,
Wavelength (nm),Absorbance (AU),Reference Signal (unitless),Sample Signal (unitless)
901.51,0.034537,108485,100192
905.376,0.039990,121306,110635
909.237,0.041901,131909,119777
913.095,0.043330,143299,129692
916.948,0.043198,156982,142119
922.079,0.047462,179937,161309
925.923,0.046942,200504,179962
929.762,0.048056,222660,199336
933.597,0.048561,244426,218568
937.427,0.047391,263972,236683
941.254,0.046926,281845,252979
945.076,0.046111,297271,267326
950.165,0.046029,315605,283867
953.978,0.045719,328029,295252
957.786,0.045420,340470,306661
961.59,0.046125,352317,316817
965.389,0.046361,363056,326297
969.185,0.046828,373162,335019
972.976,0.046647,382632,343664
976.763,0.047775,391202,350450
981.806,0.048546,400190,357866
985.583,0.048723,406088,362992
989.355,0.049071,410162,366340
993.124,0.049884,412868,368067
996.888,0.050522,414263,368769
1000.65,0.051214,415476,369260
1004.4,0.052555,415479,368124
1009.41,0.053897,414358,365998
1013.15,0.054089,412923,364569
1016.89,0.055043,411526,362539
1020.63,0.055147,409066,360285
1024.36,0.054672,406777,358661
1028.09,0.054639,404427,356616
1031.82,0.054304,401911,354671
1036.78,0.054018,398410,351813
1040.49,0.053241,396204,350492
1044.2,0.053200,394236,348784
1047.91,0.053186,392042,346854
1051.61,0.051928,389823,345891
1055.31,0.051212,388234,345050
1059,0.050912,387599,344723
1063.92,0.049666,386688,344901
1067.61,0.049117,386598,345257
1071.29,0.049089,387377,345975
1074.96,0.047865,388536,347990
1078.63,0.048283,389855,348835
1082.3,0.047071,391215,351030
1085.96,0.045891,393215,353785
1090.84,0.045627,396270,356750
1094.49,0.045639,398760,358982
1098.14,0.044815,400987,361672
1101.79,0.044178,403477,364452
1105.43,0.044537,406116,366533
1109.06,0.044236,407701,368219
1112.7,0.043899,409859,370455
1117.53,0.044124,412494,372644
1121.15,0.044865,414909,374186
1124.77,0.045443,416559,375175
1128.38,0.046713,418532,375851
1131.99,0.047926,419956,376078
1135.6,0.049621,421946,376388
1139.2,0.051323,423881,376635
1143.99,0.053673,426786,377170
1147.58,0.055123,428617,377526
1151.17,0.055985,431169,379020
1154.75,0.057192,433579,380081
1158.33,0.059423,436264,380475
1161.91,0.061194,439132,381418
1165.48,0.063166,442389,382506
1169.04,0.066555,446101,382717
1173.79,0.070132,451929,384537
1177.34,0.072659,456026,385772
1180.9,0.074365,461306,388709
1184.44,0.076810,467657,391848
1187.99,0.077567,473969,396445
1191.52,0.077555,479856,401380
1195.06,0.076790,487372,408386
1199.76,0.075829,497347,417667
1203.29,0.075350,504311,423983
1206.81,0.074781,511507,430597
1210.33,0.073538,519078,438222
1213.84,0.072719,527163,445888
1217.35,0.071721,534208,452887
1220.85,0.071274,540472,458669
1225.51,0.070322,549929,467719
1229.01,0.069716,556888,474299
1232.5,0.068923,562180,479681
1235.98,0.068476,567975,485125
1239.46,0.067395,574815,492190
1242.94,0.066112,582782,500488
1246.41,0.065912,591476,508189
1251.03,0.065695,604016,519223
1254.5,0.065690,612289,526340
1257.96,0.066255,619125,531525
1261.41,0.066599,624551,535758
1264.86,0.067303,629900,539472
1268.31,0.067985,634345,542426
1271.75,0.069148,638574,544582
1276.33,0.069162,642499,547911
1279.76,0.069058,645905,550948
1283.19,0.068582,648307,553603
1286.61,0.068818,650446,555128
1290.03,0.067581,652132,558154
1293.44,0.067261,653907,560086
1296.85,0.067410,655963,561654
1301.39,0.066951,657349,563436
1304.8,0.067171,657558,563330
1308.19,0.067079,658515,564270
1311.58,0.067154,658804,564420
1314.97,0.067689,659011,563902
1318.36,0.068413,658272,562332
1321.73,0.068615,658022,561857
1326.23,0.069355,657870,560770
1329.6,0.070545,656482,558056
1332.97,0.071506,654926,555503
1336.33,0.072364,653727,553392
1339.69,0.074586,652497,549532
1343.04,0.076237,649913,545278
1346.39,0.078380,647671,540723
1349.73,0.080646,645338,535971
1354.18,0.083878,641175,528565
1357.52,0.086147,638376,523515
1360.85,0.088191,635805,518959
1364.17,0.090623,633413,514119
1367.49,0.093318,631026,509013
1370.81,0.095360,628050,504236
1374.12,0.097976,625034,498801
1378.54,0.101182,620272,491360
1381.84,0.104719,616892,484719
1385.14,0.108366,613613,478111
1388.43,0.113421,611526,470971
1391.72,0.117808,610663,465579
1395.01,0.122916,610634,460113
1398.29,0.128453,611700,455078
1402.66,0.135816,614051,449147
1405.93,0.141802,616268,444598
1409.2,0.146870,617795,440529
1412.46,0.152159,618872,435955
1415.72,0.156823,619795,431942
1418.98,0.160926,620495,428363
1422.23,0.164926,621087,424841
1426.56,0.168652,621375,421407
1429.8,0.171591,621616,418727
1433.04,0.174180,622129,416582
1436.27,0.176645,621526,413823
1439.5,0.178871,621113,411433
1442.72,0.181528,620921,408798
1445.94,0.184542,620270,405545
1450.23,0.187497,618860,401879
1453.44,0.190999,617697,397902
1456.64,0.193332,616264,394852
1459.85,0.196548,614413,390762
1463.04,0.199393,612307,386880
1466.24,0.203094,610032,382172
1469.43,0.206814,607345,377243
1473.67,0.212310,603789,370318
1476.85,0.217765,601175,364113
1480.02,0.224096,597737,356791
1483.19,0.230976,594479,349269
1486.36,0.236337,591232,343100
1489.52,0.241854,587853,336833
1492.68,0.245004,583875,332136
1496.89,0.247409,578062,327013
1500.03,0.248222,574159,324198
1503.18,0.248625,570285,321712
1506.32,0.247991,565444,319447
1509.45,0.246516,560571,317771
1512.58,0.244998,555821,316182
1515.71,0.242366,550344,314969
1519.87,0.239166,543983,313631
1522.99,0.236343,538764,312648
1526.1,0.233767,533692,311547
1529.21,0.230776,527902,310297
1532.32,0.227551,521886,309047
1535.42,0.225049,515888,307260
1538.51,0.221757,509987,306057
1541.6,0.217989,503936,305061
1545.72,0.213175,494694,302804
1548.8,0.210360,488378,300882
1551.88,0.208420,481832,298178
1554.95,0.205593,474989,295863
1558.02,0.203905,467818,292531
1561.08,0.202474,460730,289050
1564.15,0.202431,454170,284962
1568.22,0.201085,444181,279560
1571.27,0.199740,436947,275860
1574.32,0.199069,429598,271640
1577.36,0.197544,422039,267799
1580.4,0.196111,414375,263805
1583.43,0.194453,406354,259688
1586.46,0.193233,398475,255369
1590.49,0.190247,388982,251005
1593.51,0.188611,380708,246593
1596.53,0.186038,372727,242858
1599.54,0.183774,365060,239106
1602.55,0.181559,357543,235380
1605.55,0.179147,349495,231363
1608.55,0.177124,341154,226896
1612.54,0.175304,330877,220985
1615.53,0.172522,322904,217046
1618.51,0.172090,315116,212022
1621.49,0.170970,307217,207241
1624.47,0.170114,299481,202421
1627.44,0.168347,292112,198245
1630.41,0.168001,284245,193060
1634.36,0.165667,274079,187158
1637.32,0.164910,266916,182585
1640.27,0.164723,259612,177665
1643.22,0.162919,251804,173039
1646.16,0.161502,244348,168464
1649.1,0.161939,236703,163029
1652.04,0.159994,228171,157858
1655.95,0.157127,215408,150015
1658.88,0.154548,204937,143573
1661.8,0.149535,193395,137060
1664.72,0.142681,179728,129400
1667.63,0.133510,163642,120333
1670.54,0.123631,146312,110065
1673.44,0.109050,128451,99928
1677.31,0.092403,105080,84941
1680.21,0.089318,88906,72379
1683.1,0.083470,75033,61913
1685.99,0.089244,63520,51721
1688.87,0.095761,53714,43085
1691.75,0.101265,45653,36158
1694.62,0.107193,39137,30577
1697.49,0.105871,33776,26469
1701.31,0.119308,28175,21407