File: samples/wool/wool-000811/Column 1_050534_20150331_115221.csv
Method:,Column 1,,
Host Date-Time:,31/3/15 @ 11:52:21,,
Header Version:,1,,
System Temp (C):,31.06,,
Detector Temp (C):,30.29,,
Humidity (%):,4.1,,
Lamp PD:,3828,,
Shift Vector Coefficients:,-10.5391,0.0761263,-0.000134223,,
Pixel to Wavelength Coefficients:,1775.68,-0.916766,-0.000235065,,
Serial Number:,5510004,,
Scan Config Name:,Column 1,,
Scan Config Type:,Slew,,
Section 1,,
Start wavelength (nm):,900,,
End wavelength (nm):,1700,,
Pattern Pixel Width (nm):,   7.03,,,,
Exposure (ms):,  0.635,,,,
Digital Resolution:,228,,
Num Repeats:,6,,
PGA Gain:,64,,
Total Measurement Time in sec:,  2.682,,
Wavelength (nm),Absorbance (AU),Reference Signal (unitless),Sample Signal (unitless)
901.51,0.043316,108485,98187
905.376,0.049960,121306,108124
909.237,0.052196,131909,116971
913.095,0.049172,143299,127959
916.948,0.050625,156982,139709
922.079,0.050878,179937,160045
925.923,0.049945,200504,178722
929.762,0.051041,222660,197971
933.597,0.051732,244426,216978
937.427,0.052528,263972,233900
941.254,0.052848,281845,249553
945.076,0.052565,297271,263383
950.165,0.052773,315605,279493
953.978,0.052079,328029,290960
957.786,0.053201,340470,301216
961.59,0.054760,352317,310580
965.389,0.054300,363056,320386
969.185,0.055025,373162,328755
972.976,0.055674,382632,336595
976.763,0.056086,391202,343807
981.806,0.056207,400190,351608
985.583,0.057970,406088,355345
989.355,0.058064,410162,358832
993.124,0.058794,412868,360593
996.888,0.058529,414263,362032
1000.65,0.059871,415476,361972
1004.4,0.060863,415479,361149
1009.41,0.062441,414358,358868
1013.15,0.063152,412923,357040
1016.89,0.063643,411526,355430
1020.63,0.063591,409066,353348
1024.36,0.063541,406777,351411
1028.09,0.062355,404427,350336
1031.82,0.062908,401911,347714
1036.78,0.062178,398410,345265
1040.49,0.061412,396204,343959
1044.2,0.061045,394236,342540
1047.91,0.060125,392042,341356
1051.61,0.060245,389823,339330
1055.31,0.058836,388234,339045
1059,0.058097,387599,339067
1063.92,0.057575,386688,338677
1067.61,0.055866,386598,339933
1071.29,0.055430,387377,340960
1074.96,0.054648,388536,342597
1078.63,0.054188,389855,344124
1082.3,0.053803,391215,345631
1085.96,0.052877,393215,348139
1090.84,0.051309,396270,352113
1094.49,0.050937,398760,354629
1098.14,0.050897,400987,356643
1101.79,0.050657,403477,359056
1105.43,0.050821,406116,361268
1109.06,0.049907,407701,363442
1112.7,0.050254,409859,365074
1117.53,0.050495,412494,367217
1121.15,0.050684,414909,369206
1124.77,0.051600,416559,369893
1128.38,0.053019,418532,370433
1131.99,0.055043,419956,369965
1135.6,0.056711,421946,370293
1139.2,0.058599,423881,370378
1143.99,0.061442,426786,370483
1147.58,0.062642,428617,371046
1151.17,0.064598,431169,371578
1154.75,0.066210,433579,372270
1158.33,0.068299,436264,372778
1161.91,0.071010,439132,372894
1165.48,0.073554,442389,373465
1169.04,0.076484,446101,374067
1173.79,0.081088,451929,374958
1177.34,0.083382,456026,376364
1180.9,0.085784,461306,378621
1184.44,0.087494,467657,382326
1187.99,0.088600,473969,386500
1191.52,0.087914,479856,391920
1195.06,0.087379,487372,398549
1199.76,0.086521,497347,407510
1203.29,0.084558,504311,415088
1206.81,0.083316,511507,422217
1210.33,0.082161,519078,429607
1213.84,0.081373,527163,437091
1217.35,0.080483,534208,443841
1220.85,0.079220,540472,450353
1225.51,0.077675,549929,459866
1229.01,0.076913,556888,466503
1232.5,0.076081,562180,471840
1235.98,0.075479,567975,477365
1239.46,0.074324,574815,484400
1242.94,0.072931,582782,492692
1246.41,0.072251,591476,500825
1251.03,0.071756,604016,512027
1254.5,0.071767,612289,519026
1257.96,0.072430,619125,524020
1261.41,0.072637,624551,528361
1264.86,0.073553,629900,531764
1268.31,0.073792,634345,535222
1271.75,0.074637,638574,537742
1276.33,0.075193,642499,540355
1279.76,0.074873,645905,543620
1283.19,0.074932,648307,545568
1286.61,0.074001,650446,548543
1290.03,0.073671,652132,550383
1293.44,0.073414,653907,552207
1296.85,0.073214,655963,554199
1301.39,0.073156,657349,555444
1304.8,0.072783,657558,556098
1308.19,0.072884,658515,556777
1311.58,0.073356,658804,556417
1314.97,0.074263,659011,555430
1318.36,0.074670,658272,554288
1321.73,0.075340,658022,553223
1326.23,0.076104,657870,552123
1329.6,0.077248,656482,549509
1332.97,0.078399,654926,546756
1336.33,0.080237,653727,543450
1339.69,0.081595,652497,540734
1343.04,0.084077,649913,535523
1346.39,0.086355,647671,530884
1349.73,0.089001,645338,525759
1354.18,0.092503,641175,518172
1357.52,0.095035,638376,512910
1360.85,0.097169,635805,508341
1364.17,0.099906,633413,503247
1367.49,0.102451,631026,498421
1370.81,0.105475,628050,492628
1374.12,0.107928,625034,487501
1378.54,0.111817,620272,479474
1381.84,0.115852,616892,472451
1385.14,0.120832,613613,464582
1388.43,0.126142,611526,457376
1391.72,0.132134,610663,450472
1395.01,0.138075,610634,444330
1398.29,0.144981,611700,438084
1402.66,0.153628,614051,431098
1405.93,0.161163,616268,425213
1409.2,0.167718,617795,419881
1412.46,0.174088,618872,414489
1415.72,0.179705,619795,409773
1418.98,0.184393,620495,405831
1422.23,0.188860,621087,402061
1426.56,0.193945,621375,397566
1429.8,0.197385,621616,394582
1433.04,0.200386,622129,392188
1436.27,0.203350,621526,389143
1439.5,0.204822,621113,387569
1442.72,0.208043,620921,384586
1445.94,0.210528,620270,381991
1450.23,0.213986,618860,378100
1453.44,0.217168,617697,374634
1456.64,0.219665,616264,371622
1459.85,0.222446,614413,368141
1463.04,0.225322,612307,364458
1466.24,0.228273,610032,360645
1469.43,0.231303,607345,356560
1473.67,0.236186,603789,350509
1476.85,0.240364,601175,345650
1480.02,0.245700,597737,339477
1483.19,0.251557,594479,333104
1486.36,0.257514,591232,326771
1489.52,0.262296,587853,321346
1492.68,0.265832,583875,316583
1496.89,0.268908,578062,311219
1500.03,0.269310,574159,308832
1503.18,0.269714,570285,306463
1506.32,0.269586,565444,303951
1509.45,0.268273,560571,302244
1512.58,0.267124,555821,300477
1515.71,0.264384,550344,299399
1519.87,0.261502,543983,297909
1522.99,0.258465,538764,297121
1526.1,0.256119,533692,295918
1529.21,0.252989,527902,294825
1532.32,0.249806,521886,293609
1535.42,0.246404,515888,292517
1538.51,0.243281,509987,291258
1541.6,0.240166,503936,289874
1545.72,0.234842,494694,288068
1548.8,0.232480,488378,285941
1551.88,0.228340,481832,284810
1554.95,0.226496,474989,281960
1558.02,0.224466,467818,279004
1561.08,0.222928,460730,275752
1564.15,0.222399,454170,272157
1568.22,0.220399,444181,267400
1571.27,0.220501,436947,262983
1574.32,0.218473,429598,259770
1577.36,0.217464,422039,255793
1580.4,0.215191,414375,252466
1583.43,0.213833,406354,248354
1586.46,0.211668,398475,244756
1590.49,0.209508,388982,240116
1593.51,0.206983,380708,236379
1596.53,0.204318,372727,232848
1599.54,0.201773,365060,229399
1602.55,0.200359,357543,225408
1605.55,0.198577,349495,221240
1608.55,0.195204,341154,217644
1612.54,0.192966,330877,212178
1615.53,0.190505,322904,208242
1618.51,0.188121,315116,204338
1621.49,0.187598,307217,199456
1624.47,0.185867,299481,195210
1627.44,0.184007,292112,191224
1630.41,0.182388,284245,186769
1634.36,0.181485,274079,180464
1637.32,0.180327,266916,176217
1640.27,0.179377,259612,171770
1643.22,0.177777,251804,167219
1646.16,0.177827,244348,162249
1649.1,0.176565,236703,157630
1652.04,0.176094,228171,152113
1655.95,0.175702,215408,143734
1658.88,0.173826,204937,137339
1661.8,0.173716,193395,129637
1664.72,0.170039,179728,121500
1667.63,0.168013,163642,111143
1670.54,0.166524,146312,99714
1673.44,0.164181,128451,88015
1677.31,0.160542,105080,72607
1680.21,0.160176,88906,61483
1683.1,0.164213,75033,51409
1685.99,0.167578,63520,43185
1688.87,0.177176,53714,35720
1691.75,0.181466,45653,30061
1694.62,0.178601,39137,25941
1697.49,0.188263,33776,21895
1701.31,0.190055,28175,18189