File: samples/wool/wool-000811/Column 1_050573_20150331_121100.csv
Method:,Column 1,,
Host Date-Time:,31/3/15 @ 12:11:0,,
Header Version:,1,,
System Temp (C):,34.16,,
Detector Temp (C):,34.38,,
Humidity (%):,1.71,,
Lamp PD:,3819,,
Shift Vector Coefficients:,-10.5391,0.0761263,-0.000134223,,
Pixel to Wavelength Coefficients:,1775.68,-0.916766,-0.000235065,,
Serial Number:,5510004,,
Scan Config Name:,Column 1,,
Scan Config Type:,Slew,,
Section 1,,
Start wavelength (nm):,900,,
End wavelength (nm):,1700,,
Pattern Pixel Width (nm):,   7.03,,,,
Exposure (ms):,  0.635,,,,
Digital Resolution:,228,,
Num Repeats:,6,,
PGA Gain:,64,,
Total Measurement Time in sec:,  2.666,,
Wavelength (nm),Absorbance (AU),Reference Signal (unitless),Sample Signal (unitless)
901.51,0.034524,108485,100195
905.376,0.041787,121306,110178
909.237,0.044148,131909,119159
913.095,0.045384,143299,129080
916.948,0.045576,156982,141343
922.079,0.047228,179937,161396
925.923,0.049229,200504,179017
929.762,0.049827,222660,198525
933.597,0.049838,244426,217926
937.427,0.048872,263972,235877
941.254,0.048184,281845,252247
945.076,0.046713,297271,266956
950.165,0.046628,315605,283476
953.978,0.046162,328029,294951
957.786,0.046414,340470,305960
961.59,0.046840,352317,316296
965.389,0.047509,363056,325435
969.185,0.047768,373162,334295
972.976,0.047202,382632,343225
976.763,0.048453,391202,349903
981.806,0.048627,400190,357799
985.583,0.048742,406088,362976
989.355,0.049721,410162,365792
993.124,0.050270,412868,367740
996.888,0.050595,414263,368707
1000.65,0.051618,415476,368916
1004.4,0.053046,415479,367708
1009.41,0.054136,414358,365797
1013.15,0.054529,412923,364200
1016.89,0.055221,411526,362390
1020.63,0.055009,409066,360400
1024.36,0.054627,406777,358698
1028.09,0.054392,404427,356819
1031.82,0.054459,401911,354545
1036.78,0.053894,398410,351914
1040.49,0.054030,396204,349856
1044.2,0.053545,394236,348507
1047.91,0.053262,392042,346793
1051.61,0.052281,389823,345610
1055.31,0.051885,388234,344515
1059,0.051404,387599,344333
1063.92,0.050807,386688,343996
1067.61,0.049258,386598,345145
1071.29,0.049265,387377,345835
1074.96,0.048872,388536,347184
1078.63,0.048137,389855,348952
1082.3,0.046813,391215,351239
1085.96,0.046017,393215,353682
1090.84,0.045512,396270,356845
1094.49,0.045511,398760,359088
1098.14,0.044939,400987,361569
1101.79,0.044777,403477,363950
1105.43,0.044951,406116,366184
1109.06,0.044456,407701,368032
1112.7,0.044006,409859,370364
1117.53,0.044505,412494,372317
1121.15,0.045142,414909,373948
1124.77,0.045408,416559,375205
1128.38,0.046972,418532,375627
1131.99,0.048383,419956,375682
1135.6,0.049890,421946,376155
1139.2,0.051546,423881,376442
1143.99,0.054217,426786,376698
1147.58,0.055044,428617,377594
1151.17,0.056312,431169,378735
1154.75,0.057985,433579,379388
1158.33,0.058803,436264,381019
1161.91,0.061145,439132,381461
1165.48,0.063308,442389,382381
1169.04,0.066071,446101,383144
1173.79,0.069851,451929,384786
1177.34,0.072285,456026,386104
1180.9,0.074123,461306,388925
1184.44,0.076701,467657,391946
1187.99,0.077723,473969,396303
1191.52,0.076859,479856,402024
1195.06,0.076771,487372,408404
1199.76,0.075592,497347,417895
1203.29,0.075014,504311,424311
1206.81,0.074363,511507,431011
1210.33,0.073646,519078,438113
1213.84,0.072697,527163,445911
1217.35,0.072041,534208,452553
1220.85,0.071202,540472,458745
1225.51,0.070195,549929,467855
1229.01,0.069938,556888,474056
1232.5,0.069061,562180,479529
1235.98,0.068203,567975,485430
1239.46,0.067727,574815,491814
1242.94,0.066501,582782,500041
1246.41,0.065869,591476,508239
1251.03,0.065604,604016,519331
1254.5,0.065753,612289,526264
1257.96,0.066112,619125,531700
1261.41,0.066590,624551,535770
1264.86,0.067301,629900,539474
1268.31,0.067862,634345,542580
1271.75,0.068984,638574,544788
1276.33,0.068964,642499,548161
1279.76,0.068777,645905,551305
1283.19,0.068303,648307,553959
1286.61,0.068143,650446,555992
1290.03,0.067790,652132,557886
1293.44,0.067452,653907,559840
1296.85,0.066993,655963,562194
1301.39,0.066722,657349,563734
1304.8,0.066545,657558,564143
1308.19,0.066889,658515,564517
1311.58,0.067205,658804,564354
1314.97,0.067814,659011,563740
1318.36,0.068007,658272,562857
1321.73,0.068601,658022,561875
1326.23,0.068823,657870,561458
1329.6,0.069914,656482,558867
1332.97,0.070676,654926,556566
1336.33,0.072037,653727,553808
1339.69,0.073730,652497,550616
1343.04,0.075512,649913,546189
1346.39,0.077758,647671,541498
1349.73,0.079694,645338,537147
1354.18,0.082982,641175,529657
1357.52,0.085185,638376,524676
1360.85,0.087482,635805,519807
1364.17,0.089913,633413,514960
1367.49,0.092005,631026,510555
1370.81,0.094662,628050,505047
1374.12,0.097110,625034,499797
1378.54,0.100485,620272,492150
1381.84,0.103616,616892,485952
1385.14,0.107014,613613,479602
1388.43,0.111109,611526,473485
1391.72,0.115989,610663,467533
1395.01,0.120600,610634,462574
1398.29,0.125728,611700,457942
1402.66,0.132899,614051,452174
1405.93,0.138276,616268,448222
1409.2,0.143276,617795,444190
1412.46,0.149140,618872,438996
1415.72,0.153153,619795,435607
1418.98,0.156573,620495,432678
1422.23,0.160608,621087,429086
1426.56,0.164794,621375,425167
1429.8,0.167444,621616,422745
1433.04,0.170105,622129,420509
1436.27,0.172311,621526,417973
1439.5,0.174377,621113,415713
1442.72,0.177715,620921,412403
1445.94,0.178974,620270,410778
1450.23,0.183244,618860,405834
1453.44,0.186799,617697,401769
1456.64,0.189623,616264,398239
1459.85,0.192488,614413,394432
1463.04,0.195219,612307,390616
1466.24,0.198665,610032,386089
1469.43,0.202180,607345,381290
1473.67,0.209070,603789,373091
1476.85,0.214928,601175,366499
1480.02,0.220918,597737,359412
1483.19,0.228294,594479,351433
1486.36,0.234469,591232,344579
1489.52,0.240107,587853,338191
1492.68,0.243229,583875,333496
1496.89,0.245940,578062,328121
1500.03,0.246032,574159,325837
1503.18,0.246776,570285,323084
1506.32,0.245927,565444,320969
1509.45,0.244837,560571,319002
1512.58,0.243379,555821,317363
1515.71,0.240597,550344,316255
1519.87,0.237111,543983,315119
1522.99,0.234527,538764,313958
1526.1,0.232260,533692,312630
1529.21,0.228755,527902,311744
1532.32,0.225426,521886,310563
1535.42,0.222378,515888,309156
1538.51,0.219290,509987,307800
1541.6,0.216428,503936,306159
1545.72,0.211729,494694,303814
1548.8,0.208778,488378,301980
1551.88,0.205324,481832,300311
1554.95,0.203601,474989,297223
1558.02,0.202444,467818,293517
1561.08,0.200752,460730,290198
1564.15,0.200474,454170,286249
1568.22,0.199010,444181,280899
1571.27,0.198619,436947,276573
1574.32,0.197673,429598,272514
1577.36,0.195794,422039,268880
1580.4,0.194564,414375,264746
1583.43,0.192950,406354,260588
1586.46,0.191217,398475,256557
1590.49,0.189252,388982,251581
1593.51,0.186994,380708,247513
1596.53,0.185008,372727,243435
1599.54,0.183197,365060,239424
1602.55,0.179797,357543,236337
1605.55,0.178506,349495,231705
1608.55,0.175961,341154,227504
1612.54,0.173445,330877,221933
1615.53,0.172080,322904,217267
1618.51,0.169971,315116,213059
1621.49,0.169252,307217,208062
1624.47,0.167623,299481,203585
1627.44,0.166753,292112,198974
1630.41,0.166245,284245,193842
1634.36,0.163847,274079,187944
1637.32,0.163124,266916,183337
1640.27,0.161744,259612,178888
1643.22,0.161671,251804,173537
1646.16,0.160374,244348,168902
1649.1,0.160869,236703,163431
1652.04,0.158272,228171,158485
1655.95,0.155486,215408,150583
1658.88,0.153204,204937,144018
1661.8,0.147596,193395,137673
1664.72,0.141729,179728,129684
1667.63,0.129726,163642,121386
1670.54,0.119628,146312,111084
1673.44,0.102374,128451,101476
1677.31,0.086497,105080,86104
1680.21,0.075564,88906,74708
1683.1,0.073033,75033,63419
1685.99,0.075923,63520,53332
1688.87,0.078713,53714,44810
1691.75,0.080498,45653,37929
1694.62,0.086759,39137,32050
1697.49,0.093784,33776,27216
1701.31,0.102007,28175,22277