File: samples/wool/wool-000811/Column 1_050615_20150331_123051.csv
Method:,Column 1,,
Host Date-Time:,31/3/15 @ 12:30:51,,
Header Version:,1,,
System Temp (C):,34.14,,
Detector Temp (C):,34.93,,
Humidity (%):,1.66,,
Lamp PD:,3818,,
Shift Vector Coefficients:,-10.5391,0.0761263,-0.000134223,,
Pixel to Wavelength Coefficients:,1775.68,-0.916766,-0.000235065,,
Serial Number:,5510004,,
Scan Config Name:,Column 1,,
Scan Config Type:,Slew,,
Section 1,,
Start wavelength (nm):,900,,
End wavelength (nm):,1700,,
Pattern Pixel Width (nm):,   7.03,,,,
Exposure (ms):,  0.635,,,,
Digital Resolution:,228,,
Num Repeats:,6,,
PGA Gain:,64,,
Total Measurement Time in sec:,  2.724,,
Wavelength (nm),Absorbance (AU),Reference Signal (unitless),Sample Signal (unitless)
901.51,0.067948,108485,92773
905.376,0.072959,121306,102547
909.237,0.080036,131909,109708
913.095,0.077783,143299,119801
916.948,0.078933,156982,130893
922.079,0.080241,179937,149582
925.923,0.081226,200504,166302
929.762,0.082386,222660,184186
933.597,0.082646,244426,202070
937.427,0.080497,263972,219311
941.254,0.079916,281845,234474
945.076,0.079128,297271,247756
950.165,0.078371,315605,263495
953.978,0.077506,328029,274414
957.786,0.077705,340470,284691
961.59,0.078157,352317,294291
965.389,0.077309,363056,303854
969.185,0.077631,373162,312080
972.976,0.077724,382632,319932
976.763,0.078930,391202,326190
981.806,0.079103,400190,333552
985.583,0.079533,406088,338133
989.355,0.079824,410162,341296
993.124,0.080583,412868,342948
996.888,0.080594,414263,344098
1000.65,0.081112,415476,344694
1004.4,0.082639,415479,343487
1009.41,0.083464,414358,341910
1013.15,0.084279,412923,340087
1016.89,0.084665,411526,338635
1020.63,0.084570,409066,336685
1024.36,0.084732,406777,334676
1028.09,0.084237,404427,333122
1031.82,0.084768,401911,330645
1036.78,0.084092,398410,328275
1040.49,0.084066,396204,326477
1044.2,0.083753,394236,325090
1047.91,0.084098,392042,323024
1051.61,0.083145,389823,321901
1055.31,0.083001,388234,320695
1059,0.082123,387599,320819
1063.92,0.081408,386688,320592
1067.61,0.080714,386598,321030
1071.29,0.080688,387377,321696
1074.96,0.080166,388536,323047
1078.63,0.078977,389855,325032
1082.3,0.078207,391215,326745
1085.96,0.077689,393215,328807
1090.84,0.076277,396270,332441
1094.49,0.076262,398760,334541
1098.14,0.075569,400987,336947
1101.79,0.075110,403477,339398
1105.43,0.075097,406116,341628
1109.06,0.073725,407701,344046
1112.7,0.073740,409859,345855
1117.53,0.073598,412494,348193
1121.15,0.074263,414909,349695
1124.77,0.073937,416559,351350
1128.38,0.074846,418532,352276
1131.99,0.076121,419956,352438
1135.6,0.077589,421946,352913
1139.2,0.078266,423881,353979
1143.99,0.080968,426786,354195
1147.58,0.081163,428617,355555
1151.17,0.082049,431169,356943
1154.75,0.083305,433579,357901
1158.33,0.084680,436264,358979
1161.91,0.086525,439132,359807
1165.48,0.088449,442389,360874
1169.04,0.090071,446101,362545
1173.79,0.093522,451929,364375
1177.34,0.096433,456026,365222
1180.9,0.098167,461306,367978
1184.44,0.100400,467657,371131
1187.99,0.100682,473969,375896
1191.52,0.101399,479856,379937
1195.06,0.100729,487372,386484
1199.76,0.100774,497347,394353
1203.29,0.099753,504311,400816
1206.81,0.098747,511507,407478
1210.33,0.098585,519078,413664
1213.84,0.097931,527163,420740
1217.35,0.097333,534208,426950
1220.85,0.096657,540472,432630
1225.51,0.095955,549929,440912
1229.01,0.095285,556888,447180
1232.5,0.094501,562180,452246
1235.98,0.094395,567975,457019
1239.46,0.093284,574815,463708
1242.94,0.092105,582782,471412
1246.41,0.091752,591476,478834
1251.03,0.091408,604016,489373
1254.5,0.091531,612289,495936
1257.96,0.092179,619125,500725
1261.41,0.092824,624551,504364
1264.86,0.093304,629900,508122
1268.31,0.093677,634345,511268
1271.75,0.094461,638574,513748
1276.33,0.094169,642499,517254
1279.76,0.094654,645905,519415
1283.19,0.093478,648307,522760
1286.61,0.093510,650446,524447
1290.03,0.093005,652132,526418
1293.44,0.092786,653907,528117
1296.85,0.092373,655963,530281
1301.39,0.092195,657349,531620
1304.8,0.092008,657558,532018
1308.19,0.092265,658515,532477
1311.58,0.092001,658804,533034
1314.97,0.092686,659011,532361
1318.36,0.093226,658272,531104
1321.73,0.093219,658022,530911
1326.23,0.094249,657870,529531
1329.6,0.095062,656482,527425
1332.97,0.096008,654926,525030
1336.33,0.096589,653727,523368
1339.69,0.098056,652497,520622
1343.04,0.099281,649913,517100
1346.39,0.101471,647671,512724
1349.73,0.103482,645338,508517
1354.18,0.106135,641175,502159
1357.52,0.108245,638376,497544
1360.85,0.110310,635805,493190
1364.17,0.112474,633413,488892
1367.49,0.114710,631026,484549
1370.81,0.116593,628050,480177
1374.12,0.118852,625034,475392
1378.54,0.121392,620272,469019
1381.84,0.123965,616892,463707
1385.14,0.127021,613613,458008
1388.43,0.130695,611526,452606
1391.72,0.134598,610663,447923
1395.01,0.138881,610634,443506
1398.29,0.143453,611700,439628
1402.66,0.149146,614051,435570
1405.93,0.154245,616268,432041
1409.2,0.158253,617795,429132
1412.46,0.162797,618872,425406
1415.72,0.166705,619795,422224
1418.98,0.170545,620495,418980
1422.23,0.173232,621087,416793
1426.56,0.177005,621375,413379
1429.8,0.179561,621616,411113
1433.04,0.182436,622129,408737
1436.27,0.184637,621526,406277
1439.5,0.186295,621113,404460
1442.72,0.189107,620921,401725
1445.94,0.190955,620270,399600
1450.23,0.194925,618860,395064
1453.44,0.197783,617697,391735
1456.64,0.200233,616264,388628
1459.85,0.202665,614413,385297
1463.04,0.205848,612307,381172
1466.24,0.210020,610032,376125
1469.43,0.213057,607345,371859
1473.67,0.219546,603789,364199
1476.85,0.225273,601175,357872
1480.02,0.231621,597737,350662
1483.19,0.238675,594479,343132
1486.36,0.243954,591232,337135
1489.52,0.249121,587853,331244
1492.68,0.253104,583875,325999
1496.89,0.254341,578062,321835
1500.03,0.255248,574159,318995
1503.18,0.254783,570285,317182
1506.32,0.254280,565444,314854
1509.45,0.253153,560571,312952
1512.58,0.251431,555821,311533
1515.71,0.248817,550344,310325
1519.87,0.245905,543983,308802
1522.99,0.243709,538764,307390
1526.1,0.241371,533692,306140
1529.21,0.237836,527902,305293
1532.32,0.235290,521886,303589
1535.42,0.231735,515888,302566
1538.51,0.229423,509987,300702
1541.6,0.226327,503936,299260
1545.72,0.222634,494694,296280
1548.8,0.219071,488378,294907
1551.88,0.217250,481832,292177
1554.95,0.215900,474989,288924
1558.02,0.213131,467818,286382
1561.08,0.213174,460730,282015
1564.15,0.212259,454170,278586
1568.22,0.211000,444181,273250
1571.27,0.211180,436947,268688
1574.32,0.209920,429598,264937
1577.36,0.207886,422039,261497
1580.4,0.207136,414375,257192
1583.43,0.205973,406354,252890
1586.46,0.204825,398475,248643
1590.49,0.202093,388982,244251
1593.51,0.200535,380708,239915
1596.53,0.198545,372727,235964
1599.54,0.196399,365060,232255
1602.55,0.194606,357543,228414
1605.55,0.192741,349495,224233
1608.55,0.191057,341154,219732
1612.54,0.189299,330877,213977
1615.53,0.187651,322904,209615
1618.51,0.185980,315116,205348
1621.49,0.185123,307217,200596
1624.47,0.184093,299481,196009
1627.44,0.184098,292112,191184
1630.41,0.183016,284245,186499
1634.36,0.181334,274079,180527
1637.32,0.180031,266916,176337
1640.27,0.180233,259612,171432
1643.22,0.180168,251804,166301
1646.16,0.178041,244348,162169
1649.1,0.177031,236703,157461
1652.04,0.176283,228171,152047
1655.95,0.172388,215408,144835
1658.88,0.168668,204937,138980
1661.8,0.164190,193395,132512
1664.72,0.155519,179728,125631
1667.63,0.143927,163642,117481
1670.54,0.130074,146312,108444
1673.44,0.111338,128451,99403
1677.31,0.092587,105080,84905
1680.21,0.080269,88906,73903
1683.1,0.076298,75033,62944
1685.99,0.075556,63520,53377
1688.87,0.077599,53714,44925
1691.75,0.084305,45653,37598
1694.62,0.091830,39137,31678
1697.49,0.097389,33776,26991
1701.31,0.102417,28175,22256