File: samples/wool/wool-000811/Column 1_050615_20150331_123031.csv
Method:,Column 1,,
Host Date-Time:,31/3/15 @ 12:30:31,,
Header Version:,1,,
System Temp (C):,34.07,,
Detector Temp (C):,34.97,,
Humidity (%):,1.66,,
Lamp PD:,3818,,
Shift Vector Coefficients:,-10.5391,0.0761263,-0.000134223,,
Pixel to Wavelength Coefficients:,1775.68,-0.916766,-0.000235065,,
Serial Number:,5510004,,
Scan Config Name:,Column 1,,
Scan Config Type:,Slew,,
Section 1,,
Start wavelength (nm):,900,,
End wavelength (nm):,1700,,
Pattern Pixel Width (nm):,   7.03,,,,
Exposure (ms):,  0.635,,,,
Digital Resolution:,228,,
Num Repeats:,6,,
PGA Gain:,64,,
Total Measurement Time in sec:,  2.669,,
Wavelength (nm),Absorbance (AU),Reference Signal (unitless),Sample Signal (unitless)
901.51,0.068271,108485,92704
905.376,0.073336,121306,102458
909.237,0.078258,131909,110158
913.095,0.077917,143299,119764
916.948,0.078914,156982,130899
922.079,0.080288,179937,149566
925.923,0.080526,200504,166570
929.762,0.081804,222660,184433
933.597,0.081598,244426,202558
937.427,0.080660,263972,219229
941.254,0.080190,281845,234326
945.076,0.078662,297271,248022
950.165,0.077565,315605,263985
953.978,0.077224,328029,274592
957.786,0.077722,340470,284680
961.59,0.077580,352317,294682
965.389,0.077036,363056,304045
969.185,0.078293,373162,311605
972.976,0.077730,382632,319927
976.763,0.078043,391202,326857
981.806,0.078874,400190,333728
985.583,0.079903,406088,337845
989.355,0.080364,410162,340872
993.124,0.080220,412868,343235
996.888,0.081073,414263,343719
1000.65,0.081575,415476,344327
1004.4,0.082573,415479,343539
1009.41,0.083825,414358,341626
1013.15,0.084510,412923,339906
1016.89,0.085386,411526,338074
1020.63,0.084637,409066,336633
1024.36,0.085201,406777,334315
1028.09,0.084730,404427,332744
1031.82,0.083730,401911,331436
1036.78,0.084488,398410,327976
1040.49,0.083606,396204,326823
1044.2,0.084095,394236,324834
1047.91,0.083213,392042,323683
1051.61,0.082665,389823,322257
1055.31,0.082616,388234,320980
1059,0.082276,387599,320706
1063.92,0.081110,386688,320812
1067.61,0.080787,386598,320976
1071.29,0.080471,387377,321857
1074.96,0.079689,388536,323402
1078.63,0.079568,389855,324590
1082.3,0.077878,391215,326992
1085.96,0.077561,393215,328904
1090.84,0.076814,396270,332030
1094.49,0.075864,398760,334848
1098.14,0.075643,400987,336889
1101.79,0.075284,403477,339262
1105.43,0.074747,406116,341903
1109.06,0.074158,407701,343703
1112.7,0.073696,409859,345890
1117.53,0.073268,412494,348457
1121.15,0.073629,414909,350206
1124.77,0.073614,416559,351611
1128.38,0.074844,418532,352277
1131.99,0.075600,419956,352861
1135.6,0.077587,421946,352915
1139.2,0.078773,423881,353566
1143.99,0.080572,426786,354518
1147.58,0.081143,428617,355571
1151.17,0.082285,431169,356749
1154.75,0.083088,433579,358080
1158.33,0.084874,436264,358819
1161.91,0.086352,439132,359951
1165.48,0.088481,442389,360847
1169.04,0.090066,446101,362549
1173.79,0.093774,451929,364163
1177.34,0.095905,456026,365666
1180.9,0.098388,461306,367791
1184.44,0.100399,467657,371132
1187.99,0.101046,473969,375581
1191.52,0.101207,479856,380105
1195.06,0.101121,487372,386135
1199.76,0.100053,497347,395009
1203.29,0.099523,504311,401029
1206.81,0.098970,511507,407269
1210.33,0.098798,519078,413461
1213.84,0.098035,527163,420639
1217.35,0.097157,534208,427123
1220.85,0.096373,540472,432913
1225.51,0.095932,549929,440935
1229.01,0.095197,556888,447271
1232.5,0.094489,562180,452258
1235.98,0.094312,567975,457106
1239.46,0.093048,574815,463959
1242.94,0.092146,582782,471368
1246.41,0.091480,591476,479134
1251.03,0.091768,604016,488968
1254.5,0.091649,612289,495801
1257.96,0.091987,619125,500946
1261.41,0.092653,624551,504563
1264.86,0.093257,629900,508177
1268.31,0.093542,634345,511427
1271.75,0.095137,638574,512949
1276.33,0.094769,642499,516539
1279.76,0.093827,645905,520405
1283.19,0.093572,648307,522647
1286.61,0.093687,650446,524233
1290.03,0.093168,652132,526220
1293.44,0.092547,653907,528408
1296.85,0.092277,655963,530398
1301.39,0.092007,657349,531850
1304.8,0.092157,657558,531835
1308.19,0.091992,658515,532812
1311.58,0.092223,658804,532762
1314.97,0.092511,659011,532576
1318.36,0.093147,658272,531200
1321.73,0.093677,658022,530351
1326.23,0.093989,657870,529848
1329.6,0.094814,656482,527727
1332.97,0.095571,654926,525559
1336.33,0.096393,653727,523605
1339.69,0.098290,652497,520341
1343.04,0.099589,649913,516733
1346.39,0.101780,647671,512359
1349.73,0.103577,645338,508406
1354.18,0.106109,641175,502189
1357.52,0.108614,638376,497121
1360.85,0.110347,635805,493148
1364.17,0.112573,633413,488781
1367.49,0.114729,631026,484527
1370.81,0.116927,628050,479808
1374.12,0.118552,625034,475720
1378.54,0.121800,620272,468578
1381.84,0.123905,616892,463772
1385.14,0.127274,613613,457742
1388.43,0.130588,611526,452717
1391.72,0.134833,610663,447681
1395.01,0.139172,610634,443209
1398.29,0.142989,611700,440098
1402.66,0.149247,614051,435469
1405.93,0.154261,616268,432025
1409.2,0.158545,617795,428844
1412.46,0.162860,618872,425345
1415.72,0.167163,619795,421779
1418.98,0.170463,620495,419059
1422.23,0.173664,621087,416379
1426.56,0.176913,621375,413467
1429.8,0.179578,621616,411097
1433.04,0.182123,622129,409032
1436.27,0.184266,621526,406624
1439.5,0.186114,621113,404629
1442.72,0.189142,620921,401693
1445.94,0.190998,620270,399561
1450.23,0.194998,618860,394998
1453.44,0.197674,617697,391833
1456.64,0.200219,616264,388640
1459.85,0.203281,614413,384751
1463.04,0.206050,612307,380995
1466.24,0.209715,610032,376390
1469.43,0.214115,607345,370954
1473.67,0.220046,603789,363780
1476.85,0.225115,601175,358002
1480.02,0.231816,597737,350505
1483.19,0.238181,594479,343523
1486.36,0.244147,591232,336985
1489.52,0.249051,587853,331297
1492.68,0.252843,583875,326195
1496.89,0.254193,578062,321945
1500.03,0.255158,574159,319061
1503.18,0.254961,570285,317052
1506.32,0.254498,565444,314696
1509.45,0.253364,560571,312800
1512.58,0.251227,555821,311679
1515.71,0.248725,550344,310391
1519.87,0.246211,543983,308585
1522.99,0.243288,538764,307688
1526.1,0.241071,533692,306351
1529.21,0.238068,527902,305130
1532.32,0.235970,521886,303114
1535.42,0.232385,515888,302114
1538.51,0.229499,509987,300649
1541.6,0.227169,503936,298680
1545.72,0.221713,494694,296909
1548.8,0.219208,488378,294814
1551.88,0.216684,481832,292558
1554.95,0.215735,474989,289034
1558.02,0.214338,467818,285587
1561.08,0.212714,460730,282314
1564.15,0.211786,454170,278890
1568.22,0.210676,444181,273454
1571.27,0.210476,436947,269124
1574.32,0.209831,429598,264991
1577.36,0.209130,422039,260749
1580.4,0.207474,414375,256992
1583.43,0.205535,406354,253145
1586.46,0.204725,398475,248700
1590.49,0.202894,388982,243801
1593.51,0.200650,380708,239851
1596.53,0.199287,372727,235561
1599.54,0.196123,365060,232403
1602.55,0.193942,357543,228763
1605.55,0.193156,349495,224019
1608.55,0.190865,341154,219829
1612.54,0.189310,330877,213972
1615.53,0.187954,322904,209469
1618.51,0.186452,315116,205125
1621.49,0.185487,307217,200428
1624.47,0.184958,299481,195619
1627.44,0.184046,292112,191207
1630.41,0.182756,284245,186611
1634.36,0.181235,274079,180568
1637.32,0.181398,266916,175783
1640.27,0.179891,259612,171567
1643.22,0.178448,251804,166961
1646.16,0.177645,244348,162317
1649.1,0.176452,236703,157671
1652.04,0.174547,228171,152656
1655.95,0.172862,215408,144677
1658.88,0.168774,204937,138946
1661.8,0.163195,193395,132816
1664.72,0.155771,179728,125558
1667.63,0.143310,163642,117648
1670.54,0.128408,146312,108861
1673.44,0.117277,128451,98053
1677.31,0.092500,105080,84922
1680.21,0.081823,88906,73639
1683.1,0.072253,75033,63533
1685.99,0.076746,63520,53231
1688.87,0.080470,53714,44629
1691.75,0.081920,45653,37805
1694.62,0.083641,39137,32281
1697.49,0.088297,33776,27562
1701.31,0.103883,28175,22181