File: samples/wool/wool-000811/Column 1_050578_20150331_121314.csv
Method:,Column 1,,
Host Date-Time:,31/3/15 @ 12:13:14,,
Header Version:,1,,
System Temp (C):,33.81,,
Detector Temp (C):,34.62,,
Humidity (%):,2.05,,
Lamp PD:,3819,,
Shift Vector Coefficients:,-10.5391,0.0761263,-0.000134223,,
Pixel to Wavelength Coefficients:,1775.68,-0.916766,-0.000235065,,
Serial Number:,5510004,,
Scan Config Name:,Column 1,,
Scan Config Type:,Slew,,
Section 1,,
Start wavelength (nm):,900,,
End wavelength (nm):,1700,,
Pattern Pixel Width (nm):,   7.03,,,,
Exposure (ms):,  0.635,,,,
Digital Resolution:,228,,
Num Repeats:,6,,
PGA Gain:,64,,
Total Measurement Time in sec:,  2.729,,
Wavelength (nm),Absorbance (AU),Reference Signal (unitless),Sample Signal (unitless)
901.51,0.072257,108485,91857
905.376,0.076685,121306,101671
909.237,0.081023,131909,109459
913.095,0.080415,143299,119077
916.948,0.080875,156982,130309
922.079,0.084012,179937,148289
925.923,0.085076,200504,164834
929.762,0.085129,222660,183026
933.597,0.084843,244426,201050
937.427,0.083046,263972,218028
941.254,0.083516,281845,232538
945.076,0.082013,297271,246116
950.165,0.082206,315605,261179
953.978,0.080885,328029,272287
957.786,0.080779,340470,282683
961.59,0.081215,352317,292226
965.389,0.081362,363056,301031
969.185,0.081268,373162,309478
972.976,0.081525,382632,317144
976.763,0.082069,391202,323841
981.806,0.082661,400190,330830
985.583,0.083721,406088,334888
989.355,0.083404,410162,338494
993.124,0.083901,412868,340338
996.888,0.084412,414263,341086
1000.65,0.085445,415476,341272
1004.4,0.086487,415479,340457
1009.41,0.087748,414358,338554
1013.15,0.087638,412923,337467
1016.89,0.088508,411526,335652
1020.63,0.088081,409066,333974
1024.36,0.088832,406777,331531
1028.09,0.088371,404427,329966
1031.82,0.088259,401911,327998
1036.78,0.087691,398410,325566
1040.49,0.087504,396204,323903
1044.2,0.087590,394236,322230
1047.91,0.087040,392042,320843
1051.61,0.086803,389823,319201
1055.31,0.086747,388234,317941
1059,0.086111,387599,317886
1063.92,0.085900,386688,317293
1067.61,0.085077,386598,317821
1071.29,0.085097,387377,318447
1074.96,0.084304,388536,319983
1078.63,0.083306,389855,321808
1082.3,0.082275,391215,323698
1085.96,0.081898,393215,325636
1090.84,0.081096,396270,328772
1094.49,0.080358,398760,331401
1098.14,0.079778,400987,333697
1101.79,0.079427,403477,336041
1105.43,0.079568,406116,338129
1109.06,0.078842,407701,340016
1112.7,0.077973,409859,342501
1117.53,0.077988,412494,344691
1121.15,0.078882,414909,345996
1124.77,0.078576,416559,347617
1128.38,0.079729,418532,348337
1131.99,0.080605,419956,348818
1135.6,0.082091,421946,349274
1139.2,0.083439,423881,349788
1143.99,0.085230,426786,350736
1147.58,0.086291,428617,351381
1151.17,0.087142,431169,352781
1154.75,0.088330,433579,353784
1158.33,0.089996,436264,354612
1161.91,0.091289,439132,355882
1165.48,0.093992,442389,356297
1169.04,0.095800,446101,357794
1173.79,0.099044,451929,359771
1177.34,0.101261,456026,361184
1180.9,0.103128,461306,363799
1184.44,0.105089,467657,367146
1187.99,0.106312,473969,371055
1191.52,0.106507,479856,375495
1195.06,0.105501,487372,382261
1199.76,0.105031,497347,390507
1203.29,0.104400,504311,396550
1206.81,0.104022,511507,402559
1210.33,0.103445,519078,409061
1213.84,0.103091,527163,415771
1217.35,0.102447,534208,421952
1220.85,0.101523,540472,427809
1225.51,0.101099,549929,435720
1229.01,0.100206,556888,442142
1232.5,0.099788,562180,446773
1235.98,0.098967,567975,452233
1239.46,0.098326,574815,458355
1242.94,0.097547,582782,465542
1246.41,0.096843,591476,473254
1251.03,0.096682,604016,483467
1254.5,0.096775,612289,489984
1257.96,0.097093,619125,495091
1261.41,0.097729,624551,498700
1264.86,0.098340,629900,502264
1268.31,0.098966,634345,505079
1271.75,0.099238,638574,508128
1276.33,0.099942,642499,510423
1279.76,0.099467,645905,513691
1283.19,0.099131,648307,516000
1286.61,0.098773,650446,518130
1290.03,0.097988,652132,520412
1293.44,0.097905,653907,521928
1296.85,0.098032,655963,523416
1301.39,0.097724,657349,524894
1304.8,0.097746,657558,525035
1308.19,0.097954,658515,525547
1311.58,0.097833,658804,525924
1314.97,0.098761,659011,524967
1318.36,0.099394,658272,523614
1321.73,0.099232,658022,523610
1326.23,0.100671,657870,521758
1329.6,0.101712,656482,519411
1332.97,0.102629,654926,517086
1336.33,0.103689,653727,514882
1339.69,0.105565,652497,511698
1343.04,0.107132,649913,507836
1346.39,0.109238,647671,503636
1349.73,0.111069,645338,499710
1354.18,0.114070,641175,493068
1357.52,0.116424,638376,488262
1360.85,0.118265,635805,484238
1364.17,0.120158,633413,480318
1367.49,0.122651,631026,475769
1370.81,0.124275,628050,471758
1374.12,0.127220,625034,466320
1378.54,0.129956,620272,459861
1381.84,0.133326,616892,453819
1385.14,0.137272,613613,447324
1388.43,0.141849,611526,441129
1391.72,0.146738,610663,435576
1395.01,0.152066,610634,430244
1398.29,0.157433,611700,425702
1402.66,0.164696,614051,420251
1405.93,0.170781,616268,415900
1409.2,0.176050,617795,411902
1412.46,0.181802,618872,407192
1415.72,0.186283,619795,403613
1418.98,0.190457,620495,400204
1422.23,0.194869,621087,396537
1426.56,0.198883,621375,393071
1429.8,0.201916,621616,390487
1433.04,0.204268,622129,388698
1436.27,0.207111,621526,385788
1439.5,0.208707,621113,384117
1442.72,0.211442,620921,381588
1445.94,0.213994,620270,378954
1450.23,0.216919,618860,375555
1453.44,0.219478,617697,372647
1456.64,0.222360,616264,369323
1459.85,0.224453,614413,366444
1463.04,0.227136,612307,362939
1466.24,0.230108,610032,359124
1469.43,0.232747,607345,355376
1473.67,0.237801,603789,349208
1476.85,0.242814,601175,343706
1480.02,0.247754,597737,337875
1483.19,0.252847,594479,332116
1486.36,0.257328,591232,326911
1489.52,0.261949,587853,321603
1492.68,0.264169,583875,317798
1496.89,0.266490,578062,312957
1500.03,0.267512,574159,310113
1503.18,0.266661,570285,308625
1506.32,0.265708,565444,306677
1509.45,0.264450,560571,304916
1512.58,0.263477,555821,303011
1515.71,0.261161,550344,301629
1519.87,0.258240,543983,300155
1522.99,0.255196,538764,299366
1526.1,0.252956,533692,298081
1529.21,0.250549,527902,296486
1532.32,0.248159,521886,294725
1535.42,0.244613,515888,293726
1538.51,0.242492,509987,291788
1541.6,0.239518,503936,290307
1545.72,0.234899,494694,288030
1548.8,0.232392,488378,285999
1551.88,0.229269,481832,284202
1554.95,0.227843,474989,281087
1558.02,0.225653,467818,278243
1561.08,0.224800,460730,274566
1564.15,0.223308,454170,271588
1568.22,0.222318,444181,266221
1571.27,0.222209,436947,261951
1574.32,0.221367,429598,258045
1577.36,0.219832,422039,254402
1580.4,0.219160,414375,250169
1583.43,0.217230,406354,246419
1586.46,0.215396,398475,242664
1590.49,0.213652,388982,237836
1593.51,0.212145,380708,233586
1596.53,0.208976,372727,230364
1599.54,0.207198,365060,226551
1602.55,0.205514,357543,222748
1605.55,0.204433,349495,218277
1608.55,0.201001,341154,214758
1612.54,0.198924,330877,209287
1615.53,0.198380,322904,204500
1618.51,0.196753,315116,200317
1621.49,0.195222,307217,195985
1624.47,0.193965,299481,191604
1627.44,0.193645,292112,187027
1630.41,0.192309,284245,182551
1634.36,0.192037,274079,176132
1637.32,0.190276,266916,172226
1640.27,0.189528,259612,167802
1643.22,0.188510,251804,163137
1646.16,0.188736,244348,158224
1649.1,0.187070,236703,153863
1652.04,0.185593,228171,148822
1655.95,0.181656,215408,141777
1658.88,0.178634,204937,135827
1661.8,0.172866,193395,129891
1664.72,0.164400,179728,123088
1667.63,0.154646,163642,114617
1670.54,0.140302,146312,105920
1673.44,0.125192,128451,96282
1677.31,0.105451,105080,82427
1680.21,0.092226,88906,71896
1683.1,0.090271,75033,60951
1685.99,0.092133,63520,51378
1688.87,0.093249,53714,43335
1691.75,0.098034,45653,36428
1694.62,0.104206,39137,30788
1697.49,0.106478,33776,26432
1701.31,0.115672,28175,21587