File: samples/wool/wool-000811/Column 1_050541_20150331_115535.csv
Method:,Column 1,,
Host Date-Time:,31/3/15 @ 11:55:35,,
Header Version:,1,,
System Temp (C):,32.36,,
Detector Temp (C):,30.66,,
Humidity (%):,2.92,,
Lamp PD:,3825,,
Shift Vector Coefficients:,-10.5391,0.0761263,-0.000134223,,
Pixel to Wavelength Coefficients:,1775.68,-0.916766,-0.000235065,,
Serial Number:,5510004,,
Scan Config Name:,Column 1,,
Scan Config Type:,Slew,,
Section 1,,
Start wavelength (nm):,900,,
End wavelength (nm):,1700,,
Pattern Pixel Width (nm):,   7.03,,,,
Exposure (ms):,  0.635,,,,
Digital Resolution:,228,,
Num Repeats:,6,,
PGA Gain:,64,,
Total Measurement Time in sec:,  2.720,,
Wavelength (nm),Absorbance (AU),Reference Signal (unitless),Sample Signal (unitless)
901.51,0.043989,108485,98035
905.376,0.048348,121306,108526
909.237,0.050765,131909,117357
913.095,0.051633,143299,127236
916.948,0.051961,156982,139280
922.079,0.052085,179937,159601
925.923,0.051786,200504,177966
929.762,0.053789,222660,196722
933.597,0.053051,244426,216320
937.427,0.053118,263972,233582
941.254,0.053480,281845,249190
945.076,0.053848,297271,262606
950.165,0.053362,315605,279114
953.978,0.052579,328029,290625
957.786,0.053354,340470,301110
961.59,0.054727,352317,310604
965.389,0.054104,363056,320531
969.185,0.054902,373162,328848
972.976,0.055355,382632,336842
976.763,0.055608,391202,344186
981.806,0.057083,400190,350900
985.583,0.057820,406088,355468
989.355,0.058303,410162,358635
993.124,0.058568,412868,360781
996.888,0.059242,414263,361438
1000.65,0.060310,415476,361606
1004.4,0.061396,415479,360706
1009.41,0.062745,414358,358617
1013.15,0.062419,412923,357643
1016.89,0.063544,411526,355511
1020.63,0.063430,409066,353479
1024.36,0.063006,406777,351844
1028.09,0.063261,404427,349606
1031.82,0.062366,401911,348148
1036.78,0.061777,398410,345584
1040.49,0.061307,396204,344042
1044.2,0.060760,394236,342765
1047.91,0.060618,392042,340969
1051.61,0.059699,389823,339757
1055.31,0.059062,388234,338869
1059,0.058160,387599,339018
1063.92,0.057361,386688,338844
1067.61,0.055929,386598,339884
1071.29,0.055103,387377,341217
1074.96,0.054644,388536,342600
1078.63,0.054414,389855,343945
1082.3,0.052957,391215,346305
1085.96,0.052313,393215,348592
1090.84,0.051995,396270,351557
1094.49,0.051478,398760,354188
1098.14,0.050733,400987,356777
1101.79,0.050530,403477,359161
1105.43,0.050473,406116,361557
1109.06,0.050237,407701,363166
1112.7,0.050131,409859,365177
1117.53,0.050406,412494,367292
1121.15,0.050906,414909,369017
1124.77,0.051083,416559,370334
1128.38,0.053763,418532,369799
1131.99,0.054702,419956,370256
1135.6,0.056312,421946,370634
1139.2,0.058642,423881,370341
1143.99,0.061632,426786,370321
1147.58,0.062312,428617,371328
1151.17,0.063966,431169,372119
1154.75,0.065264,433579,373082
1158.33,0.067647,436264,373338
1161.91,0.069917,439132,373833
1165.48,0.073340,442389,373649
1169.04,0.076058,446101,374434
1173.79,0.080495,451929,375470
1177.34,0.083174,456026,376544
1180.9,0.085654,461306,378735
1184.44,0.087679,467657,382163
1187.99,0.087755,473969,387253
1191.52,0.087436,479856,392351
1195.06,0.086736,487372,399139
1199.76,0.085587,497347,408388
1203.29,0.084342,504311,415295
1206.81,0.083277,511507,422255
1210.33,0.082292,519078,429478
1213.84,0.080877,527163,437591
1217.35,0.079855,534208,444483
1220.85,0.078788,540472,450801
1225.51,0.077784,549929,459751
1229.01,0.076329,556888,467131
1232.5,0.075470,562180,472504
1235.98,0.074734,567975,478184
1239.46,0.073611,574815,485196
1242.94,0.072489,582782,493193
1246.41,0.072080,591476,501022
1251.03,0.071518,604016,512307
1254.5,0.071557,612289,519278
1257.96,0.071816,619125,524762
1261.41,0.072257,624551,528824
1264.86,0.072997,629900,532445
1268.31,0.073462,634345,535628
1271.75,0.074481,638574,537936
1276.33,0.074644,642499,541039
1279.76,0.074606,645905,543955
1283.19,0.073716,648307,547097
1286.61,0.073706,650446,548915
1290.03,0.073263,652132,550900
1293.44,0.072737,653907,553069
1296.85,0.072702,655963,554852
1301.39,0.072350,657349,556475
1304.8,0.072335,657558,556671
1308.19,0.072643,658515,557086
1311.58,0.072768,658804,557171
1314.97,0.073558,659011,556333
1318.36,0.074368,658272,554674
1321.73,0.074688,658022,554055
1326.23,0.075937,657870,552336
1329.6,0.076219,656482,550812
1332.97,0.077667,654926,547678
1336.33,0.079184,653727,544769
1339.69,0.081173,652497,541260
1343.04,0.083069,649913,536768
1346.39,0.085113,647671,532404
1349.73,0.087850,645338,527154
1354.18,0.091155,641175,519783
1357.52,0.093675,638376,514519
1360.85,0.096516,635805,509106
1364.17,0.098587,633413,504777
1367.49,0.101284,631026,499762
1370.81,0.104309,628050,493952
1374.12,0.106830,625034,488735
1378.54,0.111006,620272,480370
1381.84,0.114650,616892,473761
1385.14,0.119196,613613,466336
1388.43,0.124399,611526,459215
1391.72,0.129830,610663,452868
1395.01,0.136201,610634,446252
1398.29,0.142381,611700,440715
1402.66,0.150967,614051,433748
1405.93,0.157839,616268,428480
1409.2,0.163997,617795,423494
1412.46,0.169973,618872,418435
1415.72,0.175342,619795,413910
1418.98,0.180270,620495,409702
1422.23,0.184302,621087,406303
1426.56,0.189033,621375,402088
1429.8,0.192098,621616,399415
1433.04,0.195367,622129,396747
1436.27,0.197574,621526,394353
1439.5,0.200115,621113,391792
1442.72,0.202606,620921,389431
1445.94,0.205090,620270,386804
1450.23,0.208741,618860,382694
1453.44,0.212355,617697,378809
1456.64,0.215107,616264,375543
1459.85,0.217311,614413,372520
1463.04,0.220254,612307,368736
1466.24,0.223416,610032,364701
1469.43,0.226186,607345,360786
1473.67,0.231640,603789,354197
1476.85,0.236727,601175,348557
1480.02,0.242020,597737,342366
1483.19,0.248599,594479,335380
1486.36,0.254276,591232,329217
1489.52,0.259342,587853,323539
1492.68,0.263250,583875,318471
1496.89,0.266397,578062,313024
1500.03,0.266326,574159,310961
1503.18,0.266827,570285,308507
1506.32,0.266739,565444,305950
1509.45,0.264852,560571,304634
1512.58,0.263348,555821,303101
1515.71,0.261595,550344,301328
1519.87,0.258234,543983,300159
1522.99,0.255444,538764,299195
1526.1,0.253249,533692,297880
1529.21,0.249930,527902,296909
1532.32,0.246065,521886,296149
1535.42,0.243376,515888,294564
1538.51,0.239954,509987,293498
1541.6,0.237359,503936,291754
1545.72,0.231641,494694,290199
1548.8,0.229089,488378,288182
1551.88,0.225648,481832,286581
1554.95,0.223287,474989,284051
1558.02,0.221680,467818,280800
1561.08,0.220645,460730,277205
1564.15,0.219775,454170,273806
1568.22,0.218465,444181,268593
1571.27,0.217437,436947,264845
1574.32,0.216482,429598,260964
1577.36,0.214967,422039,257268
1580.4,0.212875,414375,253816
1583.43,0.211418,406354,249739
1586.46,0.208611,398475,246485
1590.49,0.206780,388982,241629
1593.51,0.204609,380708,237675
1596.53,0.202151,372727,234013
1599.54,0.199471,365060,230618
1602.55,0.196727,357543,227301
1605.55,0.194830,349495,223157
1608.55,0.192633,341154,218936
1612.54,0.189576,330877,213841
1615.53,0.187107,322904,209878
1618.51,0.186388,315116,205155
1621.49,0.185946,307217,200216
1624.47,0.182801,299481,196593
1627.44,0.182291,292112,191981
1630.41,0.180580,284245,187548
1634.36,0.179229,274079,181404
1637.32,0.177928,266916,177193
1640.27,0.178541,259612,172101
1643.22,0.175203,251804,168213
1646.16,0.174406,244348,163532
1649.1,0.174366,236703,158430
1652.04,0.172764,228171,153284
1655.95,0.169972,215408,145643
1658.88,0.168978,204937,138881
1661.8,0.169549,193395,130887
1664.72,0.166062,179728,122618
1667.63,0.159803,163642,113264
1670.54,0.154073,146312,102614
1673.44,0.149353,128451,91072
1677.31,0.143222,105080,75561
1680.21,0.139015,88906,64553
1683.1,0.142722,75033,54017
1685.99,0.153235,63520,44635
1688.87,0.153309,53714,37738
1691.75,0.155992,45653,31877
1694.62,0.162238,39137,26937
1697.49,0.165053,33776,23097
1701.31,0.178138,28175,18695