File: samples/wool/wool-000811/Column 1_050606_20150331_122641.csv
Method:,Column 1,,
Host Date-Time:,31/3/15 @ 12:26:41,,
Header Version:,1,,
System Temp (C):,34.01,,
Detector Temp (C):,34.85,,
Humidity (%):,1.66,,
Lamp PD:,3818,,
Shift Vector Coefficients:,-10.5391,0.0761263,-0.000134223,,
Pixel to Wavelength Coefficients:,1775.68,-0.916766,-0.000235065,,
Serial Number:,5510004,,
Scan Config Name:,Column 1,,
Scan Config Type:,Slew,,
Section 1,,
Start wavelength (nm):,900,,
End wavelength (nm):,1700,,
Pattern Pixel Width (nm):,   7.03,,,,
Exposure (ms):,  0.635,,,,
Digital Resolution:,228,,
Num Repeats:,6,,
PGA Gain:,64,,
Total Measurement Time in sec:,  2.673,,
Wavelength (nm),Absorbance (AU),Reference Signal (unitless),Sample Signal (unitless)
901.51,0.070714,108485,92184
905.376,0.073896,121306,102326
909.237,0.077904,131909,110248
913.095,0.078247,143299,119673
916.948,0.080366,156982,130462
922.079,0.079719,179937,149762
925.923,0.080284,200504,166663
929.762,0.081307,222660,184644
933.597,0.082469,244426,202152
937.427,0.080874,263972,219121
941.254,0.079608,281845,234640
945.076,0.079572,297271,247503
950.165,0.077775,315605,263857
953.978,0.076979,328029,274747
957.786,0.077187,340470,285031
961.59,0.077468,352317,294758
965.389,0.077553,363056,303683
969.185,0.077513,373162,312165
972.976,0.077582,382632,320036
976.763,0.078090,391202,326822
981.806,0.078656,400190,333895
985.583,0.079679,406088,338019
989.355,0.080069,410162,341104
993.124,0.079845,412868,343531
996.888,0.080465,414263,344200
1000.65,0.081446,415476,344429
1004.4,0.082772,415479,343382
1009.41,0.083909,414358,341560
1013.15,0.084466,412923,339941
1016.89,0.085118,411526,338282
1020.63,0.084503,409066,336737
1024.36,0.084959,406777,334501
1028.09,0.084039,404427,333274
1031.82,0.084118,401911,331140
1036.78,0.083959,398410,328376
1040.49,0.083730,396204,326730
1044.2,0.084081,394236,324844
1047.91,0.083615,392042,323383
1051.61,0.083029,389823,321987
1055.31,0.082474,388234,321085
1059,0.082453,387599,320575
1063.92,0.080979,386688,320909
1067.61,0.081243,386598,320639
1071.29,0.080591,387377,321768
1074.96,0.079600,388536,323468
1078.63,0.079620,389855,324551
1082.3,0.078179,391215,326766
1085.96,0.077731,393215,328775
1090.84,0.076414,396270,332336
1094.49,0.076386,398760,334446
1098.14,0.075749,400987,336807
1101.79,0.074818,403477,339626
1105.43,0.075384,406116,341402
1109.06,0.073682,407701,344080
1112.7,0.073752,409859,345846
1117.53,0.073103,412494,348590
1121.15,0.074255,414909,349702
1124.77,0.074056,416559,351253
1128.38,0.075128,418532,352047
1131.99,0.076165,419956,352402
1135.6,0.077539,421946,352954
1139.2,0.078673,423881,353648
1143.99,0.080941,426786,354217
1147.58,0.081199,428617,355525
1151.17,0.082312,431169,356727
1154.75,0.083514,433579,357729
1158.33,0.084886,436264,358809
1161.91,0.086343,439132,359958
1165.48,0.088269,442389,361023
1169.04,0.090969,446101,361796
1173.79,0.094068,451929,363917
1177.34,0.096204,456026,365414
1180.9,0.098754,461306,367481
1184.44,0.099868,467657,371586
1187.99,0.101071,473969,375560
1191.52,0.101671,479856,379699
1195.06,0.100974,487372,386266
1199.76,0.100676,497347,394442
1203.29,0.100165,504311,400436
1206.81,0.099173,511507,407079
1210.33,0.098475,519078,413769
1213.84,0.098107,527163,420570
1217.35,0.097146,534208,427134
1220.85,0.096757,540472,432530
1225.51,0.096419,549929,440441
1229.01,0.095692,556888,446762
1232.5,0.094910,562180,451820
1235.98,0.094147,567975,457280
1239.46,0.093105,574815,463899
1242.94,0.092343,582782,471154
1246.41,0.091967,591476,478597
1251.03,0.091361,604016,489426
1254.5,0.091918,612289,495494
1257.96,0.092449,619125,500414
1261.41,0.092920,624551,504252
1264.86,0.093450,629900,507951
1268.31,0.093548,634345,511420
1271.75,0.094477,638574,513729
1276.33,0.094560,642499,516788
1279.76,0.094400,645905,519719
1283.19,0.094271,648307,521807
1286.61,0.093600,650446,524338
1290.03,0.093209,652132,526171
1293.44,0.092994,653907,527864
1296.85,0.092635,655963,529961
1301.39,0.092692,657349,531011
1304.8,0.092164,657558,531827
1308.19,0.092441,658515,532261
1311.58,0.092358,658804,532596
1314.97,0.093028,659011,531943
1318.36,0.093479,658272,530795
1321.73,0.093818,658022,530179
1326.23,0.094717,657870,528960
1329.6,0.095220,656482,527233
1332.97,0.096059,654926,524969
1336.33,0.097328,653727,522479
1339.69,0.098723,652497,519823
1343.04,0.099844,649913,516430
1346.39,0.102030,647671,512064
1349.73,0.103722,645338,508236
1354.18,0.107263,641175,500857
1357.52,0.108894,638376,496801
1360.85,0.111000,635805,492407
1364.17,0.112803,633413,488522
1367.49,0.115287,631026,483905
1370.81,0.117286,628050,479411
1374.12,0.119272,625034,474932
1378.54,0.121999,620272,468364
1381.84,0.124935,616892,462673
1385.14,0.128423,613613,456532
1388.43,0.131481,611526,451787
1391.72,0.136020,610663,446459
1395.01,0.140248,610634,442113
1398.29,0.144267,611700,438805
1402.66,0.151099,614051,433616
1405.93,0.155105,616268,431186
1409.2,0.160501,617795,426917
1412.46,0.164786,618872,423462
1415.72,0.168716,619795,420274
1418.98,0.172387,620495,417207
1422.23,0.175396,621087,414721
1426.56,0.179286,621375,411214
1429.8,0.182110,621616,408707
1433.04,0.184116,622129,407159
1436.27,0.186693,621526,404358
1439.5,0.188589,621113,402329
1442.72,0.191101,620921,399885
1445.94,0.193357,620270,397396
1450.23,0.196940,618860,393235
1453.44,0.200064,617697,389683
1456.64,0.202541,616264,386568
1459.85,0.205352,614413,382920
1463.04,0.208111,612307,379191
1466.24,0.211853,610032,374541
1469.43,0.215668,607345,369630
1473.67,0.221577,603789,362500
1476.85,0.227373,601175,356146
1480.02,0.233172,597737,349412
1483.19,0.239355,594479,342595
1486.36,0.245278,591232,336109
1489.52,0.249945,587853,330616
1492.68,0.253837,583875,325449
1496.89,0.255793,578062,320761
1500.03,0.256743,574159,317899
1503.18,0.256149,570285,316186
1506.32,0.254468,565444,314718
1509.45,0.254070,560571,312292
1512.58,0.251874,555821,311215
1515.71,0.249877,550344,309569
1519.87,0.247184,543983,307894
1522.99,0.244495,538764,306834
1526.1,0.242733,533692,305181
1529.21,0.239083,527902,304418
1532.32,0.236450,521886,302779
1535.42,0.233768,515888,301153
1538.51,0.230557,509987,299918
1541.6,0.228063,503936,298066
1545.72,0.223133,494694,295940
1548.8,0.221074,488378,293550
1551.88,0.218865,481832,291092
1554.95,0.216277,474989,288673
1558.02,0.215287,467818,284964
1561.08,0.214098,460730,281416
1564.15,0.213022,454170,278097
1568.22,0.211830,444181,272728
1571.27,0.211811,436947,268298
1574.32,0.210863,429598,264362
1577.36,0.208785,422039,260956
1580.4,0.208316,414375,256494
1583.43,0.207669,406354,251904
1586.46,0.205430,398475,248297
1590.49,0.203723,388982,243336
1593.51,0.202363,380708,238907
1596.53,0.199732,372727,235320
1599.54,0.197881,365060,231464
1602.55,0.196460,357543,227441
1605.55,0.194556,349495,223298
1608.55,0.191490,341154,219513
1612.54,0.189206,330877,214023
1615.53,0.187612,322904,209634
1618.51,0.187478,315116,204641
1621.49,0.187422,307217,199537
1624.47,0.184810,299481,195686
1627.44,0.184823,292112,190865
1630.41,0.183608,284245,186245
1634.36,0.181962,274079,180266
1637.32,0.180191,266916,176272
1640.27,0.181646,259612,170875
1643.22,0.180244,251804,166272
1646.16,0.179092,244348,161777
1649.1,0.178567,236703,156905
1652.04,0.176317,228171,152035
1655.95,0.174743,215408,144052
1658.88,0.168953,204937,138889
1661.8,0.163607,193395,132690
1664.72,0.155142,179728,125740
1667.63,0.143798,163642,117516
1670.54,0.130503,146312,108337
1673.44,0.113761,128451,98850
1677.31,0.092648,105080,84893
1680.21,0.082224,88906,73571
1683.1,0.079157,75033,62531
1685.99,0.076558,63520,53254
1688.87,0.082274,53714,44444
1691.75,0.085983,45653,37453
1694.62,0.093093,39137,31586
1697.49,0.094838,33776,27150
1701.31,0.104608,28175,22144