File: samples/wool/wool-000811/Column 1_050549_20150331_115914.csv
Method:,Column 1,,
Host Date-Time:,31/3/15 @ 11:59:14,,
Header Version:,1,,
System Temp (C):,33.22,,
Detector Temp (C):,31.99,,
Humidity (%):,2.25,,
Lamp PD:,3823,,
Shift Vector Coefficients:,-10.5391,0.0761263,-0.000134223,,
Pixel to Wavelength Coefficients:,1775.68,-0.916766,-0.000235065,,
Serial Number:,5510004,,
Scan Config Name:,Column 1,,
Scan Config Type:,Slew,,
Section 1,,
Start wavelength (nm):,900,,
End wavelength (nm):,1700,,
Pattern Pixel Width (nm):,   7.03,,,,
Exposure (ms):,  0.635,,,,
Digital Resolution:,228,,
Num Repeats:,6,,
PGA Gain:,64,,
Total Measurement Time in sec:,  2.673,,
Wavelength (nm),Absorbance (AU),Reference Signal (unitless),Sample Signal (unitless)
901.51,0.046757,108485,97412
905.376,0.052635,121306,107460
909.237,0.054351,131909,116392
913.095,0.054823,143299,126305
916.948,0.054883,156982,138346
922.079,0.055601,179937,158314
925.923,0.056867,200504,175896
929.762,0.057167,222660,195198
933.597,0.057933,244426,213902
937.427,0.057134,263972,231432
941.254,0.057744,281845,246755
945.076,0.057598,297271,260348
950.165,0.056401,315605,277168
953.978,0.055756,328029,288507
957.786,0.056658,340470,298828
961.59,0.056839,352317,309097
965.389,0.057200,363056,318254
969.185,0.057319,373162,327023
972.976,0.057482,382632,335196
976.763,0.058054,391202,342253
981.806,0.058892,400190,349441
985.583,0.059698,406088,353934
989.355,0.060084,410162,357167
993.124,0.060390,412868,359270
996.888,0.061069,414263,359921
1000.65,0.062421,415476,359853
1004.4,0.063174,415479,359232
1009.41,0.064218,414358,357403
1013.15,0.064904,412923,355603
1016.89,0.065894,411526,353593
1020.63,0.065200,409066,352041
1024.36,0.065195,406777,350075
1028.09,0.065330,404427,347945
1031.82,0.064400,401911,346521
1036.78,0.063699,398410,344058
1040.49,0.063402,396204,342387
1044.2,0.063295,394236,340770
1047.91,0.061949,392042,339925
1051.61,0.061657,389823,338229
1055.31,0.061108,388234,337276
1059,0.060154,387599,337465
1063.92,0.059075,386688,337509
1067.61,0.058132,386598,338164
1071.29,0.057797,387377,339107
1074.96,0.056770,388536,340927
1078.63,0.055551,389855,343046
1082.3,0.055020,391215,344664
1085.96,0.054013,393215,347230
1090.84,0.053638,396270,350230
1094.49,0.053135,398760,352839
1098.14,0.053519,400987,354496
1101.79,0.052380,403477,357634
1105.43,0.052573,406116,359813
1109.06,0.051974,407701,361716
1112.7,0.051915,409859,363680
1117.53,0.052045,412494,365909
1121.15,0.052445,414909,367712
1124.77,0.053305,416559,368444
1128.38,0.054224,418532,369407
1131.99,0.055842,419956,369285
1135.6,0.058095,421946,369115
1139.2,0.060607,423881,368669
1143.99,0.063519,426786,368715
1147.58,0.064202,428617,369715
1151.17,0.064686,431169,371502
1154.75,0.067206,433579,371417
1158.33,0.069051,436264,372133
1161.91,0.071577,439132,372407
1165.48,0.073687,442389,373351
1169.04,0.077241,446101,373415
1173.79,0.081341,451929,374739
1177.34,0.083798,456026,376003
1180.9,0.087066,461306,377505
1184.44,0.088423,467657,381509
1187.99,0.089257,473969,385916
1191.52,0.088163,479856,391695
1195.06,0.088505,487372,397517
1199.76,0.086543,497347,407490
1203.29,0.085341,504311,414341
1206.81,0.084348,511507,421215
1210.33,0.083665,519078,428122
1213.84,0.082319,527163,436140
1217.35,0.081388,534208,442917
1220.85,0.079987,540472,449558
1225.51,0.078286,549929,459220
1229.01,0.077576,556888,465792
1232.5,0.077107,562180,470726
1235.98,0.076163,567975,476613
1239.46,0.075036,574815,483606
1242.94,0.073866,582782,491632
1246.41,0.073092,591476,499856
1251.03,0.072609,604016,511022
1254.5,0.072703,612289,517909
1257.96,0.073103,619125,523209
1261.41,0.073860,624551,526875
1264.86,0.074463,629900,530651
1268.31,0.074678,634345,534131
1271.75,0.075860,638574,536230
1276.33,0.076145,642499,539172
1279.76,0.075906,645905,542329
1283.19,0.075191,648307,545243
1286.61,0.074786,650446,547552
1290.03,0.074839,652132,548904
1293.44,0.073897,653907,551593
1296.85,0.073828,655963,553416
1301.39,0.073247,657349,555327
1304.8,0.072998,657558,555822
1308.19,0.073572,658515,555896
1311.58,0.073960,658804,555644
1314.97,0.074225,659011,555479
1318.36,0.074706,658272,554242
1321.73,0.075421,658022,553120
1326.23,0.076427,657870,551713
1329.6,0.077628,656482,549028
1332.97,0.078372,654926,546789
1336.33,0.079628,653727,544212
1339.69,0.081344,652497,541047
1343.04,0.083564,649913,536156
1346.39,0.085845,647671,531507
1349.73,0.088292,645338,526617
1354.18,0.091895,641175,518898
1357.52,0.094311,638376,513766
1360.85,0.096767,635805,508812
1364.17,0.099356,633413,503884
1367.49,0.102039,631026,498894
1370.81,0.104411,628050,493837
1374.12,0.107297,625034,488210
1378.54,0.111171,620272,480188
1381.84,0.114894,616892,473495
1385.14,0.119145,613613,466390
1388.43,0.124182,611526,459444
1391.72,0.129841,610663,452856
1395.01,0.135686,610634,446781
1398.29,0.141657,611700,441450
1402.66,0.149477,614051,435239
1405.93,0.155736,616268,430560
1409.2,0.161630,617795,425809
1412.46,0.167534,618872,420791
1415.72,0.172306,619795,416814
1418.98,0.177128,620495,412677
1422.23,0.181079,621087,409330
1426.56,0.185885,621375,405013
1429.8,0.188591,621616,402653
1433.04,0.191515,622129,400281
1436.27,0.194275,621526,397360
1439.5,0.196232,621113,395311
1442.72,0.198751,620921,392903
1445.94,0.200998,620270,390466
1450.23,0.204903,618860,386091
1453.44,0.208205,617697,382446
1456.64,0.211293,616264,378856
1459.85,0.213657,614413,375667
1463.04,0.216568,612307,371879
1466.24,0.220082,610032,367511
1469.43,0.223325,607345,363170
1473.67,0.228985,603789,356369
1476.85,0.234359,601175,350463
1480.02,0.239832,597737,344095
1483.19,0.246775,594479,336792
1486.36,0.253559,591232,329761
1489.52,0.258834,587853,323918
1492.68,0.262712,583875,318866
1496.89,0.264727,578062,314230
1500.03,0.265762,574159,311365
1503.18,0.266780,570285,308540
1506.32,0.265749,565444,306648
1509.45,0.263962,560571,305259
1512.58,0.263227,555821,303185
1515.71,0.260558,550344,302048
1519.87,0.257476,543983,300683
1522.99,0.255203,538764,299361
1526.1,0.253076,533692,297999
1529.21,0.249304,527902,297337
1532.32,0.245903,521886,296260
1535.42,0.243052,515888,294784
1538.51,0.239473,509987,293823
1541.6,0.235604,503936,292935
1545.72,0.231371,494694,290379
1548.8,0.227812,488378,289031
1551.88,0.225030,481832,286989
1554.95,0.222192,474989,284768
1558.02,0.221279,467818,281059
1561.08,0.219547,460730,277907
1564.15,0.217927,454170,274974
1568.22,0.217264,444181,269337
1571.27,0.217562,436947,264769
1574.32,0.215966,429598,261274
1577.36,0.214119,422039,257771
1580.4,0.213506,414375,253447
1583.43,0.210930,406354,250020
1586.46,0.208473,398475,246563
1590.49,0.205408,388982,242394
1593.51,0.204066,380708,237972
1596.53,0.201154,372727,234551
1599.54,0.200297,365060,230180
1602.55,0.197056,357543,227129
1605.55,0.195787,349495,222666
1608.55,0.192049,341154,219231
1612.54,0.189886,330877,213688
1615.53,0.186203,322904,210315
1618.51,0.186208,315116,205240
1621.49,0.184554,307217,200859
1624.47,0.183263,299481,196384
1627.44,0.180959,292112,192571
1630.41,0.180641,284245,187522
1634.36,0.178829,274079,181571
1637.32,0.178095,266916,177125
1640.27,0.178168,259612,172249
1643.22,0.176126,251804,167856
1646.16,0.173700,244348,163798
1649.1,0.173427,236703,158773
1652.04,0.172647,228171,153325
1655.95,0.169606,215408,145766
1658.88,0.167906,204937,139224
1661.8,0.164397,193395,132449
1664.72,0.159548,179728,124471
1667.63,0.152967,163642,115061
1670.54,0.145213,146312,104729
1673.44,0.137684,128451,93552
1677.31,0.128274,105080,78207
1680.21,0.122021,88906,67129
1683.1,0.119690,75033,56959
1685.99,0.130933,63520,46987
1688.87,0.137178,53714,39166
1691.75,0.140600,45653,33027
1694.62,0.149998,39137,27707
1697.49,0.142520,33776,24327
1701.31,0.151579,28175,19874