File: samples/wool/wool-000811/Column 1_050539_20150331_115449.csv
Method:,Column 1,,
Host Date-Time:,31/3/15 @ 11:54:49,,
Header Version:,1,,
System Temp (C):,32.13,,
Detector Temp (C):,30.48,,
Humidity (%):,3.22,,
Lamp PD:,3825,,
Shift Vector Coefficients:,-10.5391,0.0761263,-0.000134223,,
Pixel to Wavelength Coefficients:,1775.68,-0.916766,-0.000235065,,
Serial Number:,5510004,,
Scan Config Name:,Column 1,,
Scan Config Type:,Slew,,
Section 1,,
Start wavelength (nm):,900,,
End wavelength (nm):,1700,,
Pattern Pixel Width (nm):,   7.03,,,,
Exposure (ms):,  0.635,,,,
Digital Resolution:,228,,
Num Repeats:,6,,
PGA Gain:,64,,
Total Measurement Time in sec:,  2.720,,
Wavelength (nm),Absorbance (AU),Reference Signal (unitless),Sample Signal (unitless)
901.51,0.044113,108485,98007
905.376,0.048360,121306,108523
909.237,0.050495,131909,117430
913.095,0.050822,143299,127474
916.948,0.051684,156982,139369
922.079,0.051386,179937,159858
925.923,0.052326,200504,177745
929.762,0.052069,222660,197503
933.597,0.052982,244426,216354
937.427,0.051736,263972,234327
941.254,0.053945,281845,248923
945.076,0.053613,297271,262748
950.165,0.053325,315605,279138
953.978,0.054096,328029,289612
957.786,0.053818,340470,300788
961.59,0.054461,352317,310794
965.389,0.054892,363056,319950
969.185,0.055012,373162,328765
972.976,0.055336,382632,336857
976.763,0.056488,391202,343489
981.806,0.057035,400190,350939
985.583,0.057423,406088,355793
989.355,0.058420,410162,358538
993.124,0.059020,412868,360405
996.888,0.059586,414263,361152
1000.65,0.060007,415476,361859
1004.4,0.061409,415479,360695
1009.41,0.062406,414358,358897
1013.15,0.063093,412923,357089
1016.89,0.063466,411526,355575
1020.63,0.063677,409066,353278
1024.36,0.063414,406777,351514
1028.09,0.063400,404427,349494
1031.82,0.062964,401911,347669
1036.78,0.062788,398410,344780
1040.49,0.061845,396204,343616
1044.2,0.061702,394236,342022
1047.91,0.060344,392042,341184
1051.61,0.059703,389823,339754
1055.31,0.058721,388234,339135
1059,0.058186,387599,338998
1063.92,0.057179,386688,338986
1067.61,0.055922,386598,339889
1071.29,0.055202,387377,341139
1074.96,0.054214,388536,342939
1078.63,0.054582,389855,343812
1082.3,0.053651,391215,345752
1085.96,0.052780,393215,348217
1090.84,0.051631,396270,351852
1094.49,0.050882,398760,354674
1098.14,0.051529,400987,356124
1101.79,0.050781,403477,358953
1105.43,0.050723,406116,361349
1109.06,0.050129,407701,363256
1112.7,0.050221,409859,365101
1117.53,0.050642,412494,367093
1121.15,0.051193,414909,368774
1124.77,0.051404,416559,370060
1128.38,0.053415,418532,370095
1131.99,0.054225,419956,370663
1135.6,0.057460,421946,369655
1139.2,0.059133,423881,369923
1143.99,0.062033,426786,369979
1147.58,0.062619,428617,371065
1151.17,0.064435,431169,371717
1154.75,0.065575,433579,372815
1158.33,0.067755,436264,373245
1161.91,0.070302,439132,373502
1165.48,0.073332,442389,373656
1169.04,0.075983,446101,374499
1173.79,0.080162,451929,375758
1177.34,0.083401,456026,376347
1180.9,0.085429,461306,378931
1184.44,0.087437,467657,382376
1187.99,0.088106,473969,386940
1191.52,0.087771,479856,392049
1195.06,0.087258,487372,398660
1199.76,0.085963,497347,408034
1203.29,0.084954,504311,414710
1206.81,0.083294,511507,422238
1210.33,0.081923,519078,429843
1213.84,0.081162,527163,437303
1217.35,0.079965,534208,444371
1220.85,0.078804,540472,450785
1225.51,0.077620,549929,459925
1229.01,0.077010,556888,466399
1232.5,0.075936,562180,471997
1235.98,0.075038,567975,477850
1239.46,0.073931,574815,484838
1242.94,0.072877,582782,492753
1246.41,0.072326,591476,500739
1251.03,0.071592,604016,512220
1254.5,0.071676,612289,519135
1257.96,0.072106,619125,524412
1261.41,0.072751,624551,528222
1264.86,0.073012,629900,532427
1268.31,0.074120,634345,534818
1271.75,0.074653,638574,537722
1276.33,0.075179,642499,540373
1279.76,0.075051,645905,543398
1283.19,0.074563,648307,546031
1286.61,0.073950,650446,548607
1290.03,0.073622,652132,550444
1293.44,0.073085,653907,552625
1296.85,0.072833,655963,554685
1301.39,0.072419,657349,556387
1304.8,0.072745,657558,556146
1308.19,0.072864,658515,556803
1311.58,0.073377,658804,556390
1314.97,0.073367,659011,556577
1318.36,0.074343,658272,554706
1321.73,0.074775,658022,553943
1326.23,0.076066,657870,552172
1329.6,0.077122,656482,549669
1332.97,0.078488,654926,546643
1336.33,0.079679,653727,544149
1339.69,0.081669,652497,540642
1343.04,0.083405,649913,536353
1346.39,0.086020,647671,531294
1349.73,0.088500,645338,526365
1354.18,0.091849,641175,518952
1357.52,0.094320,638376,513756
1360.85,0.096865,635805,508697
1364.17,0.099163,633413,504108
1367.49,0.101765,631026,499209
1370.81,0.104553,628050,493675
1374.12,0.107220,625034,488297
1378.54,0.111320,620272,480023
1381.84,0.115495,616892,472840
1385.14,0.119465,613613,466047
1388.43,0.125081,611526,458494
1391.72,0.130913,610663,451740
1395.01,0.137125,610634,445303
1398.29,0.143433,611700,439648
1402.66,0.151169,614051,433546
1405.93,0.159178,616268,427161
1409.2,0.164906,617795,422609
1412.46,0.171277,618872,417180
1415.72,0.176496,619795,412812
1418.98,0.181961,620495,408110
1422.23,0.185940,621087,404774
1426.56,0.190333,621375,400886
1429.8,0.193645,621616,397995
1433.04,0.196983,622129,395273
1436.27,0.199419,621526,392681
1439.5,0.201630,621113,390428
1442.72,0.204360,620921,387861
1445.94,0.206657,620270,385411
1450.23,0.210647,618860,381018
1453.44,0.213370,617697,377925
1456.64,0.216646,616264,374215
1459.85,0.218559,614413,371451
1463.04,0.221405,612307,367760
1466.24,0.224806,610032,363535
1469.43,0.227507,607345,359690
1473.67,0.232971,603789,353113
1476.85,0.237256,601175,348133
1480.02,0.242640,597737,341877
1483.19,0.249441,594479,334731
1486.36,0.255138,591232,328564
1489.52,0.260677,587853,322546
1492.68,0.263577,583875,318231
1496.89,0.266246,578062,313133
1500.03,0.267444,574159,310162
1503.18,0.267705,570285,307884
1506.32,0.267711,565444,305266
1509.45,0.266342,560571,303591
1512.58,0.264886,555821,302029
1515.71,0.262319,550344,300826
1519.87,0.259379,543983,299369
1522.99,0.256919,538764,298181
1526.1,0.253646,533692,297608
1529.21,0.250526,527902,296502
1532.32,0.248308,521886,294624
1535.42,0.244254,515888,293969
1538.51,0.240944,509987,292830
1541.6,0.237697,503936,291527
1545.72,0.232535,494694,289602
1548.8,0.229355,488378,288006
1551.88,0.226554,481832,285984
1554.95,0.224184,474989,283465
1558.02,0.222544,467818,280242
1561.08,0.221398,460730,276725
1564.15,0.219933,454170,273707
1568.22,0.219393,444181,268020
1571.27,0.218596,436947,264139
1574.32,0.216913,429598,260705
1577.36,0.215543,422039,256927
1580.4,0.214304,414375,252982
1583.43,0.212566,406354,249080
1586.46,0.210205,398475,245582
1590.49,0.207142,388982,241428
1593.51,0.205355,380708,237267
1596.53,0.202903,372727,233608
1599.54,0.200223,365060,230219
1602.55,0.197484,357543,226905
1605.55,0.196455,349495,222324
1608.55,0.193410,341154,218545
1612.54,0.190816,330877,213231
1615.53,0.188634,322904,209141
1618.51,0.186189,315116,205249
1621.49,0.185426,307217,200456
1624.47,0.183832,299481,196127
1627.44,0.183403,292112,191490
1630.41,0.180074,284245,187767
1634.36,0.179682,274079,181215
1637.32,0.178698,266916,176879
1640.27,0.178355,259612,172175
1643.22,0.176750,251804,167615
1646.16,0.176365,244348,162796
1649.1,0.175544,236703,158001
1652.04,0.173385,228171,153065
1655.95,0.171660,215408,145078
1658.88,0.170550,204937,138379
1661.8,0.169824,193395,130804
1664.72,0.166543,179728,122482
1667.63,0.163852,163642,112213
1670.54,0.157059,146312,101911
1673.44,0.153497,128451,90207
1677.31,0.148362,105080,74672
1680.21,0.148482,88906,63161
1683.1,0.150813,75033,53020
1685.99,0.151836,63520,44779
1688.87,0.159404,53714,37212
1691.75,0.167618,45653,31035
1694.62,0.169489,39137,26491
1697.49,0.174269,33776,22612
1701.31,0.182199,28175,18521