File: samples/wool/wool-000811/Column 1_050591_20150331_121919.csv
Method:,Column 1,,
Host Date-Time:,31/3/15 @ 12:19:19,,
Header Version:,1,,
System Temp (C):,33.84,,
Detector Temp (C):,34.59,,
Humidity (%):,1.86,,
Lamp PD:,3819,,
Shift Vector Coefficients:,-10.5391,0.0761263,-0.000134223,,
Pixel to Wavelength Coefficients:,1775.68,-0.916766,-0.000235065,,
Serial Number:,5510004,,
Scan Config Name:,Column 1,,
Scan Config Type:,Slew,,
Section 1,,
Start wavelength (nm):,900,,
End wavelength (nm):,1700,,
Pattern Pixel Width (nm):,   7.03,,,,
Exposure (ms):,  0.635,,,,
Digital Resolution:,228,,
Num Repeats:,6,,
PGA Gain:,64,,
Total Measurement Time in sec:,  2.677,,
Wavelength (nm),Absorbance (AU),Reference Signal (unitless),Sample Signal (unitless)
901.51,0.069529,108485,92436
905.376,0.073260,121306,102476
909.237,0.075609,131909,110832
913.095,0.077663,143299,119834
916.948,0.079226,156982,130805
922.079,0.081145,179937,149271
925.923,0.082052,200504,165986
929.762,0.083313,222660,183793
933.597,0.083000,244426,201905
937.427,0.081930,263972,218589
941.254,0.080774,281845,234011
945.076,0.080452,297271,247002
950.165,0.078926,315605,263159
953.978,0.078119,328029,274027
957.786,0.078618,340470,284093
961.59,0.079394,352317,293454
965.389,0.078811,363056,302805
969.185,0.078935,373162,311145
972.976,0.079379,382632,318715
976.763,0.080062,391202,325341
981.806,0.079693,400190,333099
985.583,0.080582,406088,337317
989.355,0.080961,410162,340404
993.124,0.081793,412868,341994
996.888,0.082040,414263,342954
1000.65,0.082583,415476,343529
1004.4,0.084480,415479,342034
1009.41,0.085275,414358,340487
1013.15,0.085655,412923,339011
1016.89,0.086436,411526,337257
1020.63,0.085849,409066,335695
1024.36,0.086073,406777,333644
1028.09,0.085779,404427,331941
1031.82,0.085965,401911,329735
1036.78,0.085206,398410,327434
1040.49,0.085401,396204,325475
1044.2,0.084911,394236,324224
1047.91,0.084080,392042,323037
1051.61,0.083977,389823,321285
1055.31,0.084131,388234,319862
1059,0.083470,387599,319825
1063.92,0.082910,386688,319485
1067.61,0.082154,386598,319967
1071.29,0.081981,387377,320740
1074.96,0.081552,388536,322017
1078.63,0.080891,389855,323603
1082.3,0.079759,391215,325579
1085.96,0.078396,393215,328272
1090.84,0.078363,396270,330848
1094.49,0.077423,398760,333648
1098.14,0.077138,400987,335732
1101.79,0.076756,403477,338114
1105.43,0.076049,406116,340880
1109.06,0.075780,407701,342422
1112.7,0.075726,409859,344277
1117.53,0.075143,412494,346956
1121.15,0.075715,414909,348528
1124.77,0.075507,416559,350082
1128.38,0.077258,418532,350325
1131.99,0.077702,419956,351157
1135.6,0.079403,421946,351442
1139.2,0.080578,423881,352100
1143.99,0.082680,426786,352801
1147.58,0.083904,428617,353318
1151.17,0.084613,431169,354842
1154.75,0.085334,433579,356233
1158.33,0.086845,436264,357194
1161.91,0.088588,439132,358102
1165.48,0.090185,442389,359434
1169.04,0.092610,446101,360432
1173.79,0.096281,451929,362067
1177.34,0.098019,456026,363890
1180.9,0.100573,461306,365945
1184.44,0.102351,467657,369468
1187.99,0.103069,473969,373836
1191.52,0.103128,479856,378428
1195.06,0.102507,487372,384905
1199.76,0.102053,497347,393194
1203.29,0.102205,504311,398560
1206.81,0.101340,511507,405053
1210.33,0.100541,519078,411805
1213.84,0.100117,527163,418628
1217.35,0.099482,534208,424843
1220.85,0.098674,540472,430625
1225.51,0.097990,549929,438851
1229.01,0.097721,556888,444679
1232.5,0.096776,562180,449883
1235.98,0.096514,567975,454795
1239.46,0.095664,574815,461173
1242.94,0.094431,582782,468895
1246.41,0.094075,591476,476280
1251.03,0.093600,604016,486910
1254.5,0.094101,612289,493010
1257.96,0.094390,619125,498182
1261.41,0.095097,624551,501731
1264.86,0.095712,629900,505312
1268.31,0.095552,634345,509065
1271.75,0.096681,638574,511129
1276.33,0.096737,642499,514204
1279.76,0.096603,645905,517090
1283.19,0.096254,648307,519430
1286.61,0.095373,650446,522202
1290.03,0.095478,652132,523429
1293.44,0.094694,653907,525802
1296.85,0.094822,655963,527299
1301.39,0.094767,657349,528480
1304.8,0.094616,657558,528833
1308.19,0.094713,658515,529484
1311.58,0.094841,658804,529560
1314.97,0.095282,659011,529189
1318.36,0.095680,658272,528111
1321.73,0.095884,658022,527663
1326.23,0.096706,657870,526543
1329.6,0.097657,656482,524283
1332.97,0.098749,654926,521727
1336.33,0.100027,653727,519242
1339.69,0.101328,652497,516714
1343.04,0.103034,649913,512650
1346.39,0.104969,647671,508611
1349.73,0.106790,645338,504658
1354.18,0.109746,641175,498001
1357.52,0.111850,638376,493431
1360.85,0.113694,635805,489362
1364.17,0.115903,633413,485047
1367.49,0.117958,631026,480938
1370.81,0.119960,628050,476469
1374.12,0.122193,625034,471749
1378.54,0.125565,620272,464534
1381.84,0.128505,616892,458885
1385.14,0.131925,613613,452866
1388.43,0.135805,611526,447311
1391.72,0.140498,610663,441879
1395.01,0.144686,610634,437618
1398.29,0.149466,611700,433583
1402.66,0.156291,614051,428463
1405.93,0.162125,616268,424272
1409.2,0.167463,617795,420128
1412.46,0.170783,618872,417655
1415.72,0.175897,619795,413382
1418.98,0.179723,620495,410219
1422.23,0.183333,621087,407211
1426.56,0.187300,621375,403695
1429.8,0.189727,621616,401601
1433.04,0.191662,622129,400146
1436.27,0.194623,621526,397042
1439.5,0.196313,621113,395237
1442.72,0.198586,620921,393052
1445.94,0.201237,620270,390251
1450.23,0.204757,618860,386221
1453.44,0.206863,617697,383630
1456.64,0.209299,616264,380599
1459.85,0.212273,614413,376866
1463.04,0.215483,612307,372809
1466.24,0.218541,610032,368818
1469.43,0.221366,607345,364812
1473.67,0.227850,603789,357302
1476.85,0.233235,601175,351371
1480.02,0.238429,597737,345208
1483.19,0.244219,594479,338780
1486.36,0.249662,591232,332733
1489.52,0.254287,587853,327327
1492.68,0.257214,583875,322928
1496.89,0.259156,578062,318287
1500.03,0.260044,574159,315492
1503.18,0.259377,570285,313845
1506.32,0.258968,565444,311474
1509.45,0.257809,560571,309615
1512.58,0.256081,555821,308215
1515.71,0.253810,550344,306778
1519.87,0.250739,543983,305384
1522.99,0.248168,538764,304250
1526.1,0.246142,533692,302795
1529.21,0.243027,527902,301666
1532.32,0.240363,521886,300063
1535.42,0.237354,515888,298677
1538.51,0.234987,509987,296874
1541.6,0.231869,503936,295465
1545.72,0.228206,494694,292503
1548.8,0.225250,488378,290741
1551.88,0.222502,481832,288665
1554.95,0.220764,474989,285706
1558.02,0.218989,467818,282545
1561.08,0.218299,460730,278707
1564.15,0.216797,454170,275690
1568.22,0.215907,444181,270180
1571.27,0.215268,436947,266171
1574.32,0.214617,429598,262087
1577.36,0.213864,422039,257922
1580.4,0.211539,414375,254598
1583.43,0.210749,406354,250124
1586.46,0.209254,398475,246120
1590.49,0.207851,388982,241034
1593.51,0.205188,380708,237358
1596.53,0.203240,372727,233427
1599.54,0.201824,365060,229372
1602.55,0.200139,357543,225522
1605.55,0.198246,349495,221409
1608.55,0.195108,341154,217692
1612.54,0.193802,330877,211770
1615.53,0.191451,322904,207789
1618.51,0.191293,315116,202851
1621.49,0.189105,307217,198765
1624.47,0.188565,299481,194001
1627.44,0.187143,292112,189848
1630.41,0.186751,284245,184902
1634.36,0.185231,274079,178914
1637.32,0.184415,266916,174566
1640.27,0.183375,259612,170196
1643.22,0.182417,251804,165442
1646.16,0.182896,244348,160366
1649.1,0.181458,236703,155864
1652.04,0.180156,228171,150697
1655.95,0.176979,215408,143312
1658.88,0.172727,204937,137687
1661.8,0.167516,193395,131501
1664.72,0.160228,179728,124276
1667.63,0.146999,163642,116653
1670.54,0.134660,146312,107305
1673.44,0.117565,128451,97988
1677.31,0.099122,105080,83637
1680.21,0.088342,88906,72542
1683.1,0.081364,75033,62214
1685.99,0.085681,63520,52147
1688.87,0.086842,53714,43979
1691.75,0.085820,45653,37467
1694.62,0.091693,39137,31688
1697.49,0.098356,33776,26931
1701.31,0.108964,28175,21923