File: samples/wool/wool-000811/Column 1_050531_20150331_115050.csv
Method:,Column 1,,
Host Date-Time:,31/3/15 @ 11:50:50,,
Header Version:,1,,
System Temp (C):,30.1,,
Detector Temp (C):,31.96,,
Humidity (%):,4.96,,
Lamp PD:,3832,,
Shift Vector Coefficients:,-10.5391,0.0761263,-0.000134223,,
Pixel to Wavelength Coefficients:,1775.68,-0.916766,-0.000235065,,
Serial Number:,5510004,,
Scan Config Name:,Column 1,,
Scan Config Type:,Slew,,
Section 1,,
Start wavelength (nm):,900,,
End wavelength (nm):,1700,,
Pattern Pixel Width (nm):,   7.03,,,,
Exposure (ms):,  0.635,,,,
Digital Resolution:,228,,
Num Repeats:,6,,
PGA Gain:,64,,
Total Measurement Time in sec:,  2.682,,
Wavelength (nm),Absorbance (AU),Reference Signal (unitless),Sample Signal (unitless)
901.51,0.045982,108485,97586
905.376,0.050455,121306,108001
909.237,0.052701,131909,116835
913.095,0.052292,143299,127043
916.948,0.052467,156982,139118
922.079,0.052567,179937,159424
925.923,0.052734,200504,177578
929.762,0.053540,222660,196835
933.597,0.053613,244426,216040
937.427,0.053394,263972,233434
941.254,0.054399,281845,248663
945.076,0.054522,297271,262199
950.165,0.054317,315605,278501
953.978,0.054204,328029,289540
957.786,0.054646,340470,300215
961.59,0.055568,352317,310003
965.389,0.055787,363056,319291
969.185,0.056024,373162,328000
972.976,0.056712,382632,335791
976.763,0.057566,391202,342638
981.806,0.058338,400190,349887
985.583,0.059182,406088,354355
989.355,0.059797,410162,357403
993.124,0.059470,412868,360032
996.888,0.060566,414263,360338
1000.65,0.061141,415476,360915
1004.4,0.062612,415479,359697
1009.41,0.063979,414358,357599
1013.15,0.064229,412923,356156
1016.89,0.063967,411526,355165
1020.63,0.064681,409066,352462
1024.36,0.064327,406777,350776
1028.09,0.064214,404427,348840
1031.82,0.063709,401911,347073
1036.78,0.062544,398410,344974
1040.49,0.062540,396204,343067
1044.2,0.061956,394236,341822
1047.91,0.061224,392042,340493
1051.61,0.060244,389823,339331
1055.31,0.060131,388234,338036
1059,0.059609,387599,337889
1063.92,0.057548,386688,338698
1067.61,0.056778,386598,339220
1071.29,0.056490,387377,340129
1074.96,0.055630,388536,341823
1078.63,0.055224,389855,343304
1082.3,0.054270,391215,345259
1085.96,0.053294,393215,347805
1090.84,0.053115,396270,350652
1094.49,0.052681,398760,353208
1098.14,0.051912,400987,355810
1101.79,0.051636,403477,358247
1105.43,0.052005,406116,360284
1109.06,0.051556,407701,362064
1112.7,0.051644,409859,363907
1117.53,0.051385,412494,366465
1121.15,0.052730,414909,367471
1124.77,0.052512,416559,369117
1128.38,0.054167,418532,369455
1131.99,0.056146,419956,369027
1135.6,0.058272,421946,368965
1139.2,0.059903,423881,369267
1143.99,0.063290,426786,368910
1147.58,0.063786,428617,370070
1151.17,0.065703,431169,370633
1154.75,0.066620,433579,371919
1158.33,0.069267,436264,371948
1161.91,0.072271,439132,371813
1165.48,0.074698,442389,372483
1169.04,0.077579,446101,373125
1173.79,0.082154,451929,374038
1177.34,0.084410,456026,375474
1180.9,0.087323,461306,377282
1184.44,0.089282,467657,380755
1187.99,0.090073,473969,385192
1191.52,0.089396,479856,390584
1195.06,0.089483,487372,396623
1199.76,0.087319,497347,406762
1203.29,0.085827,504311,413877
1206.81,0.084886,511507,420693
1210.33,0.083611,519078,428175
1213.84,0.082514,527163,435944
1217.35,0.081596,534208,442705
1220.85,0.080617,540472,448907
1225.51,0.079222,549929,458231
1229.01,0.078323,556888,464991
1232.5,0.077515,562180,470284
1235.98,0.076509,567975,476234
1239.46,0.075839,574815,482713
1242.94,0.074603,582782,490798
1246.41,0.073523,591476,499361
1251.03,0.073119,604016,510422
1254.5,0.073359,612289,517127
1257.96,0.073796,619125,522375
1261.41,0.074088,624551,526599
1264.86,0.074925,629900,530086
1268.31,0.075360,634345,533293
1271.75,0.076177,638574,535839
1276.33,0.076624,642499,538578
1279.76,0.076202,645905,541959
1283.19,0.075830,648307,544441
1286.61,0.075648,650446,546466
1290.03,0.075336,652132,548276
1293.44,0.074954,653907,550253
1296.85,0.074405,655963,552681
1301.39,0.074014,657349,554347
1304.8,0.074707,657558,553639
1308.19,0.074731,658515,554414
1311.58,0.074881,658804,554466
1314.97,0.075218,659011,554211
1318.36,0.076031,658272,552553
1321.73,0.076542,658022,551694
1326.23,0.077616,657870,550204
1329.6,0.078887,656482,547439
1332.97,0.079843,654926,544941
1336.33,0.081321,653727,542095
1339.69,0.083370,652497,538528
1343.04,0.085461,649913,533819
1346.39,0.087999,647671,528878
1349.73,0.090691,645338,523716
1354.18,0.093802,641175,516624
1357.52,0.096267,638376,511457
1360.85,0.098730,635805,506517
1364.17,0.101057,633413,501915
1367.49,0.103730,631026,496955
1370.81,0.106531,628050,491432
1374.12,0.109566,625034,485666
1378.54,0.113598,620272,477512
1381.84,0.117450,616892,470716
1385.14,0.122316,613613,462997
1388.43,0.127680,611526,455759
1391.72,0.133958,610663,448584
1395.01,0.140466,610634,441891
1398.29,0.146982,611700,436070
1402.66,0.156367,614051,428388
1405.93,0.163786,616268,422653
1409.2,0.170784,617795,416927
1412.46,0.176962,618872,411755
1415.72,0.182744,619795,406915
1418.98,0.187795,620495,402664
1422.23,0.192711,621087,398512
1426.56,0.197308,621375,394499
1429.8,0.201535,621616,390829
1433.04,0.204801,622129,388221
1436.27,0.207144,621526,385758
1439.5,0.209641,621113,383292
1442.72,0.213056,620921,380172
1445.94,0.215457,620270,377680
1450.23,0.219600,618860,373244
1453.44,0.222143,617697,370367
1456.64,0.225056,616264,367038
1459.85,0.227549,614413,363841
1463.04,0.230224,612307,360367
1466.24,0.232867,610032,356850
1469.43,0.235801,607345,352886
1473.67,0.239837,603789,347575
1476.85,0.244593,601175,342301
1480.02,0.248992,597737,336913
1483.19,0.254870,594479,330572
1486.36,0.260416,591232,324595
1489.52,0.264699,587853,319573
1492.68,0.268338,583875,314762
1496.89,0.271211,578062,309573
1500.03,0.272266,574159,306737
1503.18,0.272402,570285,304572
1506.32,0.271926,565444,302318
1509.45,0.271142,560571,300254
1512.58,0.269671,555821,298720
1515.71,0.267647,550344,297158
1519.87,0.264213,543983,296055
1522.99,0.261678,538764,294931
1526.1,0.259149,533692,293861
1529.21,0.255834,527902,292900
1532.32,0.252593,521886,291731
1535.42,0.249674,515888,290323
1538.51,0.245750,509987,289607
1541.6,0.243090,503936,287929
1545.72,0.237880,494694,286060
1548.8,0.235493,488378,283964
1551.88,0.231235,481832,282918
1554.95,0.228881,474989,280416
1558.02,0.226881,467818,277457
1561.08,0.226478,460730,273507
1564.15,0.224945,454170,270566
1568.22,0.224563,444181,264848
1571.27,0.223477,436947,261187
1574.32,0.222005,429598,257666
1577.36,0.221085,422039,253669
1580.4,0.218803,414375,250375
1583.43,0.216749,406354,246692
1586.46,0.214143,398475,243365
1590.49,0.211799,388982,238853
1593.51,0.210283,380708,234590
1596.53,0.206609,372727,231623
1599.54,0.204881,365060,227763
1602.55,0.203131,357543,223974
1605.55,0.200359,349495,220334
1608.55,0.196947,341154,216772
1612.54,0.196070,330877,210667
1615.53,0.192472,322904,207301
1618.51,0.191066,315116,202957
1621.49,0.188917,307217,198851
1624.47,0.187240,299481,194594
1627.44,0.187114,292112,189861
1630.41,0.184418,284245,185898
1634.36,0.183091,274079,179798
1637.32,0.182461,266916,175353
1640.27,0.180968,259612,171142
1643.22,0.179416,251804,166589
1646.16,0.178939,244348,161834
1649.1,0.178033,236703,157098
1652.04,0.176528,228171,151961
1655.95,0.175086,215408,143938
1658.88,0.174396,204937,137159
1661.8,0.173161,193395,129803
1664.72,0.169464,179728,121661
1667.63,0.165725,163642,111730
1670.54,0.161264,146312,100929
1673.44,0.154056,128451,90091
1677.31,0.150765,105080,74260
1680.21,0.150557,88906,62860
1683.1,0.152775,75033,52781
1685.99,0.158866,63520,44060
1688.87,0.167866,53714,36494
1691.75,0.166835,45653,31091
1694.62,0.168343,39137,26561
1697.49,0.175038,33776,22572
1701.31,0.185353,28175,18387