File: samples/wool/wool-000811/Column 1_050545_20150331_115726.csv
Method:,Column 1,,
Host Date-Time:,31/3/15 @ 11:57:26,,
Header Version:,1,,
System Temp (C):,32.86,,
Detector Temp (C):,31.37,,
Humidity (%):,2.54,,
Lamp PD:,3823,,
Shift Vector Coefficients:,-10.5391,0.0761263,-0.000134223,,
Pixel to Wavelength Coefficients:,1775.68,-0.916766,-0.000235065,,
Serial Number:,5510004,,
Scan Config Name:,Column 1,,
Scan Config Type:,Slew,,
Section 1,,
Start wavelength (nm):,900,,
End wavelength (nm):,1700,,
Pattern Pixel Width (nm):,   7.03,,,,
Exposure (ms):,  0.635,,,,
Digital Resolution:,228,,
Num Repeats:,6,,
PGA Gain:,64,,
Total Measurement Time in sec:,  2.675,,
Wavelength (nm),Absorbance (AU),Reference Signal (unitless),Sample Signal (unitless)
901.51,0.046071,108485,97566
905.376,0.049848,121306,108152
909.237,0.054960,131909,116229
913.095,0.053789,143299,126606
916.948,0.053348,156982,138836
922.079,0.054804,179937,158605
925.923,0.055895,200504,176290
929.762,0.055770,222660,195827
933.597,0.056222,244426,214746
937.427,0.055058,263972,232541
941.254,0.055849,281845,247834
945.076,0.056028,297271,261291
950.165,0.055238,315605,277911
953.978,0.054699,328029,289210
957.786,0.055359,340470,299723
961.59,0.056085,352317,309634
965.389,0.056434,363056,318816
969.185,0.056110,373162,327935
972.976,0.056646,382632,335842
976.763,0.057450,391202,342729
981.806,0.058336,400190,349889
985.583,0.059424,406088,354157
989.355,0.059773,410162,357423
993.124,0.060104,412868,359507
996.888,0.060205,414263,360638
1000.65,0.061141,415476,360915
1004.4,0.062679,415479,359642
1009.41,0.063574,414358,357933
1013.15,0.064650,412923,355811
1016.89,0.064690,411526,354574
1020.63,0.064596,409066,352531
1024.36,0.063917,406777,351107
1028.09,0.064050,404427,348972
1031.82,0.063903,401911,346918
1036.78,0.063048,398410,344574
1040.49,0.062492,396204,343105
1044.2,0.062530,394236,341371
1047.91,0.061648,392042,340161
1051.61,0.060923,389823,338801
1055.31,0.060282,388234,337918
1059,0.059020,387599,338347
1063.92,0.058481,386688,337971
1067.61,0.057196,386598,338894
1071.29,0.056808,387377,339880
1074.96,0.056193,388536,341380
1078.63,0.054739,389855,343688
1082.3,0.054620,391215,344981
1085.96,0.053322,393215,347783
1090.84,0.052677,396270,351006
1094.49,0.051949,398760,353804
1098.14,0.052293,400987,355498
1101.79,0.051246,403477,358569
1105.43,0.051512,406116,360693
1109.06,0.051030,407701,362503
1112.7,0.051388,409859,364122
1117.53,0.051024,412494,366770
1121.15,0.052012,414909,368079
1124.77,0.052813,416559,368862
1128.38,0.054184,418532,369441
1131.99,0.055797,419956,369323
1135.6,0.057793,421946,369372
1139.2,0.059396,423881,369699
1143.99,0.062301,426786,369751
1147.58,0.063166,428617,370598
1151.17,0.064925,431169,371298
1154.75,0.066600,433579,371936
1158.33,0.067966,436264,373064
1161.91,0.070700,439132,373160
1165.48,0.073647,442389,373385
1169.04,0.076905,446101,373704
1173.79,0.080736,451929,375262
1177.34,0.083704,456026,376085
1180.9,0.086147,461306,378305
1184.44,0.087908,467657,381961
1187.99,0.088976,473969,386166
1191.52,0.088303,479856,391569
1195.06,0.087801,487372,398162
1199.76,0.086146,497347,407862
1203.29,0.085028,504311,414639
1206.81,0.083598,511507,421943
1210.33,0.082733,519078,429042
1213.84,0.081547,527163,436916
1217.35,0.079982,534208,444353
1220.85,0.079052,540472,450527
1225.51,0.077965,549929,459559
1229.01,0.077570,556888,465798
1232.5,0.076336,562180,471563
1235.98,0.075581,567975,477253
1239.46,0.074336,574815,484387
1242.94,0.073238,582782,492343
1246.41,0.072078,591476,501025
1251.03,0.072115,604016,511603
1254.5,0.071785,612289,519005
1257.96,0.072363,619125,524101
1261.41,0.073139,624551,527751
1264.86,0.073180,629900,532221
1268.31,0.074144,634345,534788
1271.75,0.075021,638574,537267
1276.33,0.075152,642499,540406
1279.76,0.074936,645905,543542
1283.19,0.074566,648307,546028
1286.61,0.074099,650446,548419
1290.03,0.073789,652132,550233
1293.44,0.072880,653907,552886
1296.85,0.072989,655963,554486
1301.39,0.072702,657349,556024
1304.8,0.072612,657558,556317
1308.19,0.073016,658515,556608
1311.58,0.073096,658804,556750
1314.97,0.073869,659011,555935
1318.36,0.074515,658272,554486
1321.73,0.074767,658022,553954
1326.23,0.075941,657870,552331
1329.6,0.076633,656482,550288
1332.97,0.077933,654926,547342
1336.33,0.079445,653727,544442
1339.69,0.081046,652497,541418
1343.04,0.083028,649913,536818
1346.39,0.085382,647671,532075
1349.73,0.087860,645338,527142
1354.18,0.091407,641175,519481
1357.52,0.093729,638376,514455
1360.85,0.096066,635805,509634
1364.17,0.098773,633413,504561
1367.49,0.101794,631026,499176
1370.81,0.104213,628050,494062
1374.12,0.106950,625034,488600
1378.54,0.110875,620272,480515
1381.84,0.114907,616892,473481
1385.14,0.119119,613613,466418
1388.43,0.124506,611526,459102
1391.72,0.130012,610663,452678
1395.01,0.135526,610634,446946
1398.29,0.141654,611700,441453
1402.66,0.149727,614051,434988
1405.93,0.156298,616268,430003
1409.2,0.162324,617795,425129
1412.46,0.168290,618872,420060
1415.72,0.173478,619795,415690
1418.98,0.178524,620495,411353
1422.23,0.182372,621087,408113
1426.56,0.186917,621375,404052
1429.8,0.190302,621616,401070
1433.04,0.192736,622129,399158
1436.27,0.195884,621526,395891
1439.5,0.197982,621113,393721
1442.72,0.200691,620921,391152
1445.94,0.203133,620270,388551
1450.23,0.207115,618860,384129
1453.44,0.209755,617697,381084
1456.64,0.212416,616264,377877
1459.85,0.214869,614413,374620
1463.04,0.218643,612307,370106
1466.24,0.221000,610032,366735
1469.43,0.224609,607345,362098
1473.67,0.229972,603789,355560
1476.85,0.235351,601175,349663
1480.02,0.240630,597737,343463
1483.19,0.247880,594479,335936
1486.36,0.252969,591232,330209
1489.52,0.259139,587853,323690
1492.68,0.262287,583875,319178
1496.89,0.265010,578062,314025
1500.03,0.265928,574159,311246
1503.18,0.266056,570285,309055
1506.32,0.266104,565444,306398
1509.45,0.264157,560571,305122
1512.58,0.263179,555821,303219
1515.71,0.260770,550344,301901
1519.87,0.257670,543983,300549
1522.99,0.255138,538764,299406
1526.1,0.252208,533692,298595
1529.21,0.249230,527902,297388
1532.32,0.245472,521886,296554
1535.42,0.242688,515888,295031
1538.51,0.239481,509987,293818
1541.6,0.236012,503936,292660
1545.72,0.231373,494694,290378
1548.8,0.227520,488378,289225
1551.88,0.225774,481832,286498
1554.95,0.223156,474989,284137
1558.02,0.221332,467818,281025
1561.08,0.219560,460730,277899
1564.15,0.218559,454170,274574
1568.22,0.217798,444181,269006
1571.27,0.217463,436947,264829
1574.32,0.215826,429598,261358
1577.36,0.214457,422039,257570
1580.4,0.212960,414375,253766
1583.43,0.211495,406354,249695
1586.46,0.208422,398475,246592
1590.49,0.206471,388982,241801
1593.51,0.204415,380708,237781
1596.53,0.201607,372727,234306
1599.54,0.198869,365060,230938
1602.55,0.196748,357543,227290
1605.55,0.195317,349495,222907
1608.55,0.191775,341154,219369
1612.54,0.190926,330877,213177
1615.53,0.187620,322904,209630
1618.51,0.186240,315116,205225
1621.49,0.184610,307217,200833
1624.47,0.183058,299481,196477
1627.44,0.181979,292112,192119
1630.41,0.180590,284245,187544
1634.36,0.179219,274079,181408
1637.32,0.177622,266916,177318
1640.27,0.176648,259612,172853
1643.22,0.174953,251804,168310
1646.16,0.174874,244348,163356
1649.1,0.172818,236703,158996
1652.04,0.172925,228171,153227
1655.95,0.170924,215408,145324
1658.88,0.169660,204937,138663
1661.8,0.165174,193395,132212
1664.72,0.163255,179728,123413
1667.63,0.155659,163642,114350
1670.54,0.147479,146312,104184
1673.44,0.141377,128451,92760
1677.31,0.134770,105080,77046
1680.21,0.130388,88906,65848
1683.1,0.133896,75033,55126
1685.99,0.139200,63520,46101
1688.87,0.146934,53714,38296
1691.75,0.152667,45653,32122
1694.62,0.154900,39137,27396
1697.49,0.158966,33776,23423
1701.31,0.168467,28175,19116