File: samples/wool/wool-000811/Column 1_050624_20150331_123451.csv
Method:,Column 1,,
Host Date-Time:,31/3/15 @ 12:34:51,,
Header Version:,1,,
System Temp (C):,34.11,,
Detector Temp (C):,35.05,,
Humidity (%):,1.56,,
Lamp PD:,3818,,
Shift Vector Coefficients:,-10.5391,0.0761263,-0.000134223,,
Pixel to Wavelength Coefficients:,1775.68,-0.916766,-0.000235065,,
Serial Number:,5510004,,
Scan Config Name:,Column 1,,
Scan Config Type:,Slew,,
Section 1,,
Start wavelength (nm):,900,,
End wavelength (nm):,1700,,
Pattern Pixel Width (nm):,   7.03,,,,
Exposure (ms):,  0.635,,,,
Digital Resolution:,228,,
Num Repeats:,6,,
PGA Gain:,64,,
Total Measurement Time in sec:,  2.718,,
Wavelength (nm),Absorbance (AU),Reference Signal (unitless),Sample Signal (unitless)
901.51,0.068914,108485,92567
905.376,0.075687,121306,101905
909.237,0.076186,131909,110685
913.095,0.077855,143299,119781
916.948,0.077496,156982,131327
922.079,0.079606,179937,149801
925.923,0.081748,200504,166102
929.762,0.082780,222660,184019
933.597,0.081885,244426,202424
937.427,0.080113,263972,219505
941.254,0.080722,281845,234039
945.076,0.078297,297271,248231
950.165,0.077625,315605,263948
953.978,0.076482,328029,275062
957.786,0.076695,340470,285354
961.59,0.077353,352317,294836
965.389,0.076931,363056,304118
969.185,0.076939,373162,312578
972.976,0.077747,382632,319915
976.763,0.077561,391202,327220
981.806,0.078408,400190,334086
985.583,0.079141,406088,338438
989.355,0.080307,410162,340917
993.124,0.079752,412868,343605
996.888,0.080588,414263,344103
1000.65,0.080782,415476,344956
1004.4,0.082266,415479,343782
1009.41,0.084055,414358,341445
1013.15,0.083616,412923,340607
1016.89,0.084149,411526,339038
1020.63,0.084111,409066,337041
1024.36,0.084150,406777,335125
1028.09,0.084242,404427,333118
1031.82,0.083784,401911,331395
1036.78,0.083767,398410,328521
1040.49,0.084131,396204,326428
1044.2,0.083762,394236,325083
1047.91,0.083449,392042,323507
1051.61,0.082564,389823,322332
1055.31,0.082373,388234,321159
1059,0.081590,387599,321213
1063.92,0.081163,386688,320773
1067.61,0.080358,386598,321293
1071.29,0.079704,387377,322426
1074.96,0.079185,388536,323777
1078.63,0.078873,389855,325110
1082.3,0.077654,391215,327161
1085.96,0.076858,393215,329437
1090.84,0.075927,396270,332709
1094.49,0.075943,398760,334787
1098.14,0.075366,400987,337104
1101.79,0.074863,403477,339591
1105.43,0.074620,406116,342003
1109.06,0.073560,407701,344177
1112.7,0.072778,409859,346622
1117.53,0.072208,412494,349309
1121.15,0.073409,414909,350384
1124.77,0.073607,416559,351617
1128.38,0.074232,418532,352774
1131.99,0.075237,419956,353156
1135.6,0.076456,421946,353835
1139.2,0.077758,423881,354394
1143.99,0.080104,426786,354900
1147.58,0.081310,428617,355434
1151.17,0.081365,431169,357505
1154.75,0.082327,433579,358708
1158.33,0.084272,436264,359317
1161.91,0.086034,439132,360214
1165.48,0.087590,442389,361588
1169.04,0.089930,446101,362663
1173.79,0.093376,451929,364497
1177.34,0.095512,456026,365997
1180.9,0.097638,461306,368427
1184.44,0.099246,467657,372119
1187.99,0.100815,473969,375781
1191.52,0.100154,479856,381028
1195.06,0.100111,487372,387034
1199.76,0.099555,497347,395462
1203.29,0.099133,504311,401389
1206.81,0.098449,511507,407758
1210.33,0.097905,519078,414312
1213.84,0.097399,527163,421256
1217.35,0.097115,534208,427165
1220.85,0.096406,540472,432880
1225.51,0.095237,549929,441641
1229.01,0.094430,556888,448062
1232.5,0.094495,562180,452252
1235.98,0.093503,567975,457959
1239.46,0.092621,574815,464416
1242.94,0.091584,582782,471978
1246.41,0.091080,591476,479576
1251.03,0.090782,604016,490079
1254.5,0.091252,612289,496254
1257.96,0.091717,619125,501258
1261.41,0.092085,624551,505223
1264.86,0.092748,629900,508772
1268.31,0.093148,634345,511891
1271.75,0.094037,638574,514250
1276.33,0.094099,642499,517337
1279.76,0.093684,645905,520577
1283.19,0.093055,648307,523270
1286.61,0.093178,650446,524848
1290.03,0.092578,652132,526935
1293.44,0.091890,653907,529208
1296.85,0.092062,655963,530661
1301.39,0.091731,657349,532188
1304.8,0.091513,657558,532625
1308.19,0.091827,658515,533014
1311.58,0.091646,658804,533470
1314.97,0.092209,659011,532946
1318.36,0.092473,658272,532025
1321.73,0.092586,658022,531685
1326.23,0.093374,657870,530598
1329.6,0.094052,656482,528653
1332.97,0.094551,654926,526794
1336.33,0.096010,653727,524067
1339.69,0.097401,652497,521408
1343.04,0.098858,649913,517603
1346.39,0.100721,647671,513610
1349.73,0.102585,645338,509568
1354.18,0.105454,641175,502947
1357.52,0.107732,638376,498132
1360.85,0.109442,635805,494176
1364.17,0.111634,633413,489838
1367.49,0.113727,631026,485647
1370.81,0.115863,628050,480985
1374.12,0.117652,625034,476707
1378.54,0.120246,620272,470258
1381.84,0.123223,616892,464500
1385.14,0.126028,613613,459057
1388.43,0.129742,611526,453600
1391.72,0.133617,610663,448936
1395.01,0.137573,610634,444844
1398.29,0.141752,611700,441353
1402.66,0.147627,614051,437097
1405.93,0.152288,616268,433992
1409.2,0.156559,617795,430810
1412.46,0.161002,618872,427168
1415.72,0.164481,619795,424392
1418.98,0.167749,620495,421686
1422.23,0.171366,621087,418588
1426.56,0.174977,621375,415314
1429.8,0.177562,621616,413010
1433.04,0.180136,622129,410908
1436.27,0.182700,621526,408093
1439.5,0.184100,621113,406509
1442.72,0.186429,620921,404210
1445.94,0.188648,620270,401729
1450.23,0.192662,618860,397128
1453.44,0.195301,617697,393980
1456.64,0.198155,616264,390492
1459.85,0.201496,614413,386335
1463.04,0.204192,612307,382628
1466.24,0.207437,610032,378369
1469.43,0.211751,607345,372979
1473.67,0.218000,603789,365498
1476.85,0.224151,601175,358798
1480.02,0.230522,597737,351551
1483.19,0.237053,594479,344416
1486.36,0.242658,591232,338143
1489.52,0.247923,587853,332159
1492.68,0.251618,583875,327116
1496.89,0.253326,578062,322588
1500.03,0.253943,574159,319955
1503.18,0.253698,570285,317976
1506.32,0.253151,565444,315674
1509.45,0.251449,560571,314182
1512.58,0.250192,555821,312423
1515.71,0.247810,550344,311046
1519.87,0.244270,543983,309967
1522.99,0.242639,538764,308148
1526.1,0.239944,533692,307147
1529.21,0.236629,527902,306143
1532.32,0.234157,521886,304382
1535.42,0.230964,515888,303104
1538.51,0.228178,509987,301565
1541.6,0.225257,503936,299998
1545.72,0.220872,494694,297485
1548.8,0.218735,488378,295135
1551.88,0.216108,481832,292946
1554.95,0.214359,474989,289951
1558.02,0.212580,467818,286746
1561.08,0.210815,460730,283551
1564.15,0.210837,454170,279500
1568.22,0.209548,444181,274165
1571.27,0.208996,436947,270043
1574.32,0.207644,429598,266329
1577.36,0.206515,422039,262324
1580.4,0.205969,414375,257884
1583.43,0.204670,406354,253650
1586.46,0.202421,398475,250023
1590.49,0.201699,388982,244473
1593.51,0.199639,380708,240410
1596.53,0.196917,372727,236850
1599.54,0.195450,365060,232763
1602.55,0.193366,357543,229067
1605.55,0.192056,349495,224587
1608.55,0.189942,341154,220297
1612.54,0.188116,330877,214561
1615.53,0.185524,322904,210644
1618.51,0.184890,315116,205864
1621.49,0.183009,307217,201575
1624.47,0.182338,299481,196803
1627.44,0.182226,292112,192010
1630.41,0.181863,284245,186995
1634.36,0.179488,274079,181296
1637.32,0.180046,266916,176331
1640.27,0.178155,259612,172254
1643.22,0.177037,251804,167504
1646.16,0.177300,244348,162446
1649.1,0.176347,236703,157709
1652.04,0.174137,228171,152800
1655.95,0.171349,215408,145182
1658.88,0.167557,204937,139336
1661.8,0.161987,193395,133186
1664.72,0.154856,179728,125823
1667.63,0.141358,163642,118178
1670.54,0.125707,146312,109540
1673.44,0.110116,128451,99683
1677.31,0.089427,105080,85525
1680.21,0.076582,88906,74533
1683.1,0.072780,75033,63456
1685.99,0.069761,63520,54094
1688.87,0.077512,53714,44934
1691.75,0.079252,45653,38038
1694.62,0.082968,39137,32331
1697.49,0.086803,33776,27657
1701.31,0.089782,28175,22913