File: samples/wool/wool-000811/Column 1_050570_20150331_120918.csv
Method:,Column 1,,
Host Date-Time:,31/3/15 @ 12:9:18,,
Header Version:,1,,
System Temp (C):,34.08,,
Detector Temp (C):,34.09,,
Humidity (%):,1.76,,
Lamp PD:,3819,,
Shift Vector Coefficients:,-10.5391,0.0761263,-0.000134223,,
Pixel to Wavelength Coefficients:,1775.68,-0.916766,-0.000235065,,
Serial Number:,5510004,,
Scan Config Name:,Column 1,,
Scan Config Type:,Slew,,
Section 1,,
Start wavelength (nm):,900,,
End wavelength (nm):,1700,,
Pattern Pixel Width (nm):,   7.03,,,,
Exposure (ms):,  0.635,,,,
Digital Resolution:,228,,
Num Repeats:,6,,
PGA Gain:,64,,
Total Measurement Time in sec:,  2.668,,
Wavelength (nm),Absorbance (AU),Reference Signal (unitless),Sample Signal (unitless)
901.51,0.035005,108485,100084
905.376,0.039593,121306,110736
909.237,0.042899,131909,119502
913.095,0.043397,143299,129672
916.948,0.045029,156982,141521
922.079,0.046910,179937,161514
925.923,0.048334,200504,179386
929.762,0.048368,222660,199193
933.597,0.048164,244426,218768
937.427,0.048210,263972,236237
941.254,0.047936,281845,252391
945.076,0.047029,297271,266762
950.165,0.046926,315605,283281
953.978,0.046417,328029,294778
957.786,0.046511,340470,305892
961.59,0.047198,352317,316035
965.389,0.046760,363056,325997
969.185,0.046906,373162,334959
972.976,0.047199,382632,343228
976.763,0.047981,391202,350284
981.806,0.049018,400190,357477
985.583,0.049029,406088,362736
989.355,0.049823,410162,365706
993.124,0.050119,412868,367868
996.888,0.050505,414263,368783
1000.65,0.051283,415476,369201
1004.4,0.052516,415479,368157
1009.41,0.054347,414358,365619
1013.15,0.054274,412923,364414
1016.89,0.055418,411526,362226
1020.63,0.054571,409066,360763
1024.36,0.054072,406777,359157
1028.09,0.054660,404427,356599
1031.82,0.054546,401911,354474
1036.78,0.054167,398410,351693
1040.49,0.053771,396204,350064
1044.2,0.053044,394236,348909
1047.91,0.052943,392042,347048
1051.61,0.052408,389823,345509
1055.31,0.052384,388234,344120
1059,0.051356,387599,344371
1063.92,0.050620,386688,344144
1067.61,0.049438,386598,345002
1071.29,0.049039,387377,346015
1074.96,0.048616,388536,347388
1078.63,0.048095,389855,348986
1082.3,0.047269,391215,350870
1085.96,0.046291,393215,353459
1090.84,0.045585,396270,356785
1094.49,0.045339,398760,359230
1098.14,0.044661,400987,361801
1101.79,0.044370,403477,364291
1105.43,0.044684,406116,366409
1109.06,0.043299,407701,369014
1112.7,0.044155,409859,370237
1117.53,0.044303,412494,372490
1121.15,0.044925,414909,374135
1124.77,0.045256,416559,375336
1128.38,0.046839,418532,375742
1131.99,0.048016,419956,376000
1135.6,0.050024,421946,376039
1139.2,0.051888,423881,376146
1143.99,0.054144,426786,376761
1147.58,0.055135,428617,377515
1151.17,0.056202,431169,378831
1154.75,0.057338,433579,379953
1158.33,0.059281,436264,380600
1161.91,0.061021,439132,381570
1165.48,0.063459,442389,382248
1169.04,0.066071,446101,383144
1173.79,0.069982,451929,384670
1177.34,0.071908,456026,386440
1180.9,0.074873,461306,388254
1184.44,0.076165,467657,392430
1187.99,0.077054,473969,396914
1191.52,0.077271,479856,401643
1195.06,0.077109,487372,408086
1199.76,0.076000,497347,417503
1203.29,0.074950,504311,424374
1206.81,0.074270,511507,431104
1210.33,0.073356,519078,438406
1213.84,0.072875,527163,445728
1217.35,0.072334,534208,452248
1220.85,0.070962,540472,458998
1225.51,0.070305,549929,467737
1229.01,0.069913,556888,474083
1232.5,0.068929,562180,479674
1235.98,0.068433,567975,485173
1239.46,0.067945,574815,491567
1242.94,0.066428,582782,500124
1246.41,0.065633,591476,508516
1251.03,0.065802,604016,519095
1254.5,0.065891,612289,526096
1257.96,0.065961,619125,531884
1261.41,0.066638,624551,535710
1264.86,0.067419,629900,539327
1268.31,0.068134,634345,542240
1271.75,0.068813,638574,545002
1276.33,0.068783,642499,548390
1279.76,0.069078,645905,550923
1283.19,0.068411,648307,553822
1286.61,0.068112,650446,556031
1290.03,0.067650,652132,558066
1293.44,0.066906,653907,560545
1296.85,0.067395,655963,561674
1301.39,0.066698,657349,563765
1304.8,0.066958,657558,563607
1308.19,0.066902,658515,564500
1311.58,0.067443,658804,564044
1314.97,0.067547,659011,564087
1318.36,0.068046,658272,562807
1321.73,0.068441,658022,562082
1326.23,0.069156,657870,561027
1329.6,0.069867,656482,558928
1332.97,0.071534,654926,555467
1336.33,0.072585,653727,553110
1339.69,0.073964,652497,550319
1343.04,0.075686,649913,545970
1346.39,0.077798,647671,541448
1349.73,0.079917,645338,536871
1354.18,0.083314,641175,529252
1357.52,0.085556,638376,524228
1360.85,0.088014,635805,519170
1364.17,0.090209,633413,514610
1367.49,0.092634,631026,509816
1370.81,0.095242,628050,504373
1374.12,0.097548,625034,499293
1378.54,0.100781,620272,491814
1381.84,0.104006,616892,485515
1385.14,0.107756,613613,478783
1388.43,0.112343,611526,472141
1391.72,0.116587,610663,466890
1395.01,0.121386,610634,461737
1398.29,0.126298,611700,457341
1402.66,0.133548,614051,451499
1405.93,0.139366,616268,447099
1409.2,0.144451,617795,442989
1412.46,0.149919,618872,438210
1415.72,0.154484,619795,434274
1418.98,0.158487,620495,430776
1422.23,0.161956,621087,427756
1426.56,0.165946,621375,424041
1429.8,0.169197,621616,421042
1433.04,0.171568,622129,419095
1436.27,0.173772,621526,416569
1439.5,0.176164,621113,414006
1442.72,0.178711,620921,411458
1445.94,0.180966,620270,408898
1450.23,0.184421,618860,404736
1453.44,0.187729,617697,400910
1456.64,0.190717,616264,397237
1459.85,0.193792,614413,393250
1463.04,0.196659,612307,389323
1466.24,0.199435,610032,385405
1469.43,0.204255,607345,379473
1473.67,0.209514,603789,372710
1476.85,0.215694,601175,365853
1480.02,0.222152,597737,358392
1483.19,0.228399,594479,351348
1486.36,0.235160,591232,344031
1489.52,0.240421,587853,337946
1492.68,0.243465,583875,333315
1496.89,0.246620,578062,327608
1500.03,0.247801,574159,324512
1503.18,0.247358,570285,322652
1506.32,0.246005,565444,320911
1509.45,0.245426,560571,318570
1512.58,0.243373,555821,317367
1515.71,0.240896,550344,316037
1519.87,0.237920,543983,314532
1522.99,0.234933,538764,313665
1526.1,0.232680,533692,312328
1529.21,0.229779,527902,311010
1532.32,0.226758,521886,309612
1535.42,0.223055,515888,308674
1538.51,0.220060,509987,307255
1541.6,0.216741,503936,305939
1545.72,0.211903,494694,303692
1548.8,0.209210,488378,301680
1551.88,0.206769,481832,299314
1554.95,0.204220,474989,296800
1558.02,0.202860,467818,293236
1561.08,0.200608,460730,290294
1564.15,0.200309,454170,286358
1568.22,0.199086,444181,280850
1571.27,0.199213,436947,276195
1574.32,0.198522,429598,271982
1577.36,0.196719,422039,268308
1580.4,0.195446,414375,264209
1583.43,0.193484,406354,260268
1586.46,0.192066,398475,256056
1590.49,0.189659,388982,251345
1593.51,0.187389,380708,247288
1596.53,0.185309,372727,243266
1599.54,0.182537,365060,239788
1602.55,0.180547,357543,235929
1605.55,0.178009,349495,231970
1608.55,0.176256,341154,227350
1612.54,0.173267,330877,222024
1615.53,0.171257,322904,217679
1618.51,0.170352,315116,212872
1621.49,0.169601,307217,207895
1624.47,0.168172,299481,203328
1627.44,0.167247,292112,198748
1630.41,0.166270,284245,193831
1634.36,0.164363,274079,187721
1637.32,0.163196,266916,183307
1640.27,0.162521,259612,178568
1643.22,0.161215,251804,173719
1646.16,0.161172,244348,168592
1649.1,0.159378,236703,163993
1652.04,0.158988,228171,158224
1655.95,0.155408,215408,150610
1658.88,0.152038,204937,144405
1661.8,0.148361,193395,137431
1664.72,0.141261,179728,129824
1667.63,0.131163,163642,120985
1670.54,0.117515,146312,111626
1673.44,0.106472,128451,100523
1677.31,0.088722,105080,85664
1680.21,0.080340,88906,73891
1683.1,0.072349,75033,63519
1685.99,0.076493,63520,53262
1688.87,0.084223,53714,44245
1691.75,0.088716,45653,37218
1694.62,0.095050,39137,31444
1697.49,0.097904,33776,26959
1701.31,0.106140,28175,22066