File: samples/wool/wool-000811/Column 1_050552_20150331_120054.csv
Method:,Column 1,,
Host Date-Time:,31/3/15 @ 12:0:54,,
Header Version:,1,,
System Temp (C):,33.35,,
Detector Temp (C):,32.35,,
Humidity (%):,2.98,,
Lamp PD:,3821,,
Shift Vector Coefficients:,-10.5391,0.0761263,-0.000134223,,
Pixel to Wavelength Coefficients:,1775.68,-0.916766,-0.000235065,,
Serial Number:,5510004,,
Scan Config Name:,Column 1,,
Scan Config Type:,Slew,,
Section 1,,
Start wavelength (nm):,900,,
End wavelength (nm):,1700,,
Pattern Pixel Width (nm):,   7.03,,,,
Exposure (ms):,  0.635,,,,
Digital Resolution:,228,,
Num Repeats:,6,,
PGA Gain:,64,,
Total Measurement Time in sec:,  2.692,,
Wavelength (nm),Absorbance (AU),Reference Signal (unitless),Sample Signal (unitless)
901.51,0.034030,108485,100309
905.376,0.038861,121306,110923
909.237,0.041807,131909,119803
913.095,0.042928,143299,129812
916.948,0.043981,156982,141863
922.079,0.043549,179937,162769
925.923,0.045501,200504,180560
929.762,0.045812,222660,200369
933.597,0.045671,244426,220027
937.427,0.045931,263972,237480
941.254,0.046658,281845,253135
945.076,0.046536,297271,267065
950.165,0.045821,315605,284003
953.978,0.045220,328029,295592
957.786,0.045865,340470,306347
961.59,0.046412,352317,316608
965.389,0.046271,363056,326364
969.185,0.046434,373162,335323
972.976,0.047030,382632,343361
976.763,0.047113,391202,350985
981.806,0.048418,400190,357971
985.583,0.048592,406088,363102
989.355,0.049984,410162,365571
993.124,0.049974,412868,367991
996.888,0.050684,414263,368631
1000.65,0.051779,415476,368780
1004.4,0.053153,415479,367617
1009.41,0.054304,414358,365655
1013.15,0.054491,412923,364232
1016.89,0.055135,411526,362462
1020.63,0.054795,409066,360577
1024.36,0.054724,406777,358618
1028.09,0.054927,404427,356380
1031.82,0.054364,401911,354622
1036.78,0.053663,398410,352101
1040.49,0.053237,396204,350495
1044.2,0.053596,394236,348466
1047.91,0.052832,392042,347137
1051.61,0.052667,389823,345303
1055.31,0.052333,388234,344160
1059,0.052034,387599,343834
1063.92,0.050795,386688,344006
1067.61,0.049570,386598,344897
1071.29,0.048650,387377,346325
1074.96,0.048351,388536,347600
1078.63,0.048313,389855,348811
1082.3,0.047056,391215,351042
1085.96,0.046470,393215,353313
1090.84,0.045954,396270,356482
1094.49,0.046170,398760,358543
1098.14,0.045545,400987,361065
1101.79,0.044998,403477,363765
1105.43,0.044695,406116,366400
1109.06,0.044567,407701,367938
1112.7,0.044400,409859,370028
1117.53,0.044006,412494,372745
1121.15,0.045713,414909,373456
1124.77,0.046080,416559,374625
1128.38,0.047492,418532,375177
1131.99,0.048448,419956,375626
1135.6,0.050133,421946,375945
1139.2,0.051840,423881,376187
1143.99,0.054382,426786,376555
1147.58,0.055556,428617,377149
1151.17,0.057000,431169,378136
1154.75,0.058273,433579,379136
1158.33,0.060367,436264,379649
1161.91,0.062299,439132,380449
1165.48,0.064642,442389,381208
1169.04,0.067371,446101,381999
1173.79,0.071482,451929,383344
1177.34,0.073377,456026,385135
1180.9,0.076168,461306,387098
1184.44,0.077300,467657,391406
1187.99,0.078866,473969,395261
1191.52,0.077900,479856,401061
1195.06,0.077815,487372,407423
1199.76,0.077258,497347,416295
1203.29,0.075598,504311,423741
1206.81,0.074786,511507,430592
1210.33,0.074570,519078,437182
1213.84,0.073917,527163,444660
1217.35,0.072735,534208,451830
1220.85,0.072146,540472,457749
1225.51,0.070940,549929,467053
1229.01,0.070585,556888,473350
1232.5,0.070229,562180,478241
1235.98,0.069466,567975,484020
1239.46,0.068045,574815,491454
1242.94,0.067284,582782,499140
1246.41,0.066362,591476,507663
1251.03,0.066730,604016,517987
1254.5,0.066509,612289,525349
1257.96,0.066865,619125,530779
1261.41,0.067744,624551,534348
1264.86,0.068333,629900,538194
1268.31,0.068679,634345,541560
1271.75,0.069849,638574,543704
1276.33,0.069879,642499,547008
1279.76,0.069753,645905,550067
1283.19,0.069144,648307,552888
1286.61,0.069073,650446,554802
1290.03,0.068484,652132,556995
1293.44,0.068040,653907,559082
1296.85,0.068350,655963,560440
1301.39,0.067867,657349,562250
1304.8,0.067688,657558,562660
1308.19,0.068143,658515,562889
1311.58,0.068563,658804,562591
1314.97,0.069005,659011,562196
1318.36,0.069546,658272,560866
1321.73,0.069796,658022,560331
1326.23,0.071050,657870,558586
1329.6,0.072225,656482,555902
1332.97,0.072947,654926,553663
1336.33,0.074256,653727,550986
1339.69,0.076325,652497,547336
1343.04,0.078195,649913,542826
1346.39,0.080262,647671,538384
1349.73,0.082879,645338,533222
1354.18,0.085943,641175,526058
1357.52,0.087892,638376,521416
1360.85,0.090181,635805,516586
1364.17,0.092695,633413,511672
1367.49,0.094787,631026,507295
1370.81,0.097660,628050,501573
1374.12,0.100203,625034,496250
1378.54,0.103415,620272,488840
1381.84,0.107394,616892,481743
1385.14,0.111640,613613,474520
1388.43,0.116676,611526,467454
1391.72,0.121557,610663,461577
1395.01,0.126816,610634,456000
1398.29,0.133300,611700,450027
1402.66,0.140853,614051,443968
1405.93,0.147453,616268,438851
1409.2,0.153191,617795,434164
1412.46,0.158880,618872,429260
1415.72,0.164018,619795,424845
1418.98,0.168669,620495,420794
1422.23,0.173055,621087,416963
1426.56,0.177572,621375,412840
1429.8,0.180695,621616,410041
1433.04,0.183641,622129,407605
1436.27,0.185726,621526,405260
1439.5,0.188304,621113,402593
1442.72,0.191139,620921,399850
1445.94,0.193134,620270,397600
1450.23,0.196575,618860,393566
1453.44,0.200068,617697,389679
1456.64,0.202496,616264,386608
1459.85,0.205257,614413,383004
1463.04,0.208317,612307,379011
1466.24,0.211559,610032,374795
1469.43,0.214446,607345,370672
1473.67,0.219598,603789,364156
1476.85,0.224324,601175,358655
1480.02,0.230222,597737,351794
1483.19,0.236384,594479,344947
1486.36,0.241316,591232,339189
1489.52,0.246036,587853,333605
1492.68,0.249763,583875,328516
1496.89,0.251690,578062,323806
1500.03,0.252887,574159,320734
1503.18,0.251983,570285,319234
1506.32,0.252150,565444,316402
1509.45,0.251025,560571,314489
1512.58,0.248970,555821,313303
1515.71,0.246630,550344,311892
1519.87,0.242965,543983,310900
1522.99,0.240937,538764,309358
1526.1,0.238531,533692,308148
1529.21,0.235108,527902,307217
1532.32,0.231986,521886,305907
1535.42,0.229388,515888,304206
1538.51,0.226006,509987,303077
1541.6,0.222090,503936,302194
1545.72,0.218336,494694,299227
1548.8,0.215384,488378,297421
1551.88,0.213091,481832,294988
1554.95,0.210777,474989,292352
1558.02,0.208742,467818,289291
1561.08,0.206791,460730,286191
1564.15,0.206494,454170,282309
1568.22,0.204815,444181,277169
1571.27,0.204419,436947,272904
1574.32,0.203459,429598,268908
1577.36,0.201434,422039,265411
1580.4,0.200382,414375,261223
1583.43,0.198694,406354,257164
1586.46,0.196490,398475,253461
1590.49,0.194722,388982,248432
1593.51,0.192532,380708,244377
1596.53,0.189884,372727,240717
1599.54,0.188313,365060,236620
1602.55,0.186209,357543,232873
1605.55,0.183528,349495,229041
1608.55,0.181850,341154,224440
1612.54,0.179018,330877,219103
1615.53,0.177237,322904,214702
1618.51,0.176551,315116,209855
1621.49,0.174946,307217,205352
1624.47,0.174097,299481,200573
1627.44,0.172399,292112,196404
1630.41,0.170351,284245,192018
1634.36,0.169237,274079,185626
1637.32,0.169162,266916,180806
1640.27,0.168691,259612,176049
1643.22,0.166869,251804,171472
1646.16,0.165615,244348,166876
1649.1,0.166424,236703,161354
1652.04,0.164282,228171,156307
1655.95,0.160525,215408,148846
1658.88,0.159283,204937,142016
1661.8,0.156070,193395,135013
1664.72,0.150969,179728,126954
1667.63,0.142930,163642,117751
1670.54,0.134187,146312,107422
1673.44,0.122382,128451,96907
1677.31,0.111841,105080,81223
1680.21,0.108681,88906,69223
1683.1,0.110232,75033,58213
1685.99,0.109377,63520,49378
1688.87,0.117420,53714,40989
1691.75,0.123126,45653,34383
1694.62,0.130309,39137,28992
1697.49,0.131381,33776,24959
1701.31,0.134881,28175,20653