File: samples/wool/wool-000811/Column 1_050556_20150331_120242.csv
Method:,Column 1,,
Host Date-Time:,31/3/15 @ 12:2:42,,
Header Version:,1,,
System Temp (C):,33.52,,
Detector Temp (C):,32.65,,
Humidity (%):,2.44,,
Lamp PD:,3820,,
Shift Vector Coefficients:,-10.5391,0.0761263,-0.000134223,,
Pixel to Wavelength Coefficients:,1775.68,-0.916766,-0.000235065,,
Serial Number:,5510004,,
Scan Config Name:,Column 1,,
Scan Config Type:,Slew,,
Section 1,,
Start wavelength (nm):,900,,
End wavelength (nm):,1700,,
Pattern Pixel Width (nm):,   7.03,,,,
Exposure (ms):,  0.635,,,,
Digital Resolution:,228,,
Num Repeats:,6,,
PGA Gain:,64,,
Total Measurement Time in sec:,  2.686,,
Wavelength (nm),Absorbance (AU),Reference Signal (unitless),Sample Signal (unitless)
901.51,0.032789,108485,100596
905.376,0.039276,121306,110817
909.237,0.040836,131909,120071
913.095,0.043440,143299,129659
916.948,0.042737,156982,142270
922.079,0.043253,179937,162880
925.923,0.044718,200504,180886
929.762,0.046569,222660,200020
933.597,0.047507,244426,219099
937.427,0.045490,263972,237721
941.254,0.046363,281845,253307
945.076,0.045959,297271,267420
950.165,0.044985,315605,284550
953.978,0.044892,328029,295815
957.786,0.045501,340470,306604
961.59,0.045829,352317,317033
965.389,0.046086,363056,326503
969.185,0.046814,373162,335030
972.976,0.046822,382632,343526
976.763,0.047717,391202,350497
981.806,0.048278,400190,358087
985.583,0.049006,406088,362756
989.355,0.049417,410162,366048
993.124,0.049835,412868,368109
996.888,0.050783,414263,368547
1000.65,0.051481,415476,369033
1004.4,0.052205,415479,368421
1009.41,0.053974,414358,365933
1013.15,0.054311,412923,364383
1016.89,0.054843,411526,362706
1020.63,0.054346,409066,360950
1024.36,0.054878,406777,358491
1028.09,0.054176,404427,356997
1031.82,0.053932,401911,354975
1036.78,0.054101,398410,351746
1040.49,0.053733,396204,350095
1044.2,0.053217,394236,348770
1047.91,0.052637,392042,347293
1051.61,0.051599,389823,346153
1055.31,0.052151,388234,344304
1059,0.051272,387599,344438
1063.92,0.050221,386688,344461
1067.61,0.049414,386598,345021
1071.29,0.048936,387377,346097
1074.96,0.048348,388536,347603
1078.63,0.047927,389855,349121
1082.3,0.047257,391215,350880
1085.96,0.046327,393215,353430
1090.84,0.045721,396270,356673
1094.49,0.045511,398760,359088
1098.14,0.044790,400987,361693
1101.79,0.044406,403477,364261
1105.43,0.044234,406116,366789
1109.06,0.043967,407701,368447
1112.7,0.043621,409859,370692
1117.53,0.044007,412494,372744
1121.15,0.044841,414909,374207
1124.77,0.045392,416559,375219
1128.38,0.046907,418532,375683
1131.99,0.048225,419956,375819
1135.6,0.050295,421946,375804
1139.2,0.052192,423881,375882
1143.99,0.054738,426786,376246
1147.58,0.055375,428617,377307
1151.17,0.056459,431169,378607
1154.75,0.057718,433579,379621
1158.33,0.059604,436264,380317
1161.91,0.061799,439132,380887
1165.48,0.064122,442389,381665
1169.04,0.066948,446101,382371
1173.79,0.070331,451929,384361
1177.34,0.072621,456026,385806
1180.9,0.075418,461306,387767
1184.44,0.077121,467657,391567
1187.99,0.077850,473969,396187
1191.52,0.077923,479856,401040
1195.06,0.077420,487372,407794
1199.76,0.076301,497347,417214
1203.29,0.075097,504311,424230
1206.81,0.074713,511507,430664
1210.33,0.073523,519078,438238
1213.84,0.073024,527163,445575
1217.35,0.071936,534208,452662
1220.85,0.071634,540472,458289
1225.51,0.070547,549929,467476
1229.01,0.070014,556888,473973
1232.5,0.069885,562180,478620
1235.98,0.069227,567975,484286
1239.46,0.067778,574815,491757
1242.94,0.066668,582782,499848
1246.41,0.066261,591476,507781
1251.03,0.066087,604016,518754
1254.5,0.066159,612289,525772
1257.96,0.066357,619125,531400
1261.41,0.066993,624551,535273
1264.86,0.067944,629900,538676
1268.31,0.068689,634345,541548
1271.75,0.069592,638574,544026
1276.33,0.069712,642499,547218
1279.76,0.069396,645905,550519
1283.19,0.068829,648307,553289
1286.61,0.068406,650446,555655
1290.03,0.068353,652132,557163
1293.44,0.067981,653907,559159
1296.85,0.067533,655963,561495
1301.39,0.067521,657349,562698
1304.8,0.067306,657558,563155
1308.19,0.067337,658515,563934
1311.58,0.068028,658804,563285
1314.97,0.068455,659011,562908
1318.36,0.069326,658272,561150
1321.73,0.069634,658022,560540
1326.23,0.070594,657870,559173
1329.6,0.071287,656482,557103
1332.97,0.072174,654926,554649
1336.33,0.073549,653727,551884
1339.69,0.075201,652497,548754
1343.04,0.077589,649913,543583
1346.39,0.079508,647671,539320
1349.73,0.081534,645338,534876
1354.18,0.084995,641175,527208
1357.52,0.087406,638376,522000
1360.85,0.089452,635805,517454
1364.17,0.091708,633413,512837
1367.49,0.094123,631026,508071
1370.81,0.096595,628050,502805
1374.12,0.099166,625034,497436
1378.54,0.102499,620272,489873
1381.84,0.106358,616892,482893
1385.14,0.110396,613613,475881
1388.43,0.115261,611526,468980
1391.72,0.120460,610663,462745
1395.01,0.125531,610634,457351
1398.29,0.131151,611700,452259
1402.66,0.139012,614051,445854
1405.93,0.144877,616268,441461
1409.2,0.150728,617795,436633
1412.46,0.156225,618872,431893
1415.72,0.161408,619795,427405
1418.98,0.165576,620495,423801
1422.23,0.169233,621087,420649
1426.56,0.173939,621375,416308
1429.8,0.177059,621616,413488
1433.04,0.179925,622129,411108
1436.27,0.182247,621526,408519
1439.5,0.184100,621113,406509
1442.72,0.186982,620921,403696
1445.94,0.189075,620270,401334
1450.23,0.192967,618860,396849
1453.44,0.195735,617697,393587
1456.64,0.198089,616264,390551
1459.85,0.201311,614413,386500
1463.04,0.204408,612307,382438
1466.24,0.207266,610032,378518
1469.43,0.210185,607345,374326
1473.67,0.216423,603789,366828
1476.85,0.222141,601175,360462
1480.02,0.227358,597737,354121
1483.19,0.233641,594479,347133
1486.36,0.239809,591232,340368
1489.52,0.244342,587853,334909
1492.68,0.247343,583875,330352
1496.89,0.249843,578062,325186
1500.03,0.250426,574159,322557
1503.18,0.250627,570285,320232
1506.32,0.249475,565444,318357
1509.45,0.248364,560571,316422
1512.58,0.246649,555821,314982
1515.71,0.244544,550344,313394
1519.87,0.241627,543983,311859
1522.99,0.238892,538764,310818
1526.1,0.236463,533692,309619
1529.21,0.233542,527902,308327
1532.32,0.229371,521886,307755
1535.42,0.226979,515888,305898
1538.51,0.223462,509987,304858
1541.6,0.221146,503936,302851
1545.72,0.215802,494694,300978
1548.8,0.213107,488378,298985
1551.88,0.210793,481832,296553
1554.95,0.207870,474989,294316
1558.02,0.206330,467818,290902
1561.08,0.204326,460730,287820
1564.15,0.204547,454170,283577
1568.22,0.203418,444181,278062
1571.27,0.202642,436947,274023
1574.32,0.201041,429598,270409
1577.36,0.199320,422039,266706
1580.4,0.198484,414375,262367
1583.43,0.197078,406354,258123
1586.46,0.194672,398475,254524
1590.49,0.192640,388982,249626
1593.51,0.190758,380708,245377
1596.53,0.188438,372727,241520
1599.54,0.185935,365060,237919
1602.55,0.184521,357543,233780
1605.55,0.181670,349495,230023
1608.55,0.179152,341154,225839
1612.54,0.176788,330877,220231
1615.53,0.174682,322904,215969
1618.51,0.173444,315116,211362
1621.49,0.172786,307217,206376
1624.47,0.172364,299481,201375
1627.44,0.171180,292112,196956
1630.41,0.168475,284245,192849
1634.36,0.167346,274079,186436
1637.32,0.166759,266916,181809
1640.27,0.165665,259612,177280
1643.22,0.165378,251804,172062
1646.16,0.163908,244348,167533
1649.1,0.163810,236703,162328
1652.04,0.162743,228171,156862
1655.95,0.159464,215408,149210
1658.88,0.155641,204937,143212
1661.8,0.152897,193395,136003
1664.72,0.147006,179728,128118
1667.63,0.138341,163642,119002
1670.54,0.129522,146312,108582
1673.44,0.116617,128451,98202
1677.31,0.104687,105080,82572
1680.21,0.098935,88906,70794
1683.1,0.097811,75033,59902
1685.99,0.101532,63520,50278
1688.87,0.104117,53714,42264
1691.75,0.114323,45653,35087
1694.62,0.119363,39137,29732
1697.49,0.122647,33776,25466
1701.31,0.131968,28175,20792