File: samples/wool/wool-000811/Column 1_050604_20150331_122535.csv
Method:,Column 1,,
Host Date-Time:,31/3/15 @ 12:25:35,,
Header Version:,1,,
System Temp (C):,33.99,,
Detector Temp (C):,34.82,,
Humidity (%):,1.71,,
Lamp PD:,3818,,
Shift Vector Coefficients:,-10.5391,0.0761263,-0.000134223,,
Pixel to Wavelength Coefficients:,1775.68,-0.916766,-0.000235065,,
Serial Number:,5510004,,
Scan Config Name:,Column 1,,
Scan Config Type:,Slew,,
Section 1,,
Start wavelength (nm):,900,,
End wavelength (nm):,1700,,
Pattern Pixel Width (nm):,   7.03,,,,
Exposure (ms):,  0.635,,,,
Digital Resolution:,228,,
Num Repeats:,6,,
PGA Gain:,64,,
Total Measurement Time in sec:,  2.729,,
Wavelength (nm),Absorbance (AU),Reference Signal (unitless),Sample Signal (unitless)
901.51,0.068585,108485,92637
905.376,0.075308,121306,101994
909.237,0.075915,131909,110754
913.095,0.075905,143299,120320
916.948,0.078433,156982,131044
922.079,0.081119,179937,149280
925.923,0.081926,200504,166034
929.762,0.081556,222660,184538
933.597,0.081864,244426,202434
937.427,0.080830,263972,219143
941.254,0.080108,281845,234370
945.076,0.079314,297271,247650
950.165,0.078619,315605,263345
953.978,0.077352,328029,274511
957.786,0.077937,340470,284539
961.59,0.077713,352317,294592
965.389,0.077423,363056,303774
969.185,0.077375,373162,312264
972.976,0.078006,382632,319724
976.763,0.078423,391202,326571
981.806,0.078956,400190,333665
985.583,0.079856,406088,337881
989.355,0.079633,410162,341446
993.124,0.080315,412868,343160
996.888,0.080393,414263,344257
1000.65,0.081673,415476,344249
1004.4,0.082268,415479,343780
1009.41,0.084035,414358,341461
1013.15,0.084533,412923,339888
1016.89,0.085032,411526,338349
1020.63,0.084797,409066,336509
1024.36,0.085203,406777,334313
1028.09,0.084624,404427,332825
1031.82,0.083943,401911,331274
1036.78,0.084234,398410,328168
1040.49,0.084143,396204,326419
1044.2,0.083763,394236,325082
1047.91,0.083859,392042,323202
1051.61,0.082863,389823,322110
1055.31,0.082750,388234,320881
1059,0.082384,387599,320626
1063.92,0.080968,386688,320917
1067.61,0.081081,386598,320759
1071.29,0.080085,387377,322143
1074.96,0.079617,388536,323455
1078.63,0.079551,389855,324603
1082.3,0.078398,391215,326601
1085.96,0.077595,393215,328878
1090.84,0.077182,396270,331749
1094.49,0.076321,398760,334496
1098.14,0.075160,400987,337264
1101.79,0.075376,403477,339190
1105.43,0.074482,406116,342112
1109.06,0.074334,407701,343564
1112.7,0.073558,409859,346000
1117.53,0.073181,412494,348527
1121.15,0.073939,414909,349956
1124.77,0.074283,416559,351070
1128.38,0.075117,418532,352056
1131.99,0.076144,419956,352419
1135.6,0.077522,421946,352968
1139.2,0.078886,423881,353474
1143.99,0.080992,426786,354175
1147.58,0.081687,428617,355126
1151.17,0.082865,431169,356273
1154.75,0.083576,433579,357678
1158.33,0.085301,436264,358466
1161.91,0.086420,439132,359894
1165.48,0.089042,442389,360381
1169.04,0.091051,446101,361728
1173.79,0.094101,451929,363889
1177.34,0.095766,456026,365783
1180.9,0.098927,461306,367335
1184.44,0.100274,467657,371239
1187.99,0.101495,473969,375193
1191.52,0.101517,479856,379834
1195.06,0.101352,487372,385930
1199.76,0.100622,497347,394491
1203.29,0.099826,504311,400749
1206.81,0.099224,511507,407031
1210.33,0.098800,519078,413459
1213.84,0.098334,527163,420350
1217.35,0.097513,534208,426773
1220.85,0.097147,540472,432142
1225.51,0.095938,549929,440929
1229.01,0.096147,556888,446294
1232.5,0.094815,562180,451919
1235.98,0.094478,567975,456932
1239.46,0.093217,574815,463779
1242.94,0.091969,582782,471560
1246.41,0.091837,591476,478740
1251.03,0.091826,604016,488903
1254.5,0.092078,612289,495311
1257.96,0.092563,619125,500283
1261.41,0.092877,624551,504302
1264.86,0.093584,629900,507794
1268.31,0.093822,634345,511097
1271.75,0.094466,638574,513742
1276.33,0.094910,642499,516372
1279.76,0.094387,645905,519735
1283.19,0.094321,648307,521747
1286.61,0.093592,650446,524347
1290.03,0.093787,652132,525471
1293.44,0.092801,653907,528098
1296.85,0.092629,655963,529969
1301.39,0.092510,657349,531234
1304.8,0.092077,657558,531933
1308.19,0.092777,658515,531849
1311.58,0.092496,658804,532427
1314.97,0.093280,659011,531634
1318.36,0.093723,658272,530496
1321.73,0.093817,658022,530180
1326.23,0.094702,657870,528978
1329.6,0.095338,656482,527090
1332.97,0.096159,654926,524848
1336.33,0.097660,653727,522079
1339.69,0.098950,652497,519551
1343.04,0.100400,649913,515769
1346.39,0.101975,647671,512129
1349.73,0.103953,645338,507966
1354.18,0.107261,641175,500859
1357.52,0.109366,638376,496262
1360.85,0.111116,635805,492275
1364.17,0.112837,633413,488484
1367.49,0.115201,631026,484001
1370.81,0.117595,628050,479070
1374.12,0.119615,625034,474557
1378.54,0.121795,620272,468584
1381.84,0.125506,616892,462065
1385.14,0.128456,613613,456498
1388.43,0.131775,611526,451481
1391.72,0.136243,610663,446230
1395.01,0.140741,610634,441611
1398.29,0.145070,611700,437994
1402.66,0.151044,614051,433671
1405.93,0.156226,616268,430074
1409.2,0.160732,617795,426690
1412.46,0.165371,618872,422892
1415.72,0.168853,619795,420141
1418.98,0.173189,620495,416437
1422.23,0.176466,621087,413701
1426.56,0.180345,621375,410212
1429.8,0.182406,621616,408429
1433.04,0.185046,622129,406288
1436.27,0.187152,621526,403931
1439.5,0.189699,621113,401302
1442.72,0.191232,620921,399765
1445.94,0.193982,620270,396825
1450.23,0.197681,618860,392565
1453.44,0.200251,617697,389515
1456.64,0.203465,616264,385746
1459.85,0.206005,614413,382345
1463.04,0.208904,612307,378499
1466.24,0.212482,610032,373999
1469.43,0.216097,607345,369265
1473.67,0.222207,603789,361975
1476.85,0.227369,601175,356149
1480.02,0.233790,597737,348915
1483.19,0.239446,594479,342524
1486.36,0.245570,591232,335883
1489.52,0.249794,587853,330731
1492.68,0.253338,583875,325823
1496.89,0.255472,578062,320998
1500.03,0.256766,574159,317882
1503.18,0.256380,570285,316018
1506.32,0.255381,565444,314057
1509.45,0.253893,560571,312419
1512.58,0.252861,555821,310509
1515.71,0.250131,550344,309388
1519.87,0.247848,543983,307424
1522.99,0.244788,538764,306627
1526.1,0.242073,533692,305645
1529.21,0.239079,527902,304421
1532.32,0.236557,521886,302704
1535.42,0.233696,515888,301203
1538.51,0.231249,509987,299440
1541.6,0.228076,503936,298057
1545.72,0.223347,494694,295794
1548.8,0.221104,488378,293530
1551.88,0.218935,481832,291045
1554.95,0.217448,474989,287896
1558.02,0.214687,467818,285358
1561.08,0.213334,460730,281911
1564.15,0.213657,454170,277691
1568.22,0.212335,444181,272411
1571.27,0.212516,436947,267863
1574.32,0.211419,429598,264024
1577.36,0.210433,422039,259968
1580.4,0.209174,414375,255988
1583.43,0.207239,406354,252154
1586.46,0.205267,398475,248390
1590.49,0.203129,388982,243669
1593.51,0.201286,380708,239500
1596.53,0.200341,372727,234990
1599.54,0.197187,365060,231834
1602.55,0.196080,357543,227640
1605.55,0.193430,349495,223878
1608.55,0.192272,341154,219118
1612.54,0.190015,330877,213625
1615.53,0.188699,322904,209110
1618.51,0.187255,315116,204746
1621.49,0.185957,307217,200211
1624.47,0.185694,299481,195288
1627.44,0.183814,292112,191309
1630.41,0.183492,284245,186295
1634.36,0.182386,274079,180090
1637.32,0.180805,266916,176023
1640.27,0.180720,259612,171240
1643.22,0.180008,251804,166362
1646.16,0.180541,244348,161238
1649.1,0.178196,236703,157039
1652.04,0.176200,228171,152076
1655.95,0.174544,215408,144118
1658.88,0.170673,204937,138340
1661.8,0.165477,193395,132120
1664.72,0.157348,179728,125103
1667.63,0.144678,163642,117278
1670.54,0.130732,146312,108280
1673.44,0.116967,128451,98123
1677.31,0.094463,105080,84539
1680.21,0.078931,88906,74131
1683.1,0.076795,75033,62872
1685.99,0.077301,63520,53163
1688.87,0.081464,53714,44527
1691.75,0.082276,45653,37774
1694.62,0.089424,39137,31854
1697.49,0.094407,33776,27177
1701.31,0.097083,28175,22531