File: samples/wool/wool-000811/Column 1_050587_20150331_121725.csv
Method:,Column 1,,
Host Date-Time:,31/3/15 @ 12:17:25,,
Header Version:,1,,
System Temp (C):,33.8,,
Detector Temp (C):,34.54,,
Humidity (%):,1.86,,
Lamp PD:,3818,,
Shift Vector Coefficients:,-10.5391,0.0761263,-0.000134223,,
Pixel to Wavelength Coefficients:,1775.68,-0.916766,-0.000235065,,
Serial Number:,5510004,,
Scan Config Name:,Column 1,,
Scan Config Type:,Slew,,
Section 1,,
Start wavelength (nm):,900,,
End wavelength (nm):,1700,,
Pattern Pixel Width (nm):,   7.03,,,,
Exposure (ms):,  0.635,,,,
Digital Resolution:,228,,
Num Repeats:,6,,
PGA Gain:,64,,
Total Measurement Time in sec:,  2.671,,
Wavelength (nm),Absorbance (AU),Reference Signal (unitless),Sample Signal (unitless)
901.51,0.069655,108485,92409
905.376,0.075401,121306,101972
909.237,0.078148,131909,110186
913.095,0.078566,143299,119585
916.948,0.080612,156982,130388
922.079,0.080044,179937,149650
925.923,0.083052,200504,165604
929.762,0.082447,222660,184160
933.597,0.083420,244426,201710
937.427,0.081332,263972,218890
941.254,0.081274,281845,233742
945.076,0.080327,297271,247073
950.165,0.079388,315605,262879
953.978,0.078485,328029,273796
957.786,0.078753,340470,284005
961.59,0.078926,352317,293770
965.389,0.079660,363056,302213
969.185,0.079303,373162,310881
972.976,0.079939,382632,318304
976.763,0.080630,391202,324916
981.806,0.081051,400190,332059
985.583,0.081113,406088,336905
989.355,0.081729,410162,339802
993.124,0.082363,412868,341545
996.888,0.082661,414263,342464
1000.65,0.083546,415476,342768
1004.4,0.084741,415479,341828
1009.41,0.086177,414358,339781
1013.15,0.085683,412923,338989
1016.89,0.086250,411526,337402
1020.63,0.086434,409066,335243
1024.36,0.086831,406777,333062
1028.09,0.086164,404427,331647
1031.82,0.086265,401911,329507
1036.78,0.085595,398410,327141
1040.49,0.085461,396204,325430
1044.2,0.085686,394236,323646
1047.91,0.085653,392042,321869
1051.61,0.085416,389823,320222
1055.31,0.084341,388234,319707
1059,0.083954,387599,319469
1063.92,0.083184,386688,319284
1067.61,0.082919,386598,319404
1071.29,0.082402,387377,320429
1074.96,0.081982,388536,321699
1078.63,0.081068,389855,323471
1082.3,0.079894,391215,325478
1085.96,0.080356,393215,326794
1090.84,0.078715,396270,330580
1094.49,0.078316,398760,332963
1098.14,0.077736,400987,335270
1101.79,0.077343,403477,337657
1105.43,0.077511,406116,339734
1109.06,0.076549,407701,341816
1112.7,0.075217,409859,344681
1117.53,0.075694,412494,346516
1121.15,0.076213,414909,348129
1124.77,0.076324,416559,349424
1128.38,0.077834,418532,349860
1131.99,0.077956,419956,350952
1135.6,0.079685,421946,351214
1139.2,0.081112,423881,351667
1143.99,0.083304,426786,352295
1147.58,0.083650,428617,353524
1151.17,0.085162,431169,354393
1154.75,0.085932,433579,355743
1158.33,0.087002,436264,357065
1161.91,0.088878,439132,357863
1165.48,0.091132,442389,358651
1169.04,0.093473,446101,359716
1173.79,0.097464,451929,361082
1177.34,0.098972,456026,363093
1180.9,0.101291,461306,365341
1184.44,0.102153,467657,369636
1187.99,0.103376,473969,373572
1191.52,0.104444,479856,377283
1195.06,0.103593,487372,383944
1199.76,0.103262,497347,392101
1203.29,0.102336,504311,398440
1206.81,0.101906,511507,404525
1210.33,0.101483,519078,410913
1213.84,0.100486,527163,418272
1217.35,0.100191,534208,424150
1220.85,0.099070,540472,430232
1225.51,0.098790,549929,438043
1229.01,0.098357,556888,444029
1232.5,0.097566,562180,449065
1235.98,0.097185,567975,454092
1239.46,0.096170,574815,460636
1242.94,0.094869,582782,468422
1246.41,0.094475,591476,475841
1251.03,0.094473,604016,485932
1254.5,0.094485,612289,492574
1257.96,0.094951,619125,497539
1261.41,0.095402,624551,501379
1264.86,0.095903,629900,505090
1268.31,0.096105,634345,508418
1271.75,0.096881,638574,510893
1276.33,0.097281,642499,513560
1279.76,0.097540,645905,515975
1283.19,0.096531,648307,519098
1286.61,0.096501,650446,520847
1290.03,0.095861,652132,522967
1293.44,0.095497,653907,524830
1296.85,0.095658,655963,526285
1301.39,0.095010,657349,528185
1304.8,0.095340,657558,527951
1308.19,0.095727,658515,528249
1311.58,0.095263,658804,529046
1314.97,0.095584,659011,528821
1318.36,0.096219,658272,527456
1321.73,0.097102,658022,526185
1326.23,0.097543,657870,525530
1329.6,0.098451,656482,523326
1332.97,0.099918,654926,520325
1336.33,0.100669,653727,518475
1339.69,0.102600,652497,515203
1343.04,0.103834,649913,511707
1346.39,0.106056,647671,507339
1349.73,0.107852,645338,503425
1354.18,0.110880,641175,496703
1357.52,0.112968,638376,492162
1360.85,0.114834,635805,488079
1364.17,0.116521,633413,484357
1367.49,0.119017,631026,479767
1370.81,0.120783,628050,475567
1374.12,0.123464,625034,470370
1378.54,0.126666,620272,463358
1381.84,0.129331,616892,458013
1385.14,0.133391,613613,451340
1388.43,0.136850,611526,446236
1391.72,0.141648,610663,440711
1395.01,0.146596,610634,435697
1398.29,0.151410,611700,431647
1402.66,0.158171,614051,426612
1405.93,0.163663,616268,422772
1409.2,0.169364,617795,418293
1412.46,0.173539,618872,415013
1415.72,0.178885,619795,410547
1418.98,0.182106,620495,407974
1422.23,0.185579,621087,405110
1426.56,0.189563,621375,401597
1429.8,0.192427,621616,399112
1433.04,0.195087,622129,397003
1436.27,0.197410,621526,394502
1439.5,0.199693,621113,392173
1442.72,0.202152,620921,389838
1445.94,0.204173,620270,387621
1450.23,0.207521,618860,383770
1453.44,0.210373,617697,380542
1456.64,0.212758,616264,377580
1459.85,0.215387,614413,374174
1463.04,0.218136,612307,370538
1466.24,0.221170,610032,366592
1469.43,0.224135,607345,362494
1473.67,0.229555,603789,355902
1476.85,0.234757,601175,350142
1480.02,0.240449,597737,343606
1483.19,0.245936,594479,337443
1486.36,0.251552,591232,331288
1489.52,0.255875,587853,326132
1492.68,0.259093,583875,321534
1496.89,0.261215,578062,316781
1500.03,0.261605,574159,314360
1503.18,0.261374,570285,312405
1506.32,0.260609,565444,310299
1509.45,0.258997,560571,308769
1512.58,0.258091,555821,306792
1515.71,0.255151,550344,305832
1519.87,0.251682,543983,304722
1522.99,0.250072,538764,302919
1526.1,0.247800,533692,301641
1529.21,0.244634,527902,300552
1532.32,0.242138,521886,298839
1535.42,0.238444,515888,297928
1538.51,0.236483,509987,295853
1541.6,0.233377,503936,294441
1545.72,0.229805,494694,291428
1548.8,0.225997,488378,290241
1551.88,0.223729,481832,287850
1554.95,0.221827,474989,285008
1558.02,0.220984,467818,281250
1561.08,0.219231,460730,278109
1564.15,0.218907,454170,274354
1568.22,0.217006,444181,269497
1571.27,0.216935,436947,265151
1574.32,0.218411,429598,259807
1577.36,0.214628,422039,257469
1580.4,0.213231,414375,253608
1583.43,0.212140,406354,249324
1586.46,0.210967,398475,245151
1590.49,0.208618,388982,240609
1593.51,0.206196,380708,236808
1596.53,0.203117,372727,233493
1599.54,0.201608,365060,229486
1602.55,0.201165,357543,224990
1605.55,0.198882,349495,221085
1608.55,0.196419,341154,217036
1612.54,0.194262,330877,211546
1615.53,0.193575,322904,206775
1618.51,0.191552,315116,202730
1621.49,0.191463,307217,197689
1624.47,0.189206,299481,193715
1627.44,0.188741,292112,189151
1630.41,0.187548,284245,184563
1634.36,0.186418,274079,178426
1637.32,0.185444,266916,174153
1640.27,0.184935,259612,169586
1643.22,0.183900,251804,164878
1646.16,0.182385,244348,160555
1649.1,0.183010,236703,155308
1652.04,0.179669,228171,150866
1655.95,0.176646,215408,143422
1658.88,0.174592,204937,137097
1661.8,0.167823,193395,131408
1664.72,0.160784,179728,124117
1667.63,0.151057,163642,115568
1670.54,0.134312,146312,107391
1673.44,0.119381,128451,97579
1677.31,0.100505,105080,83371
1680.21,0.090544,88906,72175
1683.1,0.083274,75033,61941
1685.99,0.085889,63520,52122
1688.87,0.085432,53714,44122
1691.75,0.094082,45653,36761
1694.62,0.094705,39137,31469
1697.49,0.108372,33776,26317
1701.31,0.114366,28175,21652