File: samples/wool/wool-000811/Column 1_050613_20150331_122949.csv
Method:,Column 1,,
Host Date-Time:,31/3/15 @ 12:29:49,,
Header Version:,1,,
System Temp (C):,34.09,,
Detector Temp (C):,34.95,,
Humidity (%):,1.66,,
Lamp PD:,3818,,
Shift Vector Coefficients:,-10.5391,0.0761263,-0.000134223,,
Pixel to Wavelength Coefficients:,1775.68,-0.916766,-0.000235065,,
Serial Number:,5510004,,
Scan Config Name:,Column 1,,
Scan Config Type:,Slew,,
Section 1,,
Start wavelength (nm):,900,,
End wavelength (nm):,1700,,
Pattern Pixel Width (nm):,   7.03,,,,
Exposure (ms):,  0.635,,,,
Digital Resolution:,228,,
Num Repeats:,6,,
PGA Gain:,64,,
Total Measurement Time in sec:,  2.676,,
Wavelength (nm),Absorbance (AU),Reference Signal (unitless),Sample Signal (unitless)
901.51,0.069007,108485,92547
905.376,0.076066,121306,101816
909.237,0.076413,131909,110627
913.095,0.078029,143299,119733
916.948,0.078970,156982,130882
922.079,0.080790,179937,149393
925.923,0.081631,200504,166147
929.762,0.082409,222660,184176
933.597,0.081611,244426,202552
937.427,0.080624,263972,219247
941.254,0.080290,281845,234272
945.076,0.078934,297271,247867
950.165,0.077881,315605,263793
953.978,0.077201,328029,274607
957.786,0.078016,340470,284487
961.59,0.077624,352317,294652
965.389,0.077517,363056,303708
969.185,0.077902,373162,311886
972.976,0.078150,382632,319618
976.763,0.078631,391202,326415
981.806,0.078967,400190,333656
985.583,0.079278,406088,338331
989.355,0.080322,410162,340905
993.124,0.079959,412868,343441
996.888,0.080614,414263,344082
1000.65,0.081845,415476,344113
1004.4,0.082233,415479,343808
1009.41,0.084191,414358,341338
1013.15,0.084284,412923,340083
1016.89,0.084676,411526,338627
1020.63,0.084227,409066,336951
1024.36,0.085250,406777,334277
1028.09,0.084063,404427,333255
1031.82,0.084012,401911,331221
1036.78,0.084169,398410,328217
1040.49,0.083698,396204,326754
1044.2,0.084025,394236,324886
1047.91,0.083289,392042,323626
1051.61,0.082983,389823,322021
1055.31,0.083683,388234,320192
1059,0.081878,387599,321000
1063.92,0.081656,386688,320409
1067.61,0.080772,386598,320987
1071.29,0.080069,387377,322155
1074.96,0.079412,388536,323608
1078.63,0.079215,389855,324854
1082.3,0.078659,391215,326405
1085.96,0.077879,393215,328663
1090.84,0.076694,396270,332122
1094.49,0.076643,398760,334248
1098.14,0.075677,400987,336863
1101.79,0.075284,403477,339262
1105.43,0.075134,406116,341599
1109.06,0.073864,407701,343936
1112.7,0.073509,409859,346039
1117.53,0.073283,412494,348445
1121.15,0.073619,414909,350214
1124.77,0.074288,416559,351066
1128.38,0.074307,418532,352713
1131.99,0.076210,419956,352366
1135.6,0.077162,421946,353260
1139.2,0.079028,423881,353359
1143.99,0.080834,426786,354304
1147.58,0.081559,428617,355231
1151.17,0.082649,431169,356450
1154.75,0.083240,433579,357955
1158.33,0.084767,436264,358907
1161.91,0.085965,439132,360272
1165.48,0.088745,442389,360628
1169.04,0.090575,446101,362125
1173.79,0.094077,451929,363909
1177.34,0.096125,456026,365481
1180.9,0.098212,461306,367940
1184.44,0.100048,467657,371432
1187.99,0.101264,473969,375393
1191.52,0.100963,479856,380319
1195.06,0.101163,487372,386098
1199.76,0.100310,497347,394775
1203.29,0.099466,504311,401081
1206.81,0.099295,511507,406965
1210.33,0.098877,519078,413386
1213.84,0.098021,527163,420653
1217.35,0.097558,534208,426729
1220.85,0.097022,540472,432266
1225.51,0.096222,549929,440641
1229.01,0.095542,556888,446916
1232.5,0.094623,562180,452119
1235.98,0.094037,567975,457396
1239.46,0.093004,574815,464007
1242.94,0.092235,582782,471271
1246.41,0.092043,591476,478513
1251.03,0.091567,604016,489194
1254.5,0.091767,612289,495666
1257.96,0.092053,619125,500870
1261.41,0.092520,624551,504717
1264.86,0.092896,629900,508599
1268.31,0.093691,634345,511252
1271.75,0.094045,638574,514240
1276.33,0.094737,642499,516577
1279.76,0.094554,645905,519535
1283.19,0.094003,648307,522129
1286.61,0.093426,650446,524548
1290.03,0.093399,652132,525940
1293.44,0.092739,653907,528174
1296.85,0.092501,655963,530125
1301.39,0.092342,657349,531440
1304.8,0.092095,657558,531911
1308.19,0.092316,658515,532414
1311.58,0.092370,658804,532582
1314.97,0.092875,659011,532130
1318.36,0.092898,658272,531505
1321.73,0.093704,658022,530318
1326.23,0.094488,657870,529239
1329.6,0.095408,656482,527005
1332.97,0.095327,654926,525854
1336.33,0.096711,653727,523221
1339.69,0.098232,652497,520411
1343.04,0.099666,649913,516641
1346.39,0.101646,647671,512517
1349.73,0.103333,645338,508691
1354.18,0.106591,641175,501632
1357.52,0.108329,638376,497448
1360.85,0.110055,635805,493479
1364.17,0.112514,633413,488847
1367.49,0.114544,631026,484734
1370.81,0.116817,628050,479929
1374.12,0.118579,625034,475691
1378.54,0.121133,620272,469298
1381.84,0.124488,616892,463149
1385.14,0.127549,613613,457452
1388.43,0.131123,611526,452160
1391.72,0.135088,610663,447418
1395.01,0.138939,610634,443447
1398.29,0.143356,611700,439726
1402.66,0.149530,614051,435186
1405.93,0.154188,616268,432097
1409.2,0.158723,617795,428668
1412.46,0.163266,618872,424947
1415.72,0.167501,619795,421451
1418.98,0.170421,620495,419100
1422.23,0.173320,621087,416709
1426.56,0.177515,621375,412894
1429.8,0.179785,621616,410901
1433.04,0.182214,622129,408946
1436.27,0.184865,621526,406064
1439.5,0.186716,621113,404068
1442.72,0.189976,620921,400922
1445.94,0.191508,620270,399092
1450.23,0.195576,618860,394472
1453.44,0.198381,617697,391196
1456.64,0.201035,616264,387911
1459.85,0.203692,614413,384387
1463.04,0.206602,612307,380511
1466.24,0.210380,610032,375814
1469.43,0.214556,607345,370578
1473.67,0.220025,603789,363798
1476.85,0.226138,601175,357160
1480.02,0.232298,597737,350116
1483.19,0.238726,594479,343092
1486.36,0.244661,591232,336587
1489.52,0.249106,587853,331255
1492.68,0.253201,583875,325926
1496.89,0.254436,578062,321765
1500.03,0.255254,574159,318991
1503.18,0.255430,570285,316710
1506.32,0.254177,565444,314929
1509.45,0.252765,560571,313232
1512.58,0.251127,555821,311751
1515.71,0.249184,550344,310063
1519.87,0.245925,543983,308788
1522.99,0.243844,538764,307294
1526.1,0.240900,533692,306472
1529.21,0.238120,527902,305094
1532.32,0.235118,521886,303709
1535.42,0.232283,515888,302185
1538.51,0.229603,509987,300577
1541.6,0.226156,503936,299378
1545.72,0.223400,494694,295758
1548.8,0.220196,488378,294144
1551.88,0.217468,481832,292030
1554.95,0.215619,474989,289111
1558.02,0.214424,467818,285531
1561.08,0.213510,460730,281797
1564.15,0.212682,454170,278315
1568.22,0.211119,444181,273175
1571.27,0.210265,436947,269255
1574.32,0.209844,429598,264983
1577.36,0.209025,422039,260812
1580.4,0.207778,414375,256812
1583.43,0.205533,406354,253146
1586.46,0.204710,398475,248709
1590.49,0.202805,388982,243851
1593.51,0.200708,380708,239819
1596.53,0.198659,372727,235902
1599.54,0.197073,365060,231895
1602.55,0.195268,357543,228066
1605.55,0.193544,349495,223819
1608.55,0.191817,341154,219348
1612.54,0.188942,330877,214153
1615.53,0.187123,322904,209870
1618.51,0.187440,315116,204659
1621.49,0.186587,307217,199921
1624.47,0.184781,299481,195699
1627.44,0.182506,292112,191886
1630.41,0.182355,284245,186783
1634.36,0.181045,274079,180647
1637.32,0.180677,266916,176075
1640.27,0.180248,259612,171426
1643.22,0.180082,251804,166334
1646.16,0.178298,244348,162073
1649.1,0.178124,236703,157065
1652.04,0.175418,228171,152350
1655.95,0.173556,215408,144446
1658.88,0.168937,204937,138894
1661.8,0.163136,193395,132834
1664.72,0.155339,179728,125683
1667.63,0.144034,163642,117452
1670.54,0.130728,146312,108281
1673.44,0.112248,128451,99195
1677.31,0.092776,105080,84868
1680.21,0.080663,88906,73836
1683.1,0.076788,75033,62873
1685.99,0.076526,63520,53258
1688.87,0.081893,53714,44483
1691.75,0.086749,45653,37387
1694.62,0.088593,39137,31915
1697.49,0.090414,33776,27428
1701.31,0.094412,28175,22670