File: samples/wool/wool-000811/Column 1_050532_20150331_115113.csv
Method:,Column 1,,
Host Date-Time:,31/3/15 @ 11:51:13,,
Header Version:,1,,
System Temp (C):,30.35,,
Detector Temp (C):,31.47,,
Humidity (%):,4.87,,
Lamp PD:,3831,,
Shift Vector Coefficients:,-10.5391,0.0761263,-0.000134223,,
Pixel to Wavelength Coefficients:,1775.68,-0.916766,-0.000235065,,
Serial Number:,5510004,,
Scan Config Name:,Column 1,,
Scan Config Type:,Slew,,
Section 1,,
Start wavelength (nm):,900,,
End wavelength (nm):,1700,,
Pattern Pixel Width (nm):,   7.03,,,,
Exposure (ms):,  0.635,,,,
Digital Resolution:,228,,
Num Repeats:,6,,
PGA Gain:,64,,
Total Measurement Time in sec:,  2.690,,
Wavelength (nm),Absorbance (AU),Reference Signal (unitless),Sample Signal (unitless)
901.51,0.043674,108485,98106
905.376,0.048921,121306,108383
909.237,0.049590,131909,117675
913.095,0.050951,143299,127436
916.948,0.050796,156982,139654
922.079,0.050482,179937,160191
925.923,0.050658,200504,178429
929.762,0.051970,222660,197548
933.597,0.052168,244426,216760
937.427,0.053206,263972,233535
941.254,0.053835,281845,248986
945.076,0.053378,297271,262890
950.165,0.054069,315605,278660
953.978,0.053643,328029,289914
957.786,0.054605,340470,300244
961.59,0.055320,352317,310180
965.389,0.055280,363056,319664
969.185,0.055629,373162,328298
972.976,0.056155,382632,336222
976.763,0.057470,391202,342713
981.806,0.057558,400190,350516
985.583,0.058403,406088,354991
989.355,0.058665,410162,358336
993.124,0.059781,412868,359774
996.888,0.060205,414263,360638
1000.65,0.060866,415476,361144
1004.4,0.061897,415479,360290
1009.41,0.063011,414358,358397
1013.15,0.063838,412923,356477
1016.89,0.064324,411526,354873
1020.63,0.064142,409066,352900
1024.36,0.063907,406777,351115
1028.09,0.063911,404427,349083
1031.82,0.063329,401911,347377
1036.78,0.062413,398410,345078
1040.49,0.061717,396204,343718
1044.2,0.062181,394236,341645
1047.91,0.061759,392042,340074
1051.61,0.060634,389823,339026
1055.31,0.059733,388234,338346
1059,0.059597,387599,337898
1063.92,0.058113,386688,338258
1067.61,0.056413,386598,339505
1071.29,0.056428,387377,340178
1074.96,0.055643,388536,341813
1078.63,0.054717,389855,343705
1082.3,0.053725,391215,345693
1085.96,0.053047,393215,348003
1090.84,0.052021,396270,351536
1094.49,0.051933,398760,353817
1098.14,0.051536,400987,356118
1101.79,0.051545,403477,358322
1105.43,0.051503,406116,360701
1109.06,0.050924,407701,362592
1112.7,0.050910,409859,364523
1117.53,0.051318,412494,366522
1121.15,0.051771,414909,368283
1124.77,0.052757,416559,368909
1128.38,0.053949,418532,369641
1131.99,0.055721,419956,369388
1135.6,0.057409,421946,369699
1139.2,0.059954,423881,369224
1143.99,0.062800,426786,369326
1147.58,0.063984,428617,369901
1151.17,0.065289,431169,370987
1154.75,0.066116,433579,372351
1158.33,0.069132,436264,372064
1161.91,0.071540,439132,372439
1165.48,0.073980,442389,373099
1169.04,0.076696,446101,373884
1173.79,0.081142,451929,374911
1177.34,0.084316,456026,375555
1180.9,0.086792,461306,377744
1184.44,0.088674,467657,381288
1187.99,0.089266,473969,385908
1191.52,0.089683,479856,390326
1195.06,0.088626,487372,397406
1199.76,0.087034,497347,407029
1203.29,0.086064,504311,413651
1206.81,0.084529,511507,421039
1210.33,0.083520,519078,428265
1213.84,0.082457,527163,436001
1217.35,0.081075,534208,443236
1220.85,0.080161,540472,449378
1225.51,0.078524,549929,458968
1229.01,0.078198,556888,465125
1232.5,0.076790,562180,471070
1235.98,0.076007,567975,476785
1239.46,0.075840,574815,482712
1242.94,0.074260,582782,491186
1246.41,0.073405,591476,499496
1251.03,0.072624,604016,511004
1254.5,0.072720,612289,517889
1257.96,0.073319,619125,522949
1261.41,0.073670,624551,527106
1264.86,0.076428,629900,528255
1268.31,0.074836,634345,533937
1271.75,0.075719,638574,536404
1276.33,0.075673,642499,539758
1279.76,0.075859,645905,542388
1283.19,0.075254,648307,545163
1286.61,0.075105,650446,547150
1290.03,0.074363,652132,549506
1293.44,0.073774,653907,551749
1296.85,0.074081,655963,553093
1301.39,0.074165,657349,554155
1304.8,0.074139,657558,554364
1308.19,0.074457,658515,554764
1311.58,0.074207,658804,555327
1314.97,0.075220,659011,554208
1318.36,0.075585,658272,553121
1321.73,0.075980,658022,552408
1326.23,0.077387,657870,550495
1329.6,0.078063,656482,548479
1332.97,0.079898,654926,544872
1336.33,0.081249,653727,542185
1339.69,0.082766,652497,539278
1343.04,0.084951,649913,534447
1346.39,0.087734,647671,529201
1349.73,0.090058,645338,524480
1354.18,0.093620,641175,516841
1357.52,0.096199,638376,511538
1360.85,0.098289,635805,507032
1364.17,0.100701,633413,502326
1367.49,0.103681,631026,497011
1370.81,0.106120,628050,491897
1374.12,0.109480,625034,485762
1378.54,0.113018,620272,478150
1381.84,0.117291,616892,470889
1385.14,0.121958,613613,463379
1388.43,0.127156,611526,456309
1391.72,0.133398,610663,449163
1395.01,0.139302,610634,443077
1398.29,0.146204,611700,436852
1402.66,0.155577,614051,429168
1405.93,0.163392,616268,423036
1409.2,0.169457,617795,418203
1412.46,0.176403,618872,412285
1415.72,0.182169,619795,407454
1418.98,0.187119,620495,403292
1422.23,0.191802,621087,399347
1426.56,0.196380,621375,395343
1429.8,0.200666,621616,391612
1433.04,0.203141,622129,389708
1436.27,0.206124,621526,386665
1439.5,0.208648,621113,384169
1442.72,0.211197,620921,381803
1445.94,0.213723,620270,379191
1450.23,0.217658,618860,374916
1453.44,0.220431,617697,371830
1456.64,0.222923,616264,368845
1459.85,0.225795,614413,365313
1463.04,0.228237,612307,362020
1466.24,0.230811,610032,358543
1469.43,0.234095,607345,354275
1473.67,0.238554,603789,348603
1476.85,0.243498,601175,343165
1480.02,0.248187,597737,337538
1483.19,0.253915,594479,331300
1486.36,0.259240,591232,325475
1489.52,0.264092,587853,320020
1492.68,0.268186,583875,314872
1496.89,0.270341,578062,310194
1500.03,0.270683,574159,307857
1503.18,0.271614,570285,305125
1506.32,0.270904,565444,303030
1509.45,0.270281,560571,300850
1512.58,0.268371,555821,299615
1515.71,0.266417,550344,298001
1519.87,0.263075,543983,296832
1522.99,0.259673,538764,296296
1526.1,0.257308,533692,295109
1529.21,0.254717,527902,293654
1532.32,0.252501,521886,291793
1535.42,0.248559,515888,291069
1538.51,0.245575,509987,289724
1541.6,0.241438,503936,289026
1545.72,0.236605,494694,286901
1548.8,0.233931,488378,284987
1551.88,0.230353,481832,283493
1554.95,0.228489,474989,280669
1558.02,0.226528,467818,277683
1561.08,0.225096,460730,274379
1564.15,0.224050,454170,271124
1568.22,0.222987,444181,265811
1571.27,0.222560,436947,261739
1574.32,0.221281,429598,258096
1577.36,0.219532,422039,254578
1580.4,0.217609,414375,251064
1583.43,0.215489,406354,247409
1586.46,0.213822,398475,243545
1590.49,0.210990,388982,239298
1593.51,0.208793,380708,235396
1596.53,0.205693,372727,232112
1599.54,0.203607,365060,228432
1602.55,0.201507,357543,224813
1605.55,0.199218,349495,220914
1608.55,0.196283,341154,217104
1612.54,0.193269,330877,212030
1615.53,0.191865,322904,207591
1618.51,0.189889,315116,203508
1621.49,0.188784,307217,198912
1624.47,0.186662,299481,194853
1627.44,0.185807,292112,190433
1630.41,0.184234,284245,185977
1634.36,0.181909,274079,180288
1637.32,0.180566,266916,176120
1640.27,0.180836,259612,171194
1643.22,0.178383,251804,166986
1646.16,0.177781,244348,162266
1649.1,0.176962,236703,157486
1652.04,0.174777,228171,152575
1655.95,0.174158,215408,144246
1658.88,0.173393,204937,137476
1661.8,0.172248,193395,130076
1664.72,0.170093,179728,121485
1667.63,0.165426,163642,111807
1670.54,0.161496,146312,100875
1673.44,0.156779,128451,89528
1677.31,0.153894,105080,73727
1680.21,0.156469,88906,62010
1683.1,0.157008,75033,52269
1685.99,0.161446,63520,43799
1688.87,0.161182,53714,37060
1691.75,0.165245,45653,31205
1694.62,0.173342,39137,26257
1697.49,0.177953,33776,22421
1701.31,0.186062,28175,18357