File: samples/wool/wool-000811/Column 1_050552_20150331_120037.csv
Method:,Column 1,,
Host Date-Time:,31/3/15 @ 12:0:37,,
Header Version:,1,,
System Temp (C):,33.37,,
Detector Temp (C):,32.42,,
Humidity (%):,3.38,,
Lamp PD:,3821,,
Shift Vector Coefficients:,-10.5391,0.0761263,-0.000134223,,
Pixel to Wavelength Coefficients:,1775.68,-0.916766,-0.000235065,,
Serial Number:,5510004,,
Scan Config Name:,Column 1,,
Scan Config Type:,Slew,,
Section 1,,
Start wavelength (nm):,900,,
End wavelength (nm):,1700,,
Pattern Pixel Width (nm):,   7.03,,,,
Exposure (ms):,  0.635,,,,
Digital Resolution:,228,,
Num Repeats:,6,,
PGA Gain:,64,,
Total Measurement Time in sec:,  2.726,,
Wavelength (nm),Absorbance (AU),Reference Signal (unitless),Sample Signal (unitless)
901.51,0.032245,108485,100722
905.376,0.038246,121306,111080
909.237,0.041035,131909,120016
913.095,0.042815,143299,129846
916.948,0.042697,156982,142283
922.079,0.044714,179937,162333
925.923,0.045521,200504,180552
929.762,0.046146,222660,200215
933.597,0.046203,244426,219758
937.427,0.045635,263972,237642
941.254,0.045984,281845,253528
945.076,0.046300,297271,267210
950.165,0.045775,315605,284033
953.978,0.044963,328029,295767
957.786,0.046377,340470,305986
961.59,0.046624,352317,316453
965.389,0.046043,363056,326536
969.185,0.046491,373162,335279
972.976,0.047269,382632,343172
976.763,0.047693,391202,350516
981.806,0.048775,400190,357677
985.583,0.049439,406088,362394
989.355,0.049934,410162,365613
993.124,0.049564,412868,368339
996.888,0.050517,414263,368773
1000.65,0.051424,415476,369081
1004.4,0.052684,415479,368015
1009.41,0.054093,414358,365833
1013.15,0.053795,412923,364816
1016.89,0.054833,411526,362714
1020.63,0.055173,409066,360264
1024.36,0.055031,406777,358365
1028.09,0.054146,404427,357021
1031.82,0.054084,401911,354851
1036.78,0.053308,398410,352389
1040.49,0.053221,396204,350508
1044.2,0.053029,394236,348921
1047.91,0.053084,392042,346935
1051.61,0.052436,389823,345487
1055.31,0.051877,388234,344522
1059,0.051451,387599,344296
1063.92,0.050633,386688,344134
1067.61,0.049496,386598,344956
1071.29,0.049068,387377,345992
1074.96,0.048217,388536,347708
1078.63,0.048363,389855,348771
1082.3,0.047374,391215,350785
1085.96,0.046987,393215,352893
1090.84,0.045697,396270,356693
1094.49,0.045196,398760,359348
1098.14,0.045355,400987,361223
1101.79,0.045424,403477,363408
1105.43,0.044805,406116,366307
1109.06,0.044703,407701,367823
1112.7,0.044383,409859,370042
1117.53,0.044490,412494,372330
1121.15,0.045240,414909,373863
1124.77,0.045438,416559,375179
1128.38,0.047042,418532,375566
1131.99,0.048381,419956,375684
1135.6,0.050367,421946,375742
1139.2,0.052525,423881,375594
1143.99,0.054729,426786,376254
1147.58,0.056218,428617,376575
1151.17,0.056811,431169,378300
1154.75,0.058293,433579,379119
1158.33,0.060175,436264,379817
1161.91,0.062134,439132,380593
1165.48,0.064630,442389,381219
1169.04,0.067254,446101,382102
1173.79,0.070984,451929,383783
1177.34,0.074167,456026,384435
1180.9,0.075674,461306,387539
1184.44,0.077639,467657,391101
1187.99,0.078322,473969,395756
1191.52,0.077842,479856,401115
1195.06,0.077951,487372,407295
1199.76,0.076671,497347,416858
1203.29,0.075699,504311,423642
1206.81,0.075135,511507,430246
1210.33,0.074505,519078,437248
1213.84,0.073439,527163,445150
1217.35,0.072849,534208,451712
1220.85,0.072360,540472,457523
1225.51,0.071200,549929,466774
1229.01,0.070470,556888,473476
1232.5,0.069865,562180,478641
1235.98,0.069115,567975,484411
1239.46,0.068516,574815,490921
1242.94,0.067193,582782,499244
1246.41,0.066532,591476,507464
1251.03,0.066859,604016,517833
1254.5,0.066799,612289,524998
1257.96,0.066829,619125,530822
1261.41,0.067635,624551,534482
1264.86,0.068153,629900,538417
1268.31,0.068635,634345,541615
1271.75,0.069676,638574,543920
1276.33,0.069914,642499,546964
1279.76,0.069831,645905,549968
1283.19,0.069571,648307,552344
1286.61,0.069147,650446,554708
1290.03,0.068824,652132,556560
1293.44,0.068340,653907,558696
1296.85,0.068177,655963,560664
1301.39,0.068060,657349,562000
1304.8,0.068012,657558,562241
1308.19,0.067800,658515,563334
1311.58,0.068343,658804,562877
1314.97,0.069336,659011,561767
1318.36,0.069562,658272,560846
1321.73,0.070171,658022,559847
1326.23,0.071297,657870,558269
1329.6,0.072068,656482,556102
1332.97,0.073184,654926,553360
1336.33,0.074644,653727,550494
1339.69,0.076329,652497,547330
1343.04,0.078476,649913,542474
1346.39,0.080345,647671,538282
1349.73,0.082987,645338,533090
1354.18,0.085874,641175,526142
1357.52,0.088245,638376,520992
1360.85,0.090673,635805,516001
1364.17,0.092413,633413,512005
1367.49,0.095407,631026,506571
1370.81,0.097331,628050,501953
1374.12,0.100107,625034,496360
1378.54,0.103981,620272,488204
1381.84,0.107809,616892,481283
1385.14,0.111627,613613,474534
1388.43,0.116520,611526,467622
1391.72,0.121804,610663,461315
1395.01,0.127223,610634,455573
1398.29,0.133168,611700,450164
1402.66,0.141507,614051,443300
1405.93,0.148064,616268,438234
1409.2,0.153956,617795,433399
1412.46,0.159183,618872,428961
1415.72,0.164869,619795,424013
1418.98,0.169164,620495,420314
1422.23,0.173697,621087,416347
1426.56,0.178093,621375,412345
1429.8,0.181188,621616,409576
1433.04,0.184428,622129,406867
1436.27,0.187116,621526,403965
1439.5,0.189341,621113,401633
1442.72,0.191324,620921,399680
1445.94,0.193788,620270,397002
1450.23,0.198001,618860,392276
1453.44,0.200965,617697,388875
1456.64,0.202818,616264,386321
1459.85,0.206332,614413,382057
1463.04,0.209135,612307,378298
1466.24,0.211689,610032,374683
1469.43,0.214773,607345,370393
1473.67,0.220873,603789,363088
1476.85,0.225359,601175,357801
1480.02,0.230581,597737,351503
1483.19,0.236440,594479,344903
1486.36,0.242347,591232,338385
1489.52,0.246397,587853,333328
1492.68,0.249989,583875,328345
1496.89,0.252017,578062,323562
1500.03,0.253460,574159,320311
1503.18,0.253504,570285,318118
1506.32,0.252407,565444,316215
1509.45,0.250552,560571,314832
1512.58,0.249289,555821,313073
1515.71,0.247118,550344,311542
1519.87,0.243780,543983,310317
1522.99,0.241239,538764,309143
1526.1,0.238561,533692,308127
1529.21,0.235883,527902,306669
1532.32,0.232336,521886,305661
1535.42,0.229356,515888,304228
1538.51,0.225909,509987,303145
1541.6,0.224054,503936,300830
1545.72,0.218761,494694,298934
1548.8,0.216042,488378,296971
1551.88,0.213264,481832,294871
1554.95,0.211040,474989,292175
1558.02,0.209251,467818,288952
1561.08,0.207796,460730,285529
1564.15,0.206926,454170,282028
1568.22,0.206008,444181,276409
1571.27,0.204377,436947,272930
1574.32,0.203564,429598,268843
1577.36,0.202796,422039,264580
1580.4,0.201249,414375,260702
1583.43,0.199854,406354,256478
1586.46,0.197404,398475,252928
1590.49,0.195318,388982,248091
1593.51,0.192517,380708,244385
1596.53,0.191370,372727,239895
1599.54,0.187885,365060,236853
1602.55,0.186241,357543,232856
1605.55,0.184450,349495,228555
1608.55,0.181891,341154,224419
1612.54,0.179482,330877,218869
1615.53,0.177853,322904,214398
1618.51,0.176615,315116,209824
1621.49,0.176134,307217,204791
1624.47,0.173327,299481,200929
1627.44,0.171805,292112,196673
1630.41,0.171166,284245,191658
1634.36,0.169520,274079,185505
1637.32,0.168691,266916,181002
1640.27,0.168100,259612,176289
1643.22,0.166538,251804,171603
1646.16,0.167174,244348,166278
1649.1,0.166351,236703,161381
1652.04,0.164268,228171,156312
1655.95,0.162074,215408,148316
1658.88,0.159650,204937,141896
1661.8,0.156697,193395,134818
1664.72,0.151853,179728,126696
1667.63,0.142967,163642,117741
1670.54,0.134960,146312,107231
1673.44,0.124962,128451,96333
1677.31,0.114808,105080,80670
1680.21,0.107009,88906,69490
1683.1,0.106844,75033,58669
1685.99,0.113273,63520,48937
1688.87,0.118651,53714,40873
1691.75,0.123214,45653,34376
1694.62,0.124624,39137,29374
1697.49,0.131120,33776,24974
1701.31,0.139022,28175,20457