File: samples/wool/wool-000811/Column 1_050543_20150331_115626.csv
Method:,Column 1,,
Host Date-Time:,31/3/15 @ 11:56:26,,
Header Version:,1,,
System Temp (C):,32.62,,
Detector Temp (C):,30.97,,
Humidity (%):,2.74,,
Lamp PD:,3824,,
Shift Vector Coefficients:,-10.5391,0.0761263,-0.000134223,,
Pixel to Wavelength Coefficients:,1775.68,-0.916766,-0.000235065,,
Serial Number:,5510004,,
Scan Config Name:,Column 1,,
Scan Config Type:,Slew,,
Section 1,,
Start wavelength (nm):,900,,
End wavelength (nm):,1700,,
Pattern Pixel Width (nm):,   7.03,,,,
Exposure (ms):,  0.635,,,,
Digital Resolution:,228,,
Num Repeats:,6,,
PGA Gain:,64,,
Total Measurement Time in sec:,  2.738,,
Wavelength (nm),Absorbance (AU),Reference Signal (unitless),Sample Signal (unitless)
901.51,0.043927,108485,98049
905.376,0.051010,121306,107863
909.237,0.053092,131909,116730
913.095,0.052173,143299,127078
916.948,0.052413,156982,139135
922.079,0.052118,179937,159589
925.923,0.052617,200504,177626
929.762,0.052984,222660,197087
933.597,0.054706,244426,215497
937.427,0.054198,263972,233002
941.254,0.054558,281845,248572
945.076,0.054659,297271,262116
950.165,0.054631,315605,278300
953.978,0.054025,328029,289659
957.786,0.054677,340470,300194
961.59,0.054302,352317,310908
965.389,0.055461,363056,319531
969.185,0.055328,373162,328526
972.976,0.055528,382632,336708
976.763,0.056708,391202,343315
981.806,0.057239,400190,350774
985.583,0.058010,406088,355312
989.355,0.058646,410162,358352
993.124,0.058716,412868,360658
996.888,0.059316,414263,361377
1000.65,0.060093,415476,361787
1004.4,0.061422,415479,360684
1009.41,0.063455,414358,358031
1013.15,0.063304,412923,356915
1016.89,0.063945,411526,355183
1020.63,0.063465,409066,353450
1024.36,0.063699,406777,351283
1028.09,0.063776,404427,349192
1031.82,0.063224,401911,347461
1036.78,0.062361,398410,345119
1040.49,0.061713,396204,343721
1044.2,0.061596,394236,342106
1047.91,0.060558,392042,341016
1051.61,0.060053,389823,339480
1055.31,0.059214,388234,338750
1059,0.058744,387599,338562
1063.92,0.057034,386688,339099
1067.61,0.056379,386598,339532
1071.29,0.055818,387377,340656
1074.96,0.055414,388536,341993
1078.63,0.054571,389855,343821
1082.3,0.053139,391215,346160
1085.96,0.052495,393215,348446
1090.84,0.052280,396270,351327
1094.49,0.051311,398760,354324
1098.14,0.051534,400987,356120
1101.79,0.050889,403477,358864
1105.43,0.051001,406116,361118
1109.06,0.051082,407701,362460
1112.7,0.050120,409859,365186
1117.53,0.049991,412494,367643
1121.15,0.051418,414909,368583
1124.77,0.051461,416559,370012
1128.38,0.053295,418532,370198
1131.99,0.055428,419956,369637
1135.6,0.056966,421946,370076
1139.2,0.058731,423881,370265
1143.99,0.061594,426786,370353
1147.58,0.062864,428617,370856
1151.17,0.064272,431169,371857
1154.75,0.065732,433579,372680
1158.33,0.067851,436264,373163
1161.91,0.070056,439132,373714
1165.48,0.073134,442389,373827
1169.04,0.075653,446101,374783
1173.79,0.080236,451929,375694
1177.34,0.083032,456026,376667
1180.9,0.085596,461306,378785
1184.44,0.087116,467657,382659
1187.99,0.088381,473969,386695
1191.52,0.087672,479856,392138
1195.06,0.086952,487372,398941
1199.76,0.086095,497347,407910
1203.29,0.084319,504311,415317
1206.81,0.083156,511507,422372
1210.33,0.082215,519078,429554
1213.84,0.080989,527163,437478
1217.35,0.080843,534208,443473
1220.85,0.078814,540472,450774
1225.51,0.077288,549929,460276
1229.01,0.076610,556888,466829
1232.5,0.076199,562180,471711
1235.98,0.075466,567975,477379
1239.46,0.073840,574815,484940
1242.94,0.072831,582782,492805
1246.41,0.071840,591476,501299
1251.03,0.071680,604016,512116
1254.5,0.071648,612289,519169
1257.96,0.071876,619125,524689
1261.41,0.072612,624551,528392
1264.86,0.073458,629900,531880
1268.31,0.073746,634345,535278
1271.75,0.074477,638574,537940
1276.33,0.075032,642499,540556
1279.76,0.074904,645905,543581
1283.19,0.074392,648307,546246
1286.61,0.073839,650446,548747
1290.03,0.073529,652132,550562
1293.44,0.072635,653907,553198
1296.85,0.072658,655963,554908
1301.39,0.072441,657349,556359
1304.8,0.072265,657558,556761
1308.19,0.072994,658515,556636
1311.58,0.072943,658804,556946
1314.97,0.073581,659011,556303
1318.36,0.074190,658272,554901
1321.73,0.074551,658022,554229
1326.23,0.075411,657870,553005
1329.6,0.076609,656482,550318
1332.97,0.077900,654926,547384
1336.33,0.079224,653727,544719
1339.69,0.081128,652497,541315
1343.04,0.083013,649913,536837
1346.39,0.085282,647671,532197
1349.73,0.087753,645338,527272
1354.18,0.091431,641175,519452
1357.52,0.094010,638376,514122
1360.85,0.096204,635805,509472
1364.17,0.098538,633413,504835
1367.49,0.101409,631026,499618
1370.81,0.104215,628050,494059
1374.12,0.107063,625034,488473
1378.54,0.110535,620272,480892
1381.84,0.114314,616892,474128
1385.14,0.119166,613613,466368
1388.43,0.124372,611526,459243
1391.72,0.129820,610663,452878
1395.01,0.135642,610634,446827
1398.29,0.141972,611700,441130
1402.66,0.150666,614051,434049
1405.93,0.157083,616268,429227
1409.2,0.163543,617795,423937
1412.46,0.169009,618872,419365
1415.72,0.174471,619795,414741
1418.98,0.178973,620495,410928
1422.23,0.183583,621087,406977
1426.56,0.188495,621375,402586
1429.8,0.191417,621616,400042
1433.04,0.194067,622129,397936
1436.27,0.196670,621526,395175
1439.5,0.198664,621113,393103
1442.72,0.201816,620921,390140
1445.94,0.204149,620270,387643
1450.23,0.207575,618860,383723
1453.44,0.210448,617697,380476
1456.64,0.213915,616264,376575
1459.85,0.216270,614413,373414
1463.04,0.219237,612307,369600
1466.24,0.222097,610032,365810
1469.43,0.225664,607345,361220
1473.67,0.230765,603789,354912
1476.85,0.235600,601175,349463
1480.02,0.241509,597737,342769
1483.19,0.247870,594479,335944
1486.36,0.253624,591232,329711
1489.52,0.259177,587853,323662
1492.68,0.263180,583875,318522
1496.89,0.265745,578062,313494
1500.03,0.266255,574159,311012
1503.18,0.266458,570285,308769
1506.32,0.265295,565444,306969
1509.45,0.265146,560571,304428
1512.58,0.262894,555821,303418
1515.71,0.261292,550344,301538
1519.87,0.258424,543983,300028
1522.99,0.255351,538764,299259
1526.1,0.253108,533692,297977
1529.21,0.250108,527902,296787
1532.32,0.246387,521886,295930
1535.42,0.243581,515888,294425
1538.51,0.239992,509987,293472
1541.6,0.237213,503936,291852
1545.72,0.231916,494694,290015
1548.8,0.228439,488378,288614
1551.88,0.225547,481832,286648
1554.95,0.223373,474989,283995
1558.02,0.221449,467818,280949
1561.08,0.219886,460730,277690
1564.15,0.218573,454170,274565
1568.22,0.217906,444181,268939
1571.27,0.217567,436947,264766
1574.32,0.216029,429598,261236
1577.36,0.214768,422039,257386
1580.4,0.213640,414375,253369
1583.43,0.211270,406354,249824
1586.46,0.209651,398475,245895
1590.49,0.207052,388982,241478
1593.51,0.204548,380708,237708
1596.53,0.201884,372727,234157
1599.54,0.199479,365060,230614
1602.55,0.196714,357543,227308
1605.55,0.194879,349495,223132
1608.55,0.192782,341154,218861
1612.54,0.189846,330877,213708
1615.53,0.187154,322904,209855
1618.51,0.184671,315116,205968
1621.49,0.184387,307217,200936
1624.47,0.183407,299481,196319
1627.44,0.182140,292112,192048
1630.41,0.180231,284245,187699
1634.36,0.178497,274079,181710
1637.32,0.177568,266916,177340
1640.27,0.176186,259612,173037
1643.22,0.175660,251804,168036
1646.16,0.174855,244348,163363
1649.1,0.174317,236703,158448
1652.04,0.172622,228171,153334
1655.95,0.170330,215408,145523
1658.88,0.168946,204937,138891
1661.8,0.167847,193395,131401
1664.72,0.163241,179728,123417
1667.63,0.158337,163642,113647
1670.54,0.152928,146312,102885
1673.44,0.146027,128451,91772
1677.31,0.140518,105080,76033
1680.21,0.137101,88906,64838
1683.1,0.140205,75033,54331
1685.99,0.148224,63520,45153
1688.87,0.153274,53714,37741
1691.75,0.152788,45653,32113
1694.62,0.163854,39137,26837
1697.49,0.160936,33776,23317
1701.31,0.162577,28175,19377