File: samples/wool/wool-000811/Column 1_050551_20150331_120034.csv
Method:,Column 1,,
Host Date-Time:,31/3/15 @ 12:0:34,,
Header Version:,1,,
System Temp (C):,33.34,,
Detector Temp (C):,32.42,,
Humidity (%):,3.43,,
Lamp PD:,3820,,
Shift Vector Coefficients:,-10.5391,0.0761263,-0.000134223,,
Pixel to Wavelength Coefficients:,1775.68,-0.916766,-0.000235065,,
Serial Number:,5510004,,
Scan Config Name:,Column 1,,
Scan Config Type:,Slew,,
Section 1,,
Start wavelength (nm):,900,,
End wavelength (nm):,1700,,
Pattern Pixel Width (nm):,   7.03,,,,
Exposure (ms):,  0.635,,,,
Digital Resolution:,228,,
Num Repeats:,6,,
PGA Gain:,64,,
Total Measurement Time in sec:,  2.671,,
Wavelength (nm),Absorbance (AU),Reference Signal (unitless),Sample Signal (unitless)
901.51,0.033476,108485,100437
905.376,0.038583,121306,110994
909.237,0.042565,131909,119594
913.095,0.043096,143299,129762
916.948,0.043387,156982,142057
922.079,0.044612,179937,162371
925.923,0.045393,200504,180605
929.762,0.046501,222660,200051
933.597,0.046203,244426,219758
937.427,0.045211,263972,237874
941.254,0.045787,281845,253643
945.076,0.046124,297271,267318
950.165,0.045524,315605,284197
953.978,0.045087,328029,295682
957.786,0.045477,340470,306621
961.59,0.046236,352317,316736
965.389,0.046064,363056,326520
969.185,0.046574,373162,335215
972.976,0.047677,382632,342850
976.763,0.047900,391202,350349
981.806,0.048127,400190,358211
985.583,0.049032,406088,362734
989.355,0.049396,410162,366066
993.124,0.050063,412868,367916
996.888,0.050510,414263,368779
1000.65,0.050828,415476,369588
1004.4,0.052305,415479,368336
1009.41,0.053731,414358,366138
1013.15,0.053998,412923,364646
1016.89,0.054894,411526,362663
1020.63,0.054786,409066,360585
1024.36,0.054413,406777,358875
1028.09,0.054692,404427,356573
1031.82,0.054992,401911,354110
1036.78,0.053968,398410,351854
1040.49,0.053274,396204,350465
1044.2,0.053018,394236,348930
1047.91,0.052992,392042,347009
1051.61,0.052303,389823,345593
1055.31,0.052250,388234,344226
1059,0.051050,387599,344614
1063.92,0.049776,386688,344814
1067.61,0.049403,386598,345030
1071.29,0.049319,387377,345792
1074.96,0.048974,388536,347102
1078.63,0.048679,389855,348517
1082.3,0.047150,391215,350966
1085.96,0.046789,393215,353054
1090.84,0.045789,396270,356617
1094.49,0.045134,398760,359400
1098.14,0.045291,400987,361276
1101.79,0.044787,403477,363942
1105.43,0.045129,406116,366034
1109.06,0.044179,407701,368267
1112.7,0.044171,409859,370223
1117.53,0.044809,412494,372056
1121.15,0.045450,414909,373683
1124.77,0.045831,416559,374840
1128.38,0.046436,418532,376091
1131.99,0.048120,419956,375910
1135.6,0.050486,421946,375639
1139.2,0.051692,423881,376315
1143.99,0.054959,426786,376055
1147.58,0.055745,428617,376985
1151.17,0.056908,431169,378216
1154.75,0.058630,433579,378825
1158.33,0.060089,436264,379892
1161.91,0.062642,439132,380148
1165.48,0.064618,442389,381229
1169.04,0.067250,446101,382105
1173.79,0.071491,451929,383336
1177.34,0.073676,456026,384870
1180.9,0.075567,461306,387634
1184.44,0.077762,467657,390990
1187.99,0.078329,473969,395750
1191.52,0.078325,479856,400669
1195.06,0.077264,487372,407940
1199.76,0.077086,497347,416460
1203.29,0.075983,504311,423365
1206.81,0.075244,511507,430138
1210.33,0.074291,519078,437463
1213.84,0.073609,527163,444975
1217.35,0.072770,534208,451794
1220.85,0.071987,540472,457916
1225.51,0.071350,549929,466613
1229.01,0.070465,556888,473481
1232.5,0.070125,562180,478355
1235.98,0.069340,567975,484160
1239.46,0.068328,574815,491134
1242.94,0.067514,582782,498876
1246.41,0.066903,591476,507030
1251.03,0.066736,604016,517979
1254.5,0.066543,612289,525307
1257.96,0.067184,619125,530389
1261.41,0.067701,624551,534400
1264.86,0.067847,629900,538796
1268.31,0.069020,634345,541135
1271.75,0.069620,638574,543990
1276.33,0.070077,642499,546758
1279.76,0.069965,645905,549798
1283.19,0.069180,648307,552842
1286.61,0.069136,650446,554722
1290.03,0.068641,652132,556794
1293.44,0.068040,653907,559083
1296.85,0.068297,655963,560509
1301.39,0.067928,657349,562171
1304.8,0.067711,657558,562630
1308.19,0.067945,658515,563145
1311.58,0.068288,658804,562948
1314.97,0.069239,659011,561893
1318.36,0.069586,658272,560815
1321.73,0.069818,658022,560302
1326.23,0.070949,657870,558716
1329.6,0.071893,656482,556327
1332.97,0.073128,654926,553432
1336.33,0.074589,653727,550564
1339.69,0.075868,652497,547912
1343.04,0.078234,649913,542777
1346.39,0.080684,647671,537861
1349.73,0.082633,645338,533524
1354.18,0.086050,641175,525928
1357.52,0.088151,638376,521105
1360.85,0.090452,635805,516264
1364.17,0.092480,633413,511926
1367.49,0.095140,631026,506883
1370.81,0.097743,628050,501477
1374.12,0.099899,625034,496598
1378.54,0.104033,620272,488145
1381.84,0.107497,616892,481629
1385.14,0.111891,613613,474246
1388.43,0.116447,611526,467701
1391.72,0.122563,610663,460509
1395.01,0.127621,610634,455156
1398.29,0.133213,611700,450117
1402.66,0.141558,614051,443248
1405.93,0.147836,616268,438464
1409.2,0.154105,617795,433251
1412.46,0.159731,618872,428420
1415.72,0.164608,619795,424268
1418.98,0.169421,620495,420066
1422.23,0.173716,621087,416329
1426.56,0.178305,621375,412144
1429.8,0.181162,621616,409600
1433.04,0.184579,622129,406726
1436.27,0.187061,621526,404016
1439.5,0.188820,621113,402115
1442.72,0.191851,620921,399195
1445.94,0.194211,620270,396616
1450.23,0.198091,618860,392194
1453.44,0.200579,617697,389221
1456.64,0.203881,616264,385377
1459.85,0.206639,614413,381787
1463.04,0.209102,612307,378327
1466.24,0.211562,610032,374792
1469.43,0.215180,607345,370046
1473.67,0.220181,603789,363667
1476.85,0.225051,601175,358055
1480.02,0.230610,597737,351480
1483.19,0.236602,594479,344774
1486.36,0.242057,591232,338611
1489.52,0.246776,587853,333037
1492.68,0.250565,583875,327910
1496.89,0.252269,578062,323374
1500.03,0.253265,574159,320455
1503.18,0.252996,570285,318490
1506.32,0.252097,565444,316441
1509.45,0.250709,560571,314718
1512.58,0.249761,555821,312733
1515.71,0.247136,550344,311529
1519.87,0.243920,543983,310217
1522.99,0.241345,538764,309068
1526.1,0.239149,533692,307710
1529.21,0.235902,527902,306656
1532.32,0.232391,521886,305622
1535.42,0.229971,515888,303798
1538.51,0.226821,509987,302509
1541.6,0.224054,503936,300830
1545.72,0.219052,494694,298734
1548.8,0.215776,488378,297153
1551.88,0.213922,481832,294424
1554.95,0.210993,474989,292207
1558.02,0.208775,467818,289269
1561.08,0.207886,460730,285470
1564.15,0.207472,454170,281674
1568.22,0.206363,444181,276183
1571.27,0.205794,436947,272041
1574.32,0.204514,429598,268255
1577.36,0.202420,422039,264809
1580.4,0.201106,414375,260788
1583.43,0.199068,406354,256943
1586.46,0.197299,398475,252989
1590.49,0.195080,388982,248227
1593.51,0.193432,380708,243871
1596.53,0.190527,372727,240361
1599.54,0.188096,365060,236738
1602.55,0.186707,357543,232606
1605.55,0.184589,349495,228482
1608.55,0.182330,341154,224192
1612.54,0.179724,330877,218747
1615.53,0.176894,322904,214872
1618.51,0.176290,315116,209981
1621.49,0.175268,307217,205200
1624.47,0.174478,299481,200397
1627.44,0.172935,292112,196162
1630.41,0.171168,284245,191657
1634.36,0.170047,274079,185280
1637.32,0.168348,266916,181145
1640.27,0.168055,259612,176307
1643.22,0.167356,251804,171280
1646.16,0.166224,244348,166642
1649.1,0.165437,236703,161721
1652.04,0.164049,228171,156391
1655.95,0.162042,215408,148327
1658.88,0.160941,204937,141475
1661.8,0.157888,193395,134449
1664.72,0.151592,179728,126772
1667.63,0.142499,163642,117868
1670.54,0.133904,146312,107492
1673.44,0.123679,128451,96618
1677.31,0.114130,105080,80796
1680.21,0.107803,88906,69363
1683.1,0.106451,75033,58722
1685.99,0.112980,63520,48970
1688.87,0.120408,53714,40708
1691.75,0.120293,45653,34608
1694.62,0.124669,39137,29371
1697.49,0.131764,33776,24937
1701.31,0.140276,28175,20398