File: samples/wool/wool-000811/Column 1_050531_20150331_115101.csv
Method:,Column 1,,
Host Date-Time:,31/3/15 @ 11:51:1,,
Header Version:,1,,
System Temp (C):,30.24,,
Detector Temp (C):,31.75,,
Humidity (%):,4.97,,
Lamp PD:,3832,,
Shift Vector Coefficients:,-10.5391,0.0761263,-0.000134223,,
Pixel to Wavelength Coefficients:,1775.68,-0.916766,-0.000235065,,
Serial Number:,5510004,,
Scan Config Name:,Column 1,,
Scan Config Type:,Slew,,
Section 1,,
Start wavelength (nm):,900,,
End wavelength (nm):,1700,,
Pattern Pixel Width (nm):,   7.03,,,,
Exposure (ms):,  0.635,,,,
Digital Resolution:,228,,
Num Repeats:,6,,
PGA Gain:,64,,
Total Measurement Time in sec:,  2.675,,
Wavelength (nm),Absorbance (AU),Reference Signal (unitless),Sample Signal (unitless)
901.51,0.047025,108485,97352
905.376,0.050101,121306,108089
909.237,0.053151,131909,116714
913.095,0.052518,143299,126977
916.948,0.053201,156982,138883
922.079,0.052728,179937,159365
925.923,0.052291,200504,177759
929.762,0.053619,222660,196799
933.597,0.054086,244426,215805
937.427,0.053919,263972,233152
941.254,0.055069,281845,248280
945.076,0.054633,297271,262132
950.165,0.054868,315605,278148
953.978,0.054691,328029,289215
957.786,0.055324,340470,299747
961.59,0.056033,352317,309671
965.389,0.056423,363056,318824
969.185,0.056122,373162,327926
972.976,0.057191,382632,335421
976.763,0.057842,391202,342420
981.806,0.058132,400190,350053
985.583,0.059688,406088,353942
989.355,0.059758,410162,357435
993.124,0.060127,412868,359488
996.888,0.060751,414263,360185
1000.65,0.060952,415476,361072
1004.4,0.062598,415479,359709
1009.41,0.063433,414358,358049
1013.15,0.064900,412923,355606
1016.89,0.064900,411526,354403
1020.63,0.064876,409066,352304
1024.36,0.065296,406777,349994
1028.09,0.064285,404427,348783
1031.82,0.063650,401911,347120
1036.78,0.063111,398410,344524
1040.49,0.062537,396204,343069
1044.2,0.061975,394236,341807
1047.91,0.061905,392042,339960
1051.61,0.060819,389823,338882
1055.31,0.060470,388234,337772
1059,0.059442,387599,338019
1063.92,0.058643,386688,337845
1067.61,0.057274,386598,338833
1071.29,0.056543,387377,340088
1074.96,0.056042,388536,341499
1078.63,0.055777,389855,342867
1082.3,0.054302,391215,345234
1085.96,0.053943,393215,347286
1090.84,0.053244,396270,350548
1094.49,0.052944,398760,352994
1098.14,0.052133,400987,355629
1101.79,0.051939,403477,357997
1105.43,0.052126,406116,360184
1109.06,0.051413,407701,362184
1112.7,0.051501,409859,364027
1117.53,0.051759,412494,366150
1121.15,0.052639,414909,367548
1124.77,0.053278,416559,368467
1128.38,0.054453,418532,369212
1131.99,0.056102,419956,369064
1135.6,0.057905,421946,369277
1139.2,0.060068,423881,369127
1143.99,0.063608,426786,368640
1147.58,0.064410,428617,369538
1151.17,0.065889,431169,370475
1154.75,0.067197,433579,371425
1158.33,0.069299,436264,371921
1161.91,0.071823,439132,372196
1165.48,0.075323,442389,371947
1169.04,0.077854,446101,372889
1173.79,0.082791,451929,373490
1177.34,0.084858,456026,375087
1180.9,0.087328,461306,377278
1184.44,0.089775,467657,380323
1187.99,0.090410,473969,384893
1191.52,0.089896,479856,390135
1195.06,0.089038,487372,397029
1199.76,0.087704,497347,406402
1203.29,0.086224,504311,413499
1206.81,0.085431,511507,420166
1210.33,0.083897,519078,427893
1213.84,0.082655,527163,435803
1217.35,0.082003,534208,442290
1220.85,0.080742,540472,448778
1225.51,0.079342,549929,458105
1229.01,0.078425,556888,464882
1232.5,0.077678,562180,470108
1235.98,0.077097,567975,475589
1239.46,0.075665,574815,482907
1242.94,0.074069,582782,491402
1246.41,0.073608,591476,499263
1251.03,0.073426,604016,510061
1254.5,0.073626,612289,516809
1257.96,0.073670,619125,522527
1261.41,0.074284,624551,526361
1264.86,0.075043,629900,529942
1268.31,0.075444,634345,533190
1271.75,0.076096,638574,535939
1276.33,0.076442,642499,538803
1279.76,0.076504,645905,541582
1283.19,0.075914,648307,544336
1286.61,0.075729,650446,546364
1290.03,0.075415,652132,548177
1293.44,0.074763,653907,550494
1296.85,0.074619,655963,552408
1301.39,0.074006,657349,554358
1304.8,0.074767,657558,553563
1308.19,0.074952,658515,554133
1311.58,0.074827,658804,554535
1314.97,0.075934,659011,553297
1318.36,0.076180,658272,552364
1321.73,0.076894,658022,551247
1326.23,0.077667,657870,550140
1329.6,0.078880,656482,547448
1332.97,0.080273,654926,544402
1336.33,0.081637,653727,541701
1339.69,0.083647,652497,538185
1343.04,0.085610,649913,533636
1346.39,0.088174,647671,528665
1349.73,0.090710,645338,523694
1354.18,0.094238,641175,516106
1357.52,0.096856,638376,510764
1360.85,0.098995,635805,506208
1364.17,0.101775,633413,501086
1367.49,0.104390,631026,496201
1370.81,0.106818,628050,491107
1374.12,0.109619,625034,485607
1378.54,0.113556,620272,477558
1381.84,0.117358,616892,470816
1385.14,0.122654,613613,462637
1388.43,0.128357,611526,455049
1391.72,0.134675,610663,447844
1395.01,0.140245,610634,442116
1398.29,0.147034,611700,436018
1402.66,0.156033,614051,428718
1405.93,0.163580,616268,422853
1409.2,0.170952,617795,416766
1412.46,0.176814,618872,411895
1415.72,0.183006,619795,406670
1418.98,0.187701,620495,402752
1422.23,0.192558,621087,398652
1426.56,0.197897,621375,393964
1429.8,0.200916,621616,391387
1433.04,0.204654,622129,388353
1436.27,0.206878,621526,385995
1439.5,0.209087,621113,383781
1442.72,0.212813,620921,380385
1445.94,0.214933,620270,378136
1450.23,0.219003,618860,373757
1453.44,0.221239,617697,371139
1456.64,0.224483,616264,367522
1459.85,0.226501,614413,364720
1463.04,0.229383,612307,361066
1466.24,0.232497,610032,357154
1469.43,0.235205,607345,353371
1473.67,0.239609,603789,347757
1476.85,0.243968,601175,342794
1480.02,0.248981,597737,336922
1483.19,0.254778,594479,330642
1486.36,0.260597,591232,324460
1489.52,0.264723,587853,319555
1492.68,0.269029,583875,314261
1496.89,0.271105,578062,309649
1500.03,0.271806,574159,307062
1503.18,0.272664,570285,304388
1506.32,0.271422,565444,302669
1509.45,0.270773,560571,300509
1512.58,0.269544,555821,298807
1515.71,0.267042,550344,297572
1519.87,0.264226,543983,296046
1522.99,0.261159,538764,295284
1526.1,0.258968,533692,293983
1529.21,0.256257,527902,292615
1532.32,0.253372,521886,291208
1535.42,0.249347,515888,290542
1538.51,0.246173,509987,289325
1541.6,0.242666,503936,288210
1545.72,0.238860,494694,285415
1548.8,0.234894,488378,284356
1551.88,0.232129,481832,282336
1554.95,0.229237,474989,280186
1558.02,0.227151,467818,277285
1561.08,0.226305,460730,273616
1564.15,0.225305,454170,270342
1568.22,0.223949,444181,265223
1571.27,0.223461,436947,261197
1574.32,0.222096,429598,257612
1577.36,0.221032,422039,253700
1580.4,0.219052,414375,250231
1583.43,0.216670,406354,246737
1586.46,0.213920,398475,243490
1590.49,0.211790,388982,238858
1593.51,0.209961,380708,234764
1596.53,0.207380,372727,231212
1599.54,0.204809,365060,227801
1602.55,0.202025,357543,224545
1605.55,0.200545,349495,220240
1608.55,0.197641,341154,216426
1612.54,0.195166,330877,211106
1615.53,0.191583,322904,207726
1618.51,0.191349,315116,202825
1621.49,0.189991,307217,198360
1624.47,0.187463,299481,194494
1627.44,0.186300,292112,190217
1630.41,0.185363,284245,185494
1634.36,0.183359,274079,179687
1637.32,0.181615,266916,175695
1640.27,0.181776,259612,170824
1643.22,0.179774,251804,166452
1646.16,0.179167,244348,161749
1649.1,0.178398,236703,156966
1652.04,0.176726,228171,151892
1655.95,0.176086,215408,143607
1658.88,0.175128,204937,136928
1661.8,0.174293,193395,129465
1664.72,0.171522,179728,121086
1667.63,0.167521,163642,111269
1670.54,0.161975,146312,100764
1673.44,0.156352,128451,89616
1677.31,0.156452,105080,73294
1680.21,0.154541,88906,62286
1683.1,0.156311,75033,52353
1685.99,0.165591,63520,43383
1688.87,0.162226,53714,36971
1691.75,0.179865,45653,30172
1694.62,0.174154,39137,26208
1697.49,0.177102,33776,22465
1701.31,0.181029,28175,18571