File: samples/wool/wool-000811/Column 1_050539_20150331_115444.csv
Method:,Column 1,,
Host Date-Time:,31/3/15 @ 11:54:44,,
Header Version:,1,,
System Temp (C):,32.11,,
Detector Temp (C):,30.35,,
Humidity (%):,3.22,,
Lamp PD:,3825,,
Shift Vector Coefficients:,-10.5391,0.0761263,-0.000134223,,
Pixel to Wavelength Coefficients:,1775.68,-0.916766,-0.000235065,,
Serial Number:,5510004,,
Scan Config Name:,Column 1,,
Scan Config Type:,Slew,,
Section 1,,
Start wavelength (nm):,900,,
End wavelength (nm):,1700,,
Pattern Pixel Width (nm):,   7.03,,,,
Exposure (ms):,  0.635,,,,
Digital Resolution:,228,,
Num Repeats:,6,,
PGA Gain:,64,,
Total Measurement Time in sec:,  2.730,,
Wavelength (nm),Absorbance (AU),Reference Signal (unitless),Sample Signal (unitless)
901.51,0.042525,108485,98366
905.376,0.050020,121306,108109
909.237,0.052219,131909,116965
913.095,0.051261,143299,127345
916.948,0.051288,156982,139496
922.079,0.052360,179937,159500
925.923,0.052018,200504,177871
929.762,0.052603,222660,197260
933.597,0.053987,244426,215854
937.427,0.052531,263972,233898
941.254,0.053448,281845,249208
945.076,0.052880,297271,263192
950.165,0.053603,315605,278959
953.978,0.053339,328029,290117
957.786,0.052855,340470,301456
961.59,0.054852,352317,310514
965.389,0.053753,363056,320790
969.185,0.054604,373162,329074
972.976,0.055405,382632,336803
976.763,0.055709,391202,344106
981.806,0.056593,400190,351296
985.583,0.057785,406088,355496
989.355,0.058009,410162,358878
993.124,0.058518,412868,360822
996.888,0.058709,414263,361882
1000.65,0.059442,415476,362330
1004.4,0.060888,415479,361128
1009.41,0.062658,414358,358689
1013.15,0.062343,412923,357706
1016.89,0.063301,411526,355710
1020.63,0.062758,409066,354026
1024.36,0.063117,406777,351754
1028.09,0.062750,404427,350018
1031.82,0.062398,401911,348122
1036.78,0.061501,398410,345803
1040.49,0.061441,396204,343936
1044.2,0.060798,394236,342735
1047.91,0.060632,392042,340958
1051.61,0.059755,389823,339713
1055.31,0.058785,388234,339085
1059,0.058412,387599,338821
1063.92,0.057147,386688,339011
1067.61,0.056197,386598,339674
1071.29,0.055252,387377,341100
1074.96,0.054929,388536,342375
1078.63,0.054160,389855,344146
1082.3,0.053083,391215,346204
1085.96,0.052684,393215,348294
1090.84,0.051335,396270,352092
1094.49,0.051492,398760,354176
1098.14,0.051371,400987,356254
1101.79,0.050757,403477,358973
1105.43,0.050305,406116,361697
1109.06,0.050113,407701,363269
1112.7,0.049942,409859,365336
1117.53,0.050019,412494,367620
1121.15,0.051007,414909,368932
1124.77,0.051254,416559,370188
1128.38,0.052645,418532,370752
1131.99,0.054573,419956,370366
1135.6,0.056836,421946,370187
1139.2,0.058565,423881,370407
1143.99,0.061331,426786,370578
1147.58,0.062977,428617,370760
1151.17,0.064173,431169,371941
1154.75,0.065757,433579,372659
1158.33,0.067683,436264,373307
1161.91,0.070131,439132,373649
1165.48,0.072897,442389,374031
1169.04,0.075972,446101,374508
1173.79,0.080564,451929,375410
1177.34,0.082965,456026,376725
1180.9,0.085361,461306,378990
1184.44,0.087594,467657,382238
1187.99,0.088284,473969,386782
1191.52,0.087638,479856,392169
1195.06,0.086617,487372,399249
1199.76,0.085851,497347,408139
1203.29,0.084175,504311,415454
1206.81,0.083624,511507,421918
1210.33,0.081807,519078,429958
1213.84,0.080786,527163,437682
1217.35,0.079757,534208,444584
1220.85,0.078775,540472,450815
1225.51,0.077688,549929,459853
1229.01,0.076427,556888,467026
1232.5,0.076066,562180,471856
1235.98,0.074787,567975,478126
1239.46,0.073794,574815,484991
1242.94,0.072464,582782,493222
1246.41,0.071837,591476,501303
1251.03,0.071461,604016,512375
1254.5,0.071395,612289,519471
1257.96,0.071616,619125,525004
1261.41,0.072276,624551,528800
1264.86,0.073166,629900,532238
1268.31,0.073468,634345,535621
1271.75,0.074292,638574,538170
1276.33,0.074769,642499,540883
1279.76,0.074634,645905,543919
1283.19,0.074043,648307,546686
1286.61,0.073513,650446,549159
1290.03,0.072921,652132,551334
1293.44,0.072456,653907,553426
1296.85,0.072429,655963,555201
1301.39,0.072233,657349,556625
1304.8,0.072702,657558,556202
1308.19,0.072704,658515,557008
1311.58,0.072781,658804,557154
1314.97,0.073552,659011,556341
1318.36,0.074362,658272,554681
1321.73,0.074764,658022,553957
1326.23,0.075879,657870,552410
1329.6,0.076786,656482,550094
1332.97,0.078025,654926,547227
1336.33,0.079133,653727,544833
1339.69,0.081224,652497,541196
1343.04,0.082971,649913,536889
1346.39,0.085613,647671,531791
1349.73,0.088028,645338,526938
1354.18,0.091516,641175,519351
1357.52,0.094155,638376,513951
1360.85,0.096271,635805,509393
1364.17,0.099123,633413,504155
1367.49,0.101294,631026,499751
1370.81,0.104342,628050,493915
1374.12,0.107033,625034,488507
1378.54,0.110873,620272,480517
1381.84,0.114969,616892,473413
1385.14,0.120153,613613,465309
1388.43,0.125012,611526,458567
1391.72,0.130584,610663,452082
1395.01,0.136247,610634,446205
1398.29,0.143133,611700,439952
1402.66,0.151777,614051,432940
1405.93,0.158611,616268,427719
1409.2,0.165213,617795,422310
1412.46,0.171078,618872,417372
1415.72,0.177150,619795,412191
1418.98,0.181446,620495,408594
1422.23,0.185521,621087,405165
1426.56,0.190647,621375,400596
1429.8,0.193571,621616,398062
1433.04,0.196653,622129,395574
1436.27,0.198899,621526,393152
1439.5,0.201219,621113,390797
1442.72,0.203990,620921,388192
1445.94,0.206108,620270,385898
1450.23,0.210217,618860,381395
1453.44,0.213016,617697,378233
1456.64,0.216300,616264,374513
1459.85,0.218393,614413,371593
1463.04,0.221758,612307,367461
1466.24,0.224060,610032,364160
1469.43,0.227397,607345,359781
1473.67,0.232782,603789,353267
1476.85,0.237510,601175,347929
1480.02,0.243264,597737,341386
1483.19,0.249099,594479,334994
1486.36,0.255154,591232,328552
1489.52,0.259846,587853,323164
1492.68,0.263927,583875,317975
1496.89,0.266165,578062,313191
1500.03,0.267326,574159,310246
1503.18,0.267881,570285,307759
1506.32,0.266786,565444,305917
1509.45,0.265748,560571,304006
1512.58,0.264537,555821,302272
1515.71,0.262271,550344,300859
1519.87,0.259113,543983,299552
1522.99,0.255754,538764,298982
1526.1,0.253893,533692,297439
1529.21,0.251138,527902,296084
1532.32,0.247668,521886,295058
1535.42,0.244896,515888,293535
1538.51,0.241031,509987,292771
1541.6,0.237641,503936,291564
1545.72,0.232708,494694,289487
1548.8,0.229371,488378,287995
1551.88,0.226469,481832,286040
1554.95,0.224504,474989,283256
1558.02,0.221238,467818,281086
1561.08,0.221022,460730,276965
1564.15,0.220240,454170,273513
1568.22,0.218921,444181,268311
1571.27,0.218333,436947,264299
1574.32,0.217710,429598,260227
1577.36,0.215517,422039,256942
1580.4,0.213469,414375,253469
1583.43,0.211613,406354,249627
1586.46,0.209839,398475,245789
1590.49,0.207358,388982,241308
1593.51,0.205877,380708,236982
1596.53,0.202747,372727,233692
1599.54,0.199936,365060,230371
1602.55,0.198527,357543,226361
1605.55,0.195713,349495,222704
1608.55,0.193280,341154,218610
1612.54,0.190021,330877,213622
1615.53,0.188364,322904,209271
1618.51,0.187522,315116,204620
1621.49,0.185166,307217,200576
1624.47,0.184204,299481,195959
1627.44,0.182479,292112,191898
1630.41,0.180826,284245,187442
1634.36,0.179356,274079,181351
1637.32,0.178951,266916,176776
1640.27,0.179231,259612,171828
1643.22,0.176693,251804,167637
1646.16,0.175589,244348,163087
1649.1,0.174756,236703,158288
1652.04,0.174171,228171,152788
1655.95,0.171612,215408,145094
1658.88,0.170776,204937,138307
1661.8,0.169094,193395,131024
1664.72,0.166263,179728,122561
1667.63,0.163693,163642,112254
1670.54,0.157596,146312,101785
1673.44,0.153897,128451,90124
1677.31,0.148229,105080,74695
1680.21,0.146965,88906,63382
1683.1,0.154969,75033,52515
1685.99,0.160337,63520,43911
1688.87,0.166298,53714,36626
1691.75,0.167660,45653,31032
1694.62,0.168016,39137,26581
1697.49,0.172143,33776,22723
1701.31,0.171819,28175,18969