File: samples/wool/wool-000811/Column 1_050588_20150331_121750.csv
Method:,Column 1,,
Host Date-Time:,31/3/15 @ 12:17:50,,
Header Version:,1,,
System Temp (C):,33.81,,
Detector Temp (C):,34.57,,
Humidity (%):,1.86,,
Lamp PD:,3818,,
Shift Vector Coefficients:,-10.5391,0.0761263,-0.000134223,,
Pixel to Wavelength Coefficients:,1775.68,-0.916766,-0.000235065,,
Serial Number:,5510004,,
Scan Config Name:,Column 1,,
Scan Config Type:,Slew,,
Section 1,,
Start wavelength (nm):,900,,
End wavelength (nm):,1700,,
Pattern Pixel Width (nm):,   7.03,,,,
Exposure (ms):,  0.635,,,,
Digital Resolution:,228,,
Num Repeats:,6,,
PGA Gain:,64,,
Total Measurement Time in sec:,  2.674,,
Wavelength (nm),Absorbance (AU),Reference Signal (unitless),Sample Signal (unitless)
901.51,0.068749,108485,92602
905.376,0.076139,121306,101799
909.237,0.077853,131909,110261
913.095,0.078512,143299,119600
916.948,0.079172,156982,130821
922.079,0.081515,179937,149144
925.923,0.081531,200504,166185
929.762,0.081820,222660,184426
933.597,0.082588,244426,202097
937.427,0.081181,263972,218966
941.254,0.081534,281845,233602
945.076,0.079993,297271,247263
950.165,0.079182,315605,263004
953.978,0.078995,328029,273475
957.786,0.078930,340470,283889
961.59,0.079445,352317,293419
965.389,0.079273,363056,302483
969.185,0.078682,373162,311326
972.976,0.079534,382632,318601
976.763,0.080038,391202,325359
981.806,0.080082,400190,332801
985.583,0.081247,406088,336801
989.355,0.081474,410162,340002
993.124,0.081898,412868,341911
996.888,0.082197,414263,342830
1000.65,0.083380,415476,342899
1004.4,0.083734,415479,342622
1009.41,0.086365,414358,339634
1013.15,0.086123,412923,338646
1016.89,0.086636,411526,337102
1020.63,0.086252,409066,335383
1024.36,0.085990,406777,333708
1028.09,0.086547,404427,331355
1031.82,0.086346,401911,329446
1036.78,0.085879,398410,326927
1040.49,0.085431,396204,325453
1044.2,0.086082,394236,323351
1047.91,0.084993,392042,322359
1051.61,0.084834,389823,320652
1055.31,0.084005,388234,319955
1059,0.083823,387599,319565
1063.92,0.082747,386688,319605
1067.61,0.082509,386598,319706
1071.29,0.082189,387377,320586
1074.96,0.081644,388536,321949
1078.63,0.081287,389855,323308
1082.3,0.080189,391215,325257
1085.96,0.079728,393215,327267
1090.84,0.078602,396270,330666
1094.49,0.078137,398760,333100
1098.14,0.076903,400987,335913
1101.79,0.076804,403477,338076
1105.43,0.076505,406116,340522
1109.06,0.075854,407701,342364
1112.7,0.075911,409859,344131
1117.53,0.075676,412494,346531
1121.15,0.075964,414909,348328
1124.77,0.075903,416559,349763
1128.38,0.077312,418532,350281
1131.99,0.078186,419956,350766
1135.6,0.079361,421946,351476
1139.2,0.081216,423881,351583
1143.99,0.082178,426786,353209
1147.58,0.083746,428617,353446
1151.17,0.084720,431169,354754
1154.75,0.085299,433579,356262
1158.33,0.087078,436264,357003
1161.91,0.089028,439132,357740
1165.48,0.091216,442389,358582
1169.04,0.093420,446101,359760
1173.79,0.096658,451929,361753
1177.34,0.098815,456026,363224
1180.9,0.100858,461306,365705
1184.44,0.102736,467657,369140
1187.99,0.103657,473969,373330
1191.52,0.103696,479856,377933
1195.06,0.103247,487372,384250
1199.76,0.102471,497347,392815
1203.29,0.102175,504311,398587
1206.81,0.101599,511507,404811
1210.33,0.100993,519078,411377
1213.84,0.100646,527163,418118
1217.35,0.099771,534208,424560
1220.85,0.099274,540472,430030
1225.51,0.098388,549929,438449
1229.01,0.098084,556888,444308
1232.5,0.097446,562180,449189
1235.98,0.096490,567975,454820
1239.46,0.095462,574815,461388
1242.94,0.094853,582782,468439
1246.41,0.094010,591476,476351
1251.03,0.094205,604016,486232
1254.5,0.094380,612289,492693
1257.96,0.094369,619125,498207
1261.41,0.095197,624551,501616
1264.86,0.095337,629900,505748
1268.31,0.096050,634345,508482
1271.75,0.096674,638574,511137
1276.33,0.097052,642499,513831
1279.76,0.096771,645905,516889
1283.19,0.096539,648307,519089
1286.61,0.095750,650446,521748
1290.03,0.095762,652132,523087
1293.44,0.095422,653907,524921
1296.85,0.095258,655963,526770
1301.39,0.095237,657349,527909
1304.8,0.094748,657558,528672
1308.19,0.095019,658515,529111
1311.58,0.095291,658804,529012
1314.97,0.095940,659011,528388
1318.36,0.096385,658272,527254
1321.73,0.096585,658022,526812
1326.23,0.097505,657870,525575
1329.6,0.098441,656482,523337
1332.97,0.099595,654926,520712
1336.33,0.100417,653727,518776
1339.69,0.102343,652497,515508
1343.04,0.104094,649913,511401
1346.39,0.105638,647671,507828
1349.73,0.107322,645338,504040
1354.18,0.110421,641175,497228
1357.52,0.112516,638376,492675
1360.85,0.114473,635805,488485
1364.17,0.116576,633413,484296
1367.49,0.118755,631026,480056
1370.81,0.120587,628050,475781
1374.12,0.123412,625034,470426
1378.54,0.126330,620272,463716
1381.84,0.129365,616892,457977
1385.14,0.133173,613613,451566
1388.43,0.136468,611526,446629
1391.72,0.140988,610663,441381
1395.01,0.145587,610634,436711
1398.29,0.150968,611700,432086
1402.66,0.157303,614051,427466
1405.93,0.163977,616268,422467
1409.2,0.168132,617795,419481
1412.46,0.172757,618872,415761
1415.72,0.177679,619795,411689
1418.98,0.181193,620495,408832
1422.23,0.185179,621087,405484
1426.56,0.188862,621375,402246
1429.8,0.191784,621616,399704
1433.04,0.194016,622129,397983
1436.27,0.196603,621526,395236
1439.5,0.198133,621113,393584
1442.72,0.200722,620921,391124
1445.94,0.203684,620270,388058
1450.23,0.206365,618860,384793
1453.44,0.209267,617697,381512
1456.64,0.211746,616264,378461
1459.85,0.214528,614413,374915
1463.04,0.216663,612307,371797
1466.24,0.220410,610032,367234
1469.43,0.223302,607345,363190
1473.67,0.229484,603789,355960
1476.85,0.234457,601175,350384
1480.02,0.239405,597737,344433
1483.19,0.244999,594479,338172
1486.36,0.251294,591232,331485
1489.52,0.255016,587853,326778
1492.68,0.257882,583875,322432
1496.89,0.260065,578062,317621
1500.03,0.260553,574159,315122
1503.18,0.260132,570285,313300
1506.32,0.260034,565444,310710
1509.45,0.258766,560571,308933
1512.58,0.257324,555821,307334
1515.71,0.254788,550344,306088
1519.87,0.252339,543983,304261
1522.99,0.249218,538764,303515
1526.1,0.246496,533692,302548
1529.21,0.243915,527902,301050
1532.32,0.241393,521886,299352
1535.42,0.238619,515888,297808
1538.51,0.235329,509987,296640
1541.6,0.233342,503936,294465
1545.72,0.229153,494694,291866
1548.8,0.225585,488378,290517
1551.88,0.223565,481832,287959
1554.95,0.221790,474989,285032
1558.02,0.220245,467818,281729
1561.08,0.218940,460730,278296
1564.15,0.218372,454170,274692
1568.22,0.217299,444181,269315
1571.27,0.216042,436947,265697
1574.32,0.215322,429598,261662
1577.36,0.213915,422039,257892
1580.4,0.212770,414375,253877
1583.43,0.211001,406354,249979
1586.46,0.210688,398475,245309
1590.49,0.208040,388982,240929
1593.51,0.205972,380708,236930
1596.53,0.204494,372727,232754
1599.54,0.201873,365060,229346
1602.55,0.200396,357543,225389
1605.55,0.199241,349495,220902
1608.55,0.196315,341154,217088
1612.54,0.193940,330877,211703
1615.53,0.191959,322904,207546
1618.51,0.191923,315116,202557
1621.49,0.189864,307217,198418
1624.47,0.189558,299481,193558
1627.44,0.188484,292112,189263
1630.41,0.187170,284245,184724
1634.36,0.186474,274079,178403
1637.32,0.185526,266916,174120
1640.27,0.184507,259612,169753
1643.22,0.184040,251804,164825
1646.16,0.182374,244348,160559
1649.1,0.181714,236703,155772
1652.04,0.180597,228171,150544
1655.95,0.177392,215408,143176
1658.88,0.173289,204937,137509
1661.8,0.168088,193395,131328
1664.72,0.159813,179728,124395
1667.63,0.149238,163642,116053
1670.54,0.134725,146312,107289
1673.44,0.119951,128451,97451
1677.31,0.098209,105080,83813
1680.21,0.088935,88906,72443
1683.1,0.084320,75033,61792
1685.99,0.084351,63520,52307
1688.87,0.083949,53714,44273
1691.75,0.093456,45653,36814
1694.62,0.092461,39137,31632
1697.49,0.100214,33776,26816
1701.31,0.105354,28175,22106