File: samples/wool/wool-000811/Column 1_050618_20150331_123217.csv
Method:,Column 1,,
Host Date-Time:,31/3/15 @ 12:32:17,,
Header Version:,1,,
System Temp (C):,34.11,,
Detector Temp (C):,35.01,,
Humidity (%):,1.66,,
Lamp PD:,3818,,
Shift Vector Coefficients:,-10.5391,0.0761263,-0.000134223,,
Pixel to Wavelength Coefficients:,1775.68,-0.916766,-0.000235065,,
Serial Number:,5510004,,
Scan Config Name:,Column 1,,
Scan Config Type:,Slew,,
Section 1,,
Start wavelength (nm):,900,,
End wavelength (nm):,1700,,
Pattern Pixel Width (nm):,   7.03,,,,
Exposure (ms):,  0.635,,,,
Digital Resolution:,228,,
Num Repeats:,6,,
PGA Gain:,64,,
Total Measurement Time in sec:,  2.667,,
Wavelength (nm),Absorbance (AU),Reference Signal (unitless),Sample Signal (unitless)
901.51,0.069172,108485,92512
905.376,0.075550,121306,101937
909.237,0.076394,131909,110632
913.095,0.077743,143299,119812
916.948,0.079495,156982,130724
922.079,0.079131,179937,149965
925.923,0.082672,200504,165749
929.762,0.082796,222660,184012
933.597,0.081504,244426,202602
937.427,0.080458,263972,219331
941.254,0.079797,281845,234538
945.076,0.079537,297271,247523
950.165,0.078334,315605,263518
953.978,0.076995,328029,274737
957.786,0.077056,340470,285117
961.59,0.077431,352317,294783
965.389,0.077329,363056,303840
969.185,0.077630,373162,312081
972.976,0.078355,382632,319467
976.763,0.078708,391202,326357
981.806,0.078723,400190,333844
985.583,0.079372,406088,338258
989.355,0.079579,410162,341489
993.124,0.080225,412868,343231
996.888,0.080657,414263,344048
1000.65,0.081480,415476,344402
1004.4,0.082894,415479,343285
1009.41,0.084343,414358,341219
1013.15,0.084428,412923,339970
1016.89,0.084958,411526,338407
1020.63,0.085028,409066,336330
1024.36,0.084629,406777,334755
1028.09,0.084658,404427,332799
1031.82,0.084168,401911,331102
1036.78,0.083606,398410,328643
1040.49,0.083508,396204,326897
1044.2,0.083628,394236,325183
1047.91,0.084075,392042,323041
1051.61,0.083148,389823,321899
1055.31,0.082507,388234,321060
1059,0.082541,387599,320510
1063.92,0.081764,386688,320329
1067.61,0.080625,386598,321096
1071.29,0.080327,387377,321964
1074.96,0.079215,388536,323755
1078.63,0.079346,389855,324756
1082.3,0.078371,391215,326621
1085.96,0.077363,393215,329054
1090.84,0.076713,396270,332107
1094.49,0.075930,398760,334797
1098.14,0.075446,400987,337042
1101.79,0.074685,403477,339730
1105.43,0.074987,406116,341714
1109.06,0.074007,407701,343823
1112.7,0.073410,409859,346118
1117.53,0.073212,412494,348502
1121.15,0.073402,414909,350389
1124.77,0.074351,416559,351015
1128.38,0.074742,418532,352360
1131.99,0.075430,419956,352999
1135.6,0.076930,421946,353449
1139.2,0.077895,423881,354282
1143.99,0.080811,426786,354323
1147.58,0.081040,428617,355655
1151.17,0.082010,431169,356975
1154.75,0.082494,433579,358570
1158.33,0.084333,436264,359266
1161.91,0.086073,439132,360182
1165.48,0.088709,442389,360658
1169.04,0.090126,446101,362499
1173.79,0.093964,451929,364004
1177.34,0.095830,456026,365729
1180.9,0.097976,461306,368140
1184.44,0.099117,467657,372229
1187.99,0.101075,473969,375556
1191.52,0.100870,479856,380400
1195.06,0.100580,487372,386617
1199.76,0.100708,497347,394413
1203.29,0.099276,504311,401257
1206.81,0.098787,511507,407441
1210.33,0.098347,519078,413891
1213.84,0.097485,527163,421172
1217.35,0.097139,534208,427141
1220.85,0.096689,540472,432598
1225.51,0.095658,549929,441213
1229.01,0.095603,556888,446853
1232.5,0.094249,562180,452508
1235.98,0.093376,567975,458093
1239.46,0.092970,574815,464043
1242.94,0.092085,582782,471434
1246.41,0.091663,591476,478932
1251.03,0.091632,604016,489121
1254.5,0.091844,612289,495579
1257.96,0.091959,619125,500979
1261.41,0.092271,624551,505006
1264.86,0.092982,629900,508499
1268.31,0.093403,634345,511591
1271.75,0.094426,638574,513789
1276.33,0.094207,642499,517208
1279.76,0.094289,645905,519852
1283.19,0.093804,648307,522368
1286.61,0.093252,650446,524758
1290.03,0.092832,652132,526628
1293.44,0.092552,653907,528401
1296.85,0.092291,655963,530382
1301.39,0.092184,657349,531633
1304.8,0.091543,657558,532588
1308.19,0.092277,658515,532462
1311.58,0.092073,658804,532946
1314.97,0.092915,659011,532081
1318.36,0.092772,658272,531659
1321.73,0.093323,658022,530784
1326.23,0.093772,657870,530113
1329.6,0.094563,656482,528032
1332.97,0.095572,654926,525558
1336.33,0.096530,653727,523439
1339.69,0.097519,652497,521266
1343.04,0.099049,649913,517376
1346.39,0.101189,647671,513057
1349.73,0.103074,645338,508995
1354.18,0.106014,641175,502299
1357.52,0.107897,638376,497943
1360.85,0.110062,635805,493471
1364.17,0.111851,633413,489594
1367.49,0.114039,631026,485298
1370.81,0.116845,628050,479898
1374.12,0.118403,625034,475884
1378.54,0.121129,620272,469303
1381.84,0.123865,616892,463814
1385.14,0.127188,613613,457832
1388.43,0.130463,611526,452847
1391.72,0.134460,610663,448066
1395.01,0.138125,610634,444279
1398.29,0.142454,611700,440641
1402.66,0.148368,614051,436351
1405.93,0.153532,616268,432751
1409.2,0.157511,617795,429866
1412.46,0.162179,618872,426012
1415.72,0.166051,619795,422860
1418.98,0.169063,620495,420412
1422.23,0.172537,621087,417461
1426.56,0.176405,621375,413951
1429.8,0.179029,621616,411617
1433.04,0.180979,622129,410111
1436.27,0.183269,621526,407559
1439.5,0.185819,621113,404904
1442.72,0.188137,620921,402624
1445.94,0.190557,620270,399967
1450.23,0.194212,618860,395713
1453.44,0.197054,617697,392393
1456.64,0.199563,616264,389228
1459.85,0.202497,614413,385446
1463.04,0.205354,612307,381606
1466.24,0.208993,610032,377016
1469.43,0.212387,607345,372433
1473.67,0.219399,603789,364323
1476.85,0.224615,601175,358415
1480.02,0.231291,597737,350929
1483.19,0.238130,594479,343563
1486.36,0.243704,591232,337329
1489.52,0.248632,587853,331617
1492.68,0.252909,583875,326145
1496.89,0.253585,578062,322396
1500.03,0.255266,574159,318982
1503.18,0.255222,570285,316862
1506.32,0.254458,565444,314725
1509.45,0.252316,560571,313556
1512.58,0.251151,555821,311734
1515.71,0.248370,550344,310645
1519.87,0.245367,543983,309185
1522.99,0.242924,538764,307946
1526.1,0.240237,533692,306940
1529.21,0.237583,527902,305471
1532.32,0.234692,521886,304007
1535.42,0.231863,515888,302477
1538.51,0.228319,509987,301467
1541.6,0.226142,503936,299387
1545.72,0.221497,494694,297057
1548.8,0.219089,488378,294895
1551.88,0.216507,481832,292677
1554.95,0.214975,474989,289540
1558.02,0.213968,467818,285831
1561.08,0.211531,460730,283084
1564.15,0.211874,454170,278833
1568.22,0.210916,444181,273303
1571.27,0.210462,436947,269133
1574.32,0.208947,429598,265531
1577.36,0.208250,422039,261278
1580.4,0.206527,414375,257553
1583.43,0.205600,406354,253107
1586.46,0.203174,398475,249590
1590.49,0.201928,388982,244344
1593.51,0.199808,380708,240317
1596.53,0.198218,372727,236142
1599.54,0.196566,365060,232166
1602.55,0.194760,357543,228333
1605.55,0.192447,349495,224385
1608.55,0.190380,341154,220075
1612.54,0.189131,330877,214060
1615.53,0.186951,322904,209953
1618.51,0.186645,315116,205034
1621.49,0.185134,307217,200591
1624.47,0.184087,299481,196012
1627.44,0.183805,292112,191313
1630.41,0.181858,284245,186997
1634.36,0.180677,274079,180800
1637.32,0.180120,266916,176301
1640.27,0.179934,259612,171550
1643.22,0.179422,251804,166587
1646.16,0.178555,244348,161977
1649.1,0.177091,236703,157439
1652.04,0.175649,228171,152269
1655.95,0.173433,215408,144487
1658.88,0.169150,204937,138826
1661.8,0.162793,193395,132939
1664.72,0.154970,179728,125790
1667.63,0.143850,163642,117502
1670.54,0.128216,146312,108909
1673.44,0.112712,128451,99089
1677.31,0.091361,105080,85145
1680.21,0.079881,88906,73969
1683.1,0.074563,75033,63196
1685.99,0.077219,63520,53173
1688.87,0.073961,53714,45303
1691.75,0.083047,45653,37707
1694.62,0.078292,39137,32681
1697.49,0.092175,33776,27317
1701.31,0.094738,28175,22653