File: samples/wool/wool-000811/Column 1_050588_20150331_121807.csv
Method:,Column 1,,
Host Date-Time:,31/3/15 @ 12:18:7,,
Header Version:,1,,
System Temp (C):,33.82,,
Detector Temp (C):,34.57,,
Humidity (%):,1.86,,
Lamp PD:,3819,,
Shift Vector Coefficients:,-10.5391,0.0761263,-0.000134223,,
Pixel to Wavelength Coefficients:,1775.68,-0.916766,-0.000235065,,
Serial Number:,5510004,,
Scan Config Name:,Column 1,,
Scan Config Type:,Slew,,
Section 1,,
Start wavelength (nm):,900,,
End wavelength (nm):,1700,,
Pattern Pixel Width (nm):,   7.03,,,,
Exposure (ms):,  0.635,,,,
Digital Resolution:,228,,
Num Repeats:,6,,
PGA Gain:,64,,
Total Measurement Time in sec:,  2.666,,
Wavelength (nm),Absorbance (AU),Reference Signal (unitless),Sample Signal (unitless)
901.51,0.071153,108485,92091
905.376,0.076147,121306,101797
909.237,0.077573,131909,110332
913.095,0.078581,143299,119581
916.948,0.079790,156982,130635
922.079,0.080523,179937,149485
925.923,0.081455,200504,166214
929.762,0.083264,222660,183814
933.597,0.083181,244426,201821
937.427,0.082015,263972,218546
941.254,0.081638,281845,233546
945.076,0.080292,297271,247093
950.165,0.079623,315605,262737
953.978,0.078896,328029,273537
957.786,0.078678,340470,284054
961.59,0.078814,352317,293846
965.389,0.079705,363056,302182
969.185,0.079451,373162,310775
972.976,0.079769,382632,318429
976.763,0.080141,391202,325282
981.806,0.080280,400190,332649
985.583,0.081046,406088,336957
989.355,0.081636,410162,339875
993.124,0.081798,412868,341990
996.888,0.082297,414263,342751
1000.65,0.083401,415476,342882
1004.4,0.084538,415479,341988
1009.41,0.085741,414358,340122
1013.15,0.085445,412923,339175
1016.89,0.086880,411526,336913
1020.63,0.086401,409066,335268
1024.36,0.085893,406777,333782
1028.09,0.086240,404427,331589
1031.82,0.086242,401911,329525
1036.78,0.085569,398410,327161
1040.49,0.085098,396204,325702
1044.2,0.085789,394236,323569
1047.91,0.084924,392042,322410
1051.61,0.084200,389823,321120
1055.31,0.084120,388234,319870
1059,0.084078,387599,319378
1063.92,0.083577,386688,318995
1067.61,0.082593,386598,319644
1071.29,0.081326,387377,321224
1074.96,0.082121,388536,321596
1078.63,0.080997,389855,323524
1082.3,0.080828,391215,324779
1085.96,0.079463,393215,327467
1090.84,0.079068,396270,330311
1094.49,0.078094,398760,333133
1098.14,0.077961,400987,335096
1101.79,0.077153,403477,337805
1105.43,0.076916,406116,340200
1109.06,0.075922,407701,342310
1112.7,0.075960,409859,344092
1117.53,0.075593,412494,346597
1121.15,0.075669,414909,348565
1124.77,0.076306,416559,349438
1128.38,0.076963,418532,350563
1131.99,0.078022,419956,350899
1135.6,0.079424,421946,351425
1139.2,0.081027,423881,351736
1143.99,0.082739,426786,352753
1147.58,0.083800,428617,353402
1151.17,0.084697,431169,354773
1154.75,0.086323,433579,355423
1158.33,0.087411,436264,356729
1161.91,0.089031,439132,357737
1165.48,0.091012,442389,358750
1169.04,0.093379,446101,359794
1173.79,0.096389,451929,361977
1177.34,0.098839,456026,363204
1180.9,0.100957,461306,365622
1184.44,0.102342,467657,369475
1187.99,0.103029,473969,373870
1191.52,0.103027,479856,378516
1195.06,0.103143,487372,384342
1199.76,0.103249,497347,392112
1203.29,0.101819,504311,398914
1206.81,0.101393,511507,405003
1210.33,0.101055,519078,411318
1213.84,0.100207,527163,418541
1217.35,0.099934,534208,424401
1220.85,0.099093,540472,430210
1225.51,0.098568,549929,438267
1229.01,0.097964,556888,444431
1232.5,0.096946,562180,449707
1235.98,0.097252,567975,454022
1239.46,0.095840,574815,460986
1242.94,0.095113,582782,468159
1246.41,0.094568,591476,475739
1251.03,0.094032,604016,486426
1254.5,0.094511,612289,492545
1257.96,0.094839,619125,497667
1261.41,0.095365,624551,501421
1264.86,0.096022,629900,504952
1268.31,0.096250,634345,508248
1271.75,0.096792,638574,510998
1276.33,0.096954,642499,513947
1279.76,0.097131,645905,516461
1283.19,0.096732,648307,518858
1286.61,0.096024,650446,521419
1290.03,0.095381,652132,523545
1293.44,0.095439,653907,524900
1296.85,0.095490,655963,526489
1301.39,0.094510,657349,528793
1304.8,0.095175,657558,528152
1308.19,0.094756,658515,529431
1311.58,0.095662,658804,528560
1314.97,0.095609,659011,528791
1318.36,0.096085,658272,527619
1321.73,0.096614,658022,526777
1326.23,0.097875,657870,525128
1329.6,0.098524,656482,523237
1332.97,0.099529,654926,520791
1336.33,0.100612,653727,518543
1339.69,0.101928,652497,516001
1343.04,0.103539,649913,512054
1346.39,0.106000,647671,507405
1349.73,0.107610,645338,503706
1354.18,0.110363,641175,497294
1357.52,0.112539,638376,492649
1360.85,0.114603,635805,488338
1364.17,0.116606,633413,484263
1367.49,0.118872,631026,479927
1370.81,0.120776,628050,475574
1374.12,0.123374,625034,470468
1378.54,0.126313,620272,463734
1381.84,0.129273,616892,458074
1385.14,0.133276,613613,451459
1388.43,0.137138,611526,445940
1391.72,0.141059,610663,441309
1395.01,0.145918,610634,436378
1398.29,0.150473,611700,432579
1402.66,0.157799,614051,426978
1405.93,0.162913,616268,423503
1409.2,0.167975,617795,419633
1412.46,0.172754,618872,415764
1415.72,0.177219,619795,412125
1418.98,0.181355,620495,408680
1422.23,0.185277,621087,405392
1426.56,0.189005,621375,402114
1429.8,0.191341,621616,400112
1433.04,0.193813,622129,398169
1436.27,0.195919,621526,395859
1439.5,0.198703,621113,393068
1442.72,0.201261,620921,390639
1445.94,0.203399,620270,388313
1450.23,0.205959,618860,385153
1453.44,0.208714,617697,381998
1456.64,0.211824,616264,378393
1459.85,0.214108,614413,375277
1463.04,0.216850,612307,371637
1466.24,0.219883,610032,367680
1469.43,0.223403,607345,363105
1473.67,0.228626,603789,356664
1476.85,0.234573,601175,350290
1480.02,0.239685,597737,344211
1483.19,0.245261,594479,337968
1486.36,0.250619,591232,332001
1489.52,0.255441,587853,326458
1492.68,0.258375,583875,322066
1496.89,0.260674,578062,317176
1500.03,0.261046,574159,314765
1503.18,0.260979,570285,312689
1506.32,0.259913,565444,310797
1509.45,0.259250,560571,308589
1512.58,0.257323,555821,307335
1515.71,0.255025,550344,305921
1519.87,0.251483,543983,304861
1522.99,0.249651,538764,303213
1526.1,0.246952,533692,302231
1529.21,0.244382,527902,300726
1532.32,0.241270,521886,299437
1535.42,0.238348,515888,297994
1538.51,0.235660,509987,296414
1541.6,0.233039,503936,294670
1545.72,0.228747,494694,292139
1548.8,0.226307,488378,290034
1551.88,0.223968,481832,287692
1554.95,0.221106,474989,285481
1558.02,0.220281,467818,281706
1561.08,0.219099,460730,278194
1564.15,0.218436,454170,274652
1568.22,0.216626,444181,269733
1571.27,0.216600,436947,265356
1574.32,0.215728,429598,261417
1577.36,0.214140,422039,257758
1580.4,0.216695,414375,251593
1583.43,0.210747,406354,250125
1586.46,0.209724,398475,245854
1590.49,0.207889,388982,241013
1593.51,0.206460,380708,236664
1596.53,0.204468,372727,232768
1599.54,0.202536,365060,228996
1602.55,0.200376,357543,225399
1605.55,0.198387,349495,221337
1608.55,0.196199,341154,217146
1612.54,0.194969,330877,211202
1615.53,0.192740,322904,207173
1618.51,0.191398,315116,202802
1621.49,0.191131,307217,197840
1624.47,0.189471,299481,193597
1627.44,0.188573,292112,189224
1630.41,0.187104,284245,184752
1634.36,0.186352,274079,178453
1637.32,0.184885,266916,174377
1640.27,0.184170,259612,169885
1643.22,0.182837,251804,165282
1646.16,0.184114,244348,159917
1649.1,0.181823,236703,155733
1652.04,0.180900,228171,150439
1655.95,0.178117,215408,142937
1658.88,0.173649,204937,137395
1661.8,0.168465,193395,131214
1664.72,0.160284,179728,124260
1667.63,0.149164,163642,116073
1670.54,0.135158,146312,107182
1673.44,0.119412,128451,97572
1677.31,0.101183,105080,83241
1680.21,0.087188,88906,72735
1683.1,0.085742,75033,61590
1685.99,0.083621,63520,52395
1688.87,0.088039,53714,43858
1691.75,0.093527,45653,36808
1694.62,0.094318,39137,31497
1697.49,0.103972,33776,26585
1701.31,0.115370,28175,21602