File: samples/wool/wool-000811/Column 1_050590_20150331_121902.csv
Method:,Column 1,,
Host Date-Time:,31/3/15 @ 12:19:2,,
Header Version:,1,,
System Temp (C):,33.87,,
Detector Temp (C):,34.56,,
Humidity (%):,1.86,,
Lamp PD:,3819,,
Shift Vector Coefficients:,-10.5391,0.0761263,-0.000134223,,
Pixel to Wavelength Coefficients:,1775.68,-0.916766,-0.000235065,,
Serial Number:,5510004,,
Scan Config Name:,Column 1,,
Scan Config Type:,Slew,,
Section 1,,
Start wavelength (nm):,900,,
End wavelength (nm):,1700,,
Pattern Pixel Width (nm):,   7.03,,,,
Exposure (ms):,  0.635,,,,
Digital Resolution:,228,,
Num Repeats:,6,,
PGA Gain:,64,,
Total Measurement Time in sec:,  2.695,,
Wavelength (nm),Absorbance (AU),Reference Signal (unitless),Sample Signal (unitless)
901.51,0.070154,108485,92303
905.376,0.075291,121306,101998
909.237,0.078807,131909,110019
913.095,0.079865,143299,119228
916.948,0.081583,156982,130097
922.079,0.081061,179937,149300
925.923,0.083026,200504,165614
929.762,0.083311,222660,183794
933.597,0.082263,244426,202248
937.427,0.082118,263972,218494
941.254,0.081764,281845,233478
945.076,0.080470,297271,246992
950.165,0.079927,315605,262553
953.978,0.079150,328029,273377
957.786,0.079218,340470,283701
961.59,0.079432,352317,293428
965.389,0.079222,363056,302518
969.185,0.079212,373162,310946
972.976,0.080517,382632,317881
976.763,0.080040,391202,325358
981.806,0.081150,400190,331983
985.583,0.081467,406088,336630
989.355,0.081969,410162,339615
993.124,0.081901,412868,341909
996.888,0.082877,414263,342294
1000.65,0.083647,415476,342688
1004.4,0.085109,415479,341539
1009.41,0.086133,414358,339815
1013.15,0.086255,412923,338543
1016.89,0.087006,411526,336815
1020.63,0.086563,409066,335143
1024.36,0.086650,406777,333201
1028.09,0.086271,404427,331565
1031.82,0.086195,401911,329560
1036.78,0.085897,398410,326914
1040.49,0.085377,396204,325493
1044.2,0.085058,394236,324114
1047.91,0.085053,392042,322314
1051.61,0.084503,389823,320896
1055.31,0.084250,388234,319774
1059,0.084463,387599,319095
1063.92,0.083088,386688,319354
1067.61,0.082537,386598,319685
1071.29,0.082639,387377,320254
1074.96,0.081744,388536,321875
1078.63,0.081639,389855,323046
1082.3,0.080272,391215,325195
1085.96,0.079642,393215,327332
1090.84,0.078849,396270,330478
1094.49,0.078127,398760,333108
1098.14,0.078058,400987,335021
1101.79,0.077223,403477,337750
1105.43,0.077033,406116,340108
1109.06,0.075878,407701,342345
1112.7,0.076144,409859,343946
1117.53,0.076131,412494,346168
1121.15,0.076305,414909,348055
1124.77,0.076183,416559,349537
1128.38,0.076741,418532,350742
1131.99,0.078022,419956,350899
1135.6,0.079879,421946,351057
1139.2,0.081035,423881,351730
1143.99,0.082897,426786,352625
1147.58,0.083497,428617,353649
1151.17,0.084592,431169,354859
1154.75,0.086047,433579,355649
1158.33,0.086874,436264,357170
1161.91,0.089315,439132,357503
1165.48,0.090497,442389,359176
1169.04,0.092938,446101,360160
1173.79,0.096677,451929,361737
1177.34,0.098586,456026,363416
1180.9,0.100687,461306,365849
1184.44,0.102690,467657,369179
1187.99,0.103433,473969,373523
1191.52,0.103300,479856,378278
1195.06,0.103573,487372,383961
1199.76,0.102397,497347,392882
1203.29,0.101706,504311,399018
1206.81,0.101860,511507,404568
1210.33,0.100827,519078,411534
1213.84,0.100117,527163,418628
1217.35,0.099841,534208,424492
1220.85,0.099069,540472,430233
1225.51,0.098501,549929,438334
1229.01,0.097897,556888,444499
1232.5,0.097319,562180,449321
1235.98,0.096904,567975,454386
1239.46,0.096165,574815,460642
1242.94,0.094617,582782,468694
1246.41,0.094473,591476,475844
1251.03,0.094184,604016,486255
1254.5,0.094241,612289,492851
1257.96,0.094350,619125,498228
1261.41,0.095381,624551,501403
1264.86,0.095703,629900,505322
1268.31,0.096109,634345,508413
1271.75,0.096676,638574,511134
1276.33,0.097068,642499,513812
1279.76,0.096840,645905,516807
1283.19,0.096713,648307,518881
1286.61,0.096114,650446,521311
1290.03,0.095455,652132,523456
1293.44,0.095438,653907,524902
1296.85,0.095387,655963,526614
1301.39,0.094910,657349,528307
1304.8,0.094487,657558,528990
1308.19,0.094826,658515,529346
1311.58,0.095075,658804,529275
1314.97,0.095552,659011,528860
1318.36,0.096410,658272,527224
1321.73,0.096423,658022,527008
1326.23,0.097737,657870,525295
1329.6,0.097941,656482,523940
1332.97,0.099297,654926,521069
1336.33,0.100276,653727,518944
1339.69,0.101723,652497,516245
1343.04,0.103204,649913,512450
1346.39,0.105508,647671,507980
1349.73,0.107146,645338,504245
1354.18,0.110324,641175,497339
1357.52,0.112425,638376,492778
1360.85,0.114059,635805,488951
1364.17,0.116728,633413,484127
1367.49,0.118550,631026,480283
1370.81,0.120678,628050,475682
1374.12,0.122783,625034,471108
1378.54,0.125706,620272,464383
1381.84,0.128782,616892,458593
1385.14,0.132397,613613,452374
1388.43,0.136293,611526,446809
1391.72,0.140640,610663,441735
1395.01,0.145265,610634,437035
1398.29,0.150345,611700,432707
1402.66,0.156861,614051,427901
1405.93,0.162482,616268,423924
1409.2,0.167492,617795,420100
1412.46,0.172540,618872,415969
1415.72,0.176817,619795,412507
1418.98,0.180542,620495,409446
1422.23,0.183688,621087,406878
1426.56,0.188207,621375,402853
1429.8,0.190319,621616,401054
1433.04,0.192974,622129,398939
1436.27,0.195063,621526,396640
1439.5,0.197223,621113,394410
1442.72,0.199772,620921,391980
1445.94,0.202080,620270,389494
1450.23,0.205547,618860,385519
1453.44,0.207861,617697,382749
1456.64,0.210488,616264,379559
1459.85,0.213211,614413,376053
1463.04,0.216126,612307,372257
1466.24,0.219192,610032,368265
1469.43,0.222752,607345,363650
1473.67,0.228138,603789,357065
1476.85,0.233574,601175,351097
1480.02,0.239312,597737,344507
1483.19,0.245258,594479,337970
1486.36,0.250400,591232,332168
1489.52,0.254845,587853,326907
1492.68,0.258077,583875,322287
1496.89,0.260656,578062,317189
1500.03,0.260622,574159,315072
1503.18,0.260670,570285,312912
1506.32,0.259307,565444,311231
1509.45,0.258823,560571,308893
1512.58,0.257300,555821,307351
1515.71,0.254903,550344,306007
1519.87,0.251425,543983,304902
1522.99,0.249724,538764,303162
1526.1,0.247072,533692,302147
1529.21,0.243747,527902,301166
1532.32,0.241550,521886,299244
1535.42,0.238682,515888,297765
1538.51,0.236333,509987,295955
1541.6,0.232907,503936,294760
1545.72,0.227960,494694,292669
1548.8,0.225810,488378,290366
1551.88,0.222946,481832,288370
1554.95,0.221677,474989,285106
1558.02,0.219923,467818,281938
1561.08,0.219096,460730,278196
1564.15,0.217674,454170,275134
1568.22,0.217159,444181,269402
1571.27,0.216891,436947,265178
1574.32,0.215750,429598,261404
1577.36,0.214211,422039,257716
1580.4,0.213330,414375,253550
1583.43,0.211526,406354,249677
1586.46,0.209621,398475,245912
1590.49,0.208383,388982,240739
1593.51,0.207349,380708,236180
1596.53,0.204145,372727,232941
1599.54,0.201659,365060,229459
1602.55,0.199935,357543,225628
1605.55,0.198587,349495,221235
1608.55,0.195975,341154,217258
1612.54,0.195030,330877,211172
1615.53,0.193204,322904,206952
1618.51,0.192591,315116,202246
1621.49,0.191076,307217,197865
1624.47,0.191161,299481,192845
1627.44,0.187741,292112,189587
1630.41,0.187520,284245,184575
1634.36,0.186313,274079,178469
1637.32,0.185279,266916,174219
1640.27,0.185027,259612,169550
1643.22,0.183939,251804,164863
1646.16,0.183208,244348,160251
1649.1,0.181628,236703,155803
1652.04,0.181145,228171,150354
1655.95,0.177914,215408,143004
1658.88,0.173305,204937,137504
1661.8,0.168677,193395,131150
1664.72,0.161499,179728,123913
1667.63,0.148965,163642,116126
1670.54,0.135426,146312,107116
1673.44,0.120759,128451,97270
1677.31,0.101893,105080,83105
1680.21,0.089973,88906,72270
1683.1,0.086003,75033,61553
1685.99,0.088581,63520,51800
1688.87,0.091359,53714,43524
1691.75,0.090763,45653,37043
1694.62,0.104192,39137,30789
1697.49,0.108619,33776,26302
1701.31,0.112145,28175,21763