File: samples/wool/wool-000811/Column 1_050538_20150331_115415.csv
Method:,Column 1,,
Host Date-Time:,31/3/15 @ 11:54:15,,
Header Version:,1,,
System Temp (C):,31.95,,
Detector Temp (C):,30.27,,
Humidity (%):,3.32,,
Lamp PD:,3825,,
Shift Vector Coefficients:,-10.5391,0.0761263,-0.000134223,,
Pixel to Wavelength Coefficients:,1775.68,-0.916766,-0.000235065,,
Serial Number:,5510004,,
Scan Config Name:,Column 1,,
Scan Config Type:,Slew,,
Section 1,,
Start wavelength (nm):,900,,
End wavelength (nm):,1700,,
Pattern Pixel Width (nm):,   7.03,,,,
Exposure (ms):,  0.635,,,,
Digital Resolution:,228,,
Num Repeats:,6,,
PGA Gain:,64,,
Total Measurement Time in sec:,  2.733,,
Wavelength (nm),Absorbance (AU),Reference Signal (unitless),Sample Signal (unitless)
901.51,0.042653,108485,98337
905.376,0.047845,121306,108652
909.237,0.051336,131909,117203
913.095,0.051162,143299,127374
916.948,0.049561,156982,140052
922.079,0.050268,179937,160270
925.923,0.051008,200504,178285
929.762,0.051210,222660,197894
933.597,0.052192,244426,216748
937.427,0.051980,263972,234195
941.254,0.053180,281845,249362
945.076,0.052410,297271,263477
950.165,0.052691,315605,279546
953.978,0.051970,328029,291033
957.786,0.053706,340470,300866
961.59,0.053887,352317,311205
965.389,0.053776,363056,320773
969.185,0.054798,373162,328927
972.976,0.054650,382632,337389
976.763,0.055584,391202,344205
981.806,0.056014,400190,351765
985.583,0.057185,406088,355988
989.355,0.057387,410162,359392
993.124,0.057522,412868,361651
996.888,0.058818,414263,361791
1000.65,0.059743,415476,362079
1004.4,0.060089,415479,361793
1009.41,0.061324,414358,359792
1013.15,0.062498,412923,357578
1016.89,0.062895,411526,356043
1020.63,0.063227,409066,353644
1024.36,0.062500,406777,352254
1028.09,0.061922,404427,350686
1031.82,0.061940,401911,348490
1036.78,0.061370,398410,345908
1040.49,0.060624,396204,344584
1044.2,0.060610,394236,342883
1047.91,0.059737,392042,341661
1051.61,0.058917,389823,340369
1055.31,0.058395,388234,339390
1059,0.057730,387599,339354
1063.92,0.056767,386688,339308
1067.61,0.055639,386598,340111
1071.29,0.054858,387377,341410
1074.96,0.054221,388536,342934
1078.63,0.053521,389855,344653
1082.3,0.052539,391215,346638
1085.96,0.051930,393215,348899
1090.84,0.051042,396270,352330
1094.49,0.050970,398760,354602
1098.14,0.050100,400987,357298
1101.79,0.050137,403477,359486
1105.43,0.049964,406116,361981
1109.06,0.049560,407701,363732
1112.7,0.050107,409859,365197
1117.53,0.050133,412494,367523
1121.15,0.050819,414909,369091
1124.77,0.050956,416559,370442
1128.38,0.052652,418532,370746
1131.99,0.054666,419956,370286
1135.6,0.056156,421946,370767
1139.2,0.058499,423881,370463
1143.99,0.061326,426786,370582
1147.58,0.062449,428617,371211
1151.17,0.063994,431169,372095
1154.75,0.065642,433579,372757
1158.33,0.067552,436264,373420
1161.91,0.069694,439132,374025
1165.48,0.072932,442389,374001
1169.04,0.075795,446101,374661
1173.79,0.079806,451929,376066
1177.34,0.082676,456026,376976
1180.9,0.085563,461306,378814
1184.44,0.087386,467657,382421
1187.99,0.088116,473969,386931
1191.52,0.087503,479856,392291
1195.06,0.086728,487372,399147
1199.76,0.085694,497347,408287
1203.29,0.084420,504311,415220
1206.81,0.082812,511507,422707
1210.33,0.081310,519078,430450
1213.84,0.080718,527163,437751
1217.35,0.079641,534208,444702
1220.85,0.078347,540472,451259
1225.51,0.077105,549929,460470
1229.01,0.076342,556888,467117
1232.5,0.075453,562180,472522
1235.98,0.074714,567975,478206
1239.46,0.073547,574815,485267
1242.94,0.072416,582782,493276
1246.41,0.071562,591476,501620
1251.03,0.071157,604016,512733
1254.5,0.071243,612289,519653
1257.96,0.071537,619125,525099
1261.41,0.072004,624551,529132
1264.86,0.072423,629900,533149
1268.31,0.073243,634345,535899
1271.75,0.074221,638574,538258
1276.33,0.074437,642499,541297
1279.76,0.074492,645905,544098
1283.19,0.073630,648307,547206
1286.61,0.073453,650446,549235
1290.03,0.073160,652132,551030
1293.44,0.072646,653907,553184
1296.85,0.072093,655963,555631
1301.39,0.071981,657349,556948
1304.8,0.072268,657558,556757
1308.19,0.072355,658515,557456
1311.58,0.072754,658804,557189
1314.97,0.073229,659011,556755
1318.36,0.073995,658272,555150
1321.73,0.074284,658022,554570
1326.23,0.075333,657870,553104
1329.6,0.076360,656482,550634
1332.97,0.077292,654926,548151
1336.33,0.078957,653727,545054
1339.69,0.081150,652497,541288
1343.04,0.082822,649913,537073
1346.39,0.085377,647671,532081
1349.73,0.087949,645338,527034
1354.18,0.091424,641175,519461
1357.52,0.093880,638376,514276
1360.85,0.096591,635805,509018
1364.17,0.098989,633413,504311
1367.49,0.101555,631026,499450
1370.81,0.104370,628050,493883
1374.12,0.107202,625034,488317
1378.54,0.111053,620272,480318
1381.84,0.115051,616892,473324
1385.14,0.119635,613613,465864
1388.43,0.124688,611526,458909
1391.72,0.130196,610663,452486
1395.01,0.136459,610634,445987
1398.29,0.142823,611700,440266
1402.66,0.151808,614051,432909
1405.93,0.158328,616268,427998
1409.2,0.165497,617795,422034
1412.46,0.171981,618872,416505
1415.72,0.177302,619795,412046
1418.98,0.181237,620495,408791
1422.23,0.186146,621087,404582
1426.56,0.190502,621375,400730
1429.8,0.194503,621616,397209
1433.04,0.197138,622129,395132
1436.27,0.199297,621526,392792
1439.5,0.201948,621113,390142
1442.72,0.204749,620921,387514
1445.94,0.206964,620270,385138
1450.23,0.210873,618860,380820
1453.44,0.213577,617697,377745
1456.64,0.216715,616264,374155
1459.85,0.218896,614413,371163
1463.04,0.221710,612307,367502
1466.24,0.224723,610032,363605
1469.43,0.227722,607345,359512
1473.67,0.233055,603789,353045
1476.85,0.237990,601175,347545
1480.02,0.243179,597737,341453
1483.19,0.249846,594479,334419
1486.36,0.254680,591232,328911
1489.52,0.260033,587853,323025
1492.68,0.263728,583875,318121
1496.89,0.266223,578062,313149
1500.03,0.267826,574159,309889
1503.18,0.267895,570285,307749
1506.32,0.267664,565444,305299
1509.45,0.265877,560571,303916
1512.58,0.264990,555821,301957
1515.71,0.262245,550344,300877
1519.87,0.259534,543983,299262
1522.99,0.255877,538764,298897
1526.1,0.253818,533692,297490
1529.21,0.251069,527902,296131
1532.32,0.247718,521886,295024
1535.42,0.244715,515888,293657
1538.51,0.240938,509987,292834
1541.6,0.237235,503936,291837
1545.72,0.233586,494694,288902
1548.8,0.230145,488378,287482
1551.88,0.227131,481832,285604
1554.95,0.224403,474989,283322
1558.02,0.222415,467818,280325
1561.08,0.220581,460730,277246
1564.15,0.220485,454170,273359
1568.22,0.219273,444181,268094
1571.27,0.218412,436947,264251
1574.32,0.217173,429598,260549
1577.36,0.215176,422039,257144
1580.4,0.213534,414375,253431
1583.43,0.212552,406354,249088
1586.46,0.210344,398475,245503
1590.49,0.207406,388982,241281
1593.51,0.205163,380708,237372
1596.53,0.203318,372727,233385
1599.54,0.200265,365060,230197
1602.55,0.197879,357543,226699
1605.55,0.195146,349495,222995
1608.55,0.193402,341154,218549
1612.54,0.190912,330877,213184
1615.53,0.189222,322904,208858
1618.51,0.187177,315116,204783
1621.49,0.185372,307217,200481
1624.47,0.184410,299481,195866
1627.44,0.182857,292112,191731
1630.41,0.181640,284245,187091
1634.36,0.180255,274079,180976
1637.32,0.179082,266916,176723
1640.27,0.177800,259612,172395
1643.22,0.176747,251804,167616
1646.16,0.175448,244348,163140
1649.1,0.174432,236703,158406
1652.04,0.174689,228171,152606
1655.95,0.173286,215408,144536
1658.88,0.171836,204937,137970
1661.8,0.170033,193395,130741
1664.72,0.167879,179728,122106
1667.63,0.163094,163642,112409
1670.54,0.158818,146312,101499
1673.44,0.154698,128451,89958
1677.31,0.152318,105080,73995
1680.21,0.150584,88906,62856
1683.1,0.152536,75033,52810
1685.99,0.162191,63520,43724
1688.87,0.167473,53714,36527
1691.75,0.170116,45653,30857
1694.62,0.176413,39137,26072
1697.49,0.172448,33776,22707
1701.31,0.178022,28175,18700