File: samples/wool/wool-000811/Column 1_050623_20150331_123420.csv
Method:,Column 1,,
Host Date-Time:,31/3/15 @ 12:34:20,,
Header Version:,1,,
System Temp (C):,34.12,,
Detector Temp (C):,35.01,,
Humidity (%):,1.56,,
Lamp PD:,3818,,
Shift Vector Coefficients:,-10.5391,0.0761263,-0.000134223,,
Pixel to Wavelength Coefficients:,1775.68,-0.916766,-0.000235065,,
Serial Number:,5510004,,
Scan Config Name:,Column 1,,
Scan Config Type:,Slew,,
Section 1,,
Start wavelength (nm):,900,,
End wavelength (nm):,1700,,
Pattern Pixel Width (nm):,   7.03,,,,
Exposure (ms):,  0.635,,,,
Digital Resolution:,228,,
Num Repeats:,6,,
PGA Gain:,64,,
Total Measurement Time in sec:,  2.677,,
Wavelength (nm),Absorbance (AU),Reference Signal (unitless),Sample Signal (unitless)
901.51,0.070017,108485,92332
905.376,0.075580,121306,101930
909.237,0.077939,131909,110239
913.095,0.078817,143299,119516
916.948,0.079601,156982,130692
922.079,0.081389,179937,149187
925.923,0.082827,200504,165690
929.762,0.082423,222660,184170
933.597,0.082824,244426,201987
937.427,0.081433,263972,218839
941.254,0.080383,281845,234222
945.076,0.079021,297271,247817
950.165,0.078365,315605,263499
953.978,0.077694,328029,274295
957.786,0.077702,340470,284693
961.59,0.078194,352317,294266
965.389,0.077702,363056,303579
969.185,0.077630,373162,312081
972.976,0.078938,382632,319039
976.763,0.078393,391202,326594
981.806,0.078728,400190,333840
985.583,0.079836,406088,337897
989.355,0.079999,410162,341159
993.124,0.080351,412868,343131
996.888,0.080797,414263,343937
1000.65,0.082227,415476,343810
1004.4,0.082928,415479,343258
1009.41,0.084159,414358,341363
1013.15,0.084611,412923,339827
1016.89,0.085154,411526,338254
1020.63,0.084992,409066,336358
1024.36,0.085247,406777,334279
1028.09,0.084216,404427,333138
1031.82,0.084559,401911,330804
1036.78,0.084325,398410,328099
1040.49,0.084451,396204,326188
1044.2,0.083985,394236,324916
1047.91,0.084004,392042,323094
1051.61,0.083350,389823,321749
1055.31,0.083111,388234,320614
1059,0.082449,387599,320578
1063.92,0.081762,386688,320331
1067.61,0.080457,386598,321220
1071.29,0.080037,387377,322179
1074.96,0.079560,388536,323498
1078.63,0.079226,389855,324846
1082.3,0.078482,391215,326538
1085.96,0.077788,393215,328732
1090.84,0.076573,396270,332214
1094.49,0.076256,398760,334546
1098.14,0.076091,400987,336542
1101.79,0.074625,403477,339777
1105.43,0.075020,406116,341688
1109.06,0.074359,407701,343544
1112.7,0.073405,409859,346122
1117.53,0.073508,412494,348265
1121.15,0.074106,414909,349822
1124.77,0.073896,416559,351383
1128.38,0.075005,418532,352147
1131.99,0.076137,419956,352425
1135.6,0.077006,421946,353387
1139.2,0.078810,423881,353536
1143.99,0.080810,426786,354324
1147.58,0.080997,428617,355691
1151.17,0.082214,431169,356807
1154.75,0.083015,433579,358140
1158.33,0.084562,436264,359077
1161.91,0.086518,439132,359813
1165.48,0.088767,442389,360610
1169.04,0.090025,446101,362584
1173.79,0.093816,451929,364128
1177.34,0.095989,456026,365595
1180.9,0.097825,461306,368268
1184.44,0.099946,467657,371519
1187.99,0.100913,473969,375696
1191.52,0.100858,479856,380411
1195.06,0.101159,487372,386102
1199.76,0.100629,497347,394485
1203.29,0.099935,504311,400648
1206.81,0.099543,511507,406732
1210.33,0.098001,519078,414221
1213.84,0.097967,527163,420705
1217.35,0.097262,534208,427020
1220.85,0.096785,540472,432502
1225.51,0.095893,549929,440975
1229.01,0.095247,556888,447220
1232.5,0.094422,562180,452328
1235.98,0.094059,567975,457373
1239.46,0.092945,574815,464070
1242.94,0.092323,582782,471176
1246.41,0.091566,591476,479039
1251.03,0.091463,604016,489312
1254.5,0.091394,612289,496092
1257.96,0.091844,619125,501112
1261.41,0.092462,624551,504784
1264.86,0.093028,629900,508445
1268.31,0.093674,634345,511271
1271.75,0.094333,638574,513900
1276.33,0.094265,642499,517139
1279.76,0.094362,645905,519765
1283.19,0.093800,648307,522373
1286.61,0.093501,650446,524458
1290.03,0.093233,652132,526142
1293.44,0.092558,653907,528394
1296.85,0.092162,655963,530539
1301.39,0.091879,657349,532007
1304.8,0.091963,657558,532073
1308.19,0.091838,658515,533001
1311.58,0.092252,658804,532726
1314.97,0.092723,659011,532316
1318.36,0.093131,658272,531220
1321.73,0.093274,658022,530843
1326.23,0.093581,657870,530346
1329.6,0.094406,656482,528222
1332.97,0.095249,654926,525949
1336.33,0.096304,653727,523712
1339.69,0.097840,652497,520881
1343.04,0.099695,649913,516607
1346.39,0.101265,647671,512967
1349.73,0.103080,645338,508988
1354.18,0.105898,641175,502433
1357.52,0.107711,638376,498156
1360.85,0.109947,635805,493602
1364.17,0.112115,633413,489296
1367.49,0.114436,631026,484854
1370.81,0.116848,628050,479895
1374.12,0.118121,625034,476193
1378.54,0.120917,620272,469532
1381.84,0.124113,616892,463549
1385.14,0.127185,613613,457836
1388.43,0.130362,611526,452953
1391.72,0.134447,610663,448079
1395.01,0.137552,610634,444866
1398.29,0.142404,611700,440691
1402.66,0.148124,614051,436597
1405.93,0.152735,616268,433545
1409.2,0.157101,617795,430272
1412.46,0.161589,618872,426591
1415.72,0.164665,619795,424212
1418.98,0.168921,620495,420550
1422.23,0.172304,621087,417685
1426.56,0.175736,621375,414589
1429.8,0.177639,621616,412936
1433.04,0.180554,622129,410513
1436.27,0.183113,621526,407705
1439.5,0.184933,621113,405730
1442.72,0.187352,620921,403352
1445.94,0.189939,620270,400536
1450.23,0.193528,618860,396337
1453.44,0.196335,617697,393043
1456.64,0.198914,616264,389810
1459.85,0.201549,614413,386288
1463.04,0.204502,612307,382355
1466.24,0.208101,610032,377791
1469.43,0.212498,607345,372338
1473.67,0.218772,603789,364849
1476.85,0.224737,601175,358314
1480.02,0.230707,597737,351401
1483.19,0.237832,594479,343799
1486.36,0.243451,591232,337526
1489.52,0.248768,587853,331513
1492.68,0.252300,583875,326603
1496.89,0.254209,578062,321933
1500.03,0.255001,574159,319177
1503.18,0.254935,570285,317071
1506.32,0.253951,565444,315093
1509.45,0.252410,560571,313488
1512.58,0.251233,555821,311675
1515.71,0.248420,550344,310609
1519.87,0.245853,543983,308839
1522.99,0.243138,538764,307794
1526.1,0.240352,533692,306859
1529.21,0.237041,527902,305853
1532.32,0.234085,521886,304432
1535.42,0.231675,515888,302608
1538.51,0.229134,509987,300902
1541.6,0.226337,503936,299253
1545.72,0.220914,494694,297456
1548.8,0.218881,488378,295036
1551.88,0.216765,481832,292503
1554.95,0.215089,474989,289464
1558.02,0.213178,467818,286351
1561.08,0.211903,460730,282842
1564.15,0.211494,454170,279077
1568.22,0.209970,444181,273899
1571.27,0.210167,436947,269316
1574.32,0.209145,429598,265410
1577.36,0.207801,422039,261548
1580.4,0.207518,414375,256966
1583.43,0.205564,406354,253128
1586.46,0.203965,398475,249136
1590.49,0.201631,388982,244511
1593.51,0.199956,380708,240235
1596.53,0.198087,372727,236213
1599.54,0.197101,365060,231880
1602.55,0.195034,357543,228189
1605.55,0.192052,349495,224589
1608.55,0.190358,341154,220086
1612.54,0.188709,330877,214268
1615.53,0.187440,322904,209717
1618.51,0.186029,315116,205325
1621.49,0.184792,307217,200749
1624.47,0.184095,299481,196008
1627.44,0.182651,292112,191822
1630.41,0.182290,284245,186811
1634.36,0.180617,274079,180825
1637.32,0.181536,266916,175727
1640.27,0.179795,259612,171605
1643.22,0.178841,251804,166810
1646.16,0.178199,244348,162110
1649.1,0.178376,236703,156974
1652.04,0.175541,228171,152307
1655.95,0.172172,215408,144907
1658.88,0.168699,204937,138970
1661.8,0.163447,193395,132739
1664.72,0.155630,179728,125599
1667.63,0.143019,163642,117727
1670.54,0.128276,146312,108894
1673.44,0.113462,128451,98918
1677.31,0.092438,105080,84934
1680.21,0.080245,88906,73907
1683.1,0.073787,75033,63309
1685.99,0.073835,63520,53589
1688.87,0.073118,53714,45391
1691.75,0.079446,45653,38021
1694.62,0.086570,39137,32064
1697.49,0.091159,33776,27381
1701.31,0.100664,28175,22346