File: samples/wool/wool-000811/Column 1_050580_20150331_121408.csv
Method:,Column 1,,
Host Date-Time:,31/3/15 @ 12:14:8,,
Header Version:,1,,
System Temp (C):,33.78,,
Detector Temp (C):,34.6,,
Humidity (%):,1.95,,
Lamp PD:,3819,,
Shift Vector Coefficients:,-10.5391,0.0761263,-0.000134223,,
Pixel to Wavelength Coefficients:,1775.68,-0.916766,-0.000235065,,
Serial Number:,5510004,,
Scan Config Name:,Column 1,,
Scan Config Type:,Slew,,
Section 1,,
Start wavelength (nm):,900,,
End wavelength (nm):,1700,,
Pattern Pixel Width (nm):,   7.03,,,,
Exposure (ms):,  0.635,,,,
Digital Resolution:,228,,
Num Repeats:,6,,
PGA Gain:,64,,
Total Measurement Time in sec:,  2.725,,
Wavelength (nm),Absorbance (AU),Reference Signal (unitless),Sample Signal (unitless)
901.51,0.072541,108485,91797
905.376,0.077999,121306,101364
909.237,0.079387,131909,109872
913.095,0.080288,143299,119112
916.948,0.083339,156982,129572
922.079,0.083283,179937,148538
925.923,0.085110,200504,164821
929.762,0.084430,222660,183321
933.597,0.084917,244426,201016
937.427,0.084147,263972,217476
941.254,0.082869,281845,232885
945.076,0.081655,297271,246319
950.165,0.081060,315605,261869
953.978,0.080664,328029,272426
957.786,0.080521,340470,282851
961.59,0.080791,352317,292511
965.389,0.081336,363056,301049
969.185,0.081059,373162,309627
972.976,0.080938,382632,317573
976.763,0.082434,391202,323569
981.806,0.082158,400190,331214
985.583,0.082876,406088,335540
989.355,0.083410,410162,338490
993.124,0.083782,412868,340431
996.888,0.084323,414263,341156
1000.65,0.085410,415476,341300
1004.4,0.086062,415479,340790
1009.41,0.087341,414358,338871
1013.15,0.087312,412923,337720
1016.89,0.088425,411526,335716
1020.63,0.088225,409066,333863
1024.36,0.088016,406777,332155
1028.09,0.088095,404427,330176
1031.82,0.087416,401911,328635
1036.78,0.086998,398410,326086
1040.49,0.087237,396204,324102
1044.2,0.087317,394236,322433
1047.91,0.086887,392042,320956
1051.61,0.085937,389823,319838
1055.31,0.085913,388234,318552
1059,0.085856,387599,318073
1063.92,0.084802,386688,318096
1067.61,0.084321,386598,318375
1071.29,0.084315,387377,319021
1074.96,0.083895,388536,320285
1078.63,0.082995,389855,322039
1082.3,0.081948,391215,323942
1085.96,0.081215,393215,326148
1090.84,0.080725,396270,329053
1094.49,0.080270,398760,331468
1098.14,0.079621,400987,333818
1101.79,0.080006,403477,335593
1105.43,0.078708,406116,338799
1109.06,0.078063,407701,340627
1112.7,0.078003,409859,342477
1117.53,0.077094,412494,345401
1121.15,0.078400,414909,346380
1124.77,0.077793,416559,348244
1128.38,0.078895,418532,349007
1131.99,0.080421,419956,348966
1135.6,0.082015,421946,349335
1139.2,0.082941,423881,350189
1143.99,0.084880,426786,351019
1147.58,0.085428,428617,352080
1151.17,0.087072,431169,352838
1154.75,0.088328,433579,353786
1158.33,0.089618,436264,354921
1161.91,0.091697,439132,355548
1165.48,0.093658,442389,356571
1169.04,0.095172,446101,358312
1173.79,0.098897,451929,359893
1177.34,0.100665,456026,361680
1180.9,0.102689,461306,364167
1184.44,0.104938,467657,367273
1187.99,0.105207,473969,372000
1191.52,0.105623,479856,376260
1195.06,0.105353,487372,382391
1199.76,0.104802,497347,390713
1203.29,0.103995,504311,396920
1206.81,0.103181,511507,403339
1210.33,0.103071,519078,409413
1213.84,0.102637,527163,416206
1217.35,0.101797,534208,422584
1220.85,0.101301,540472,428028
1225.51,0.100791,549929,436029
1229.01,0.100337,556888,442009
1232.5,0.099695,562180,446869
1235.98,0.098779,567975,452429
1239.46,0.097873,574815,458834
1242.94,0.096952,582782,466181
1246.41,0.096643,591476,473472
1251.03,0.096247,604016,483951
1254.5,0.096418,612289,490387
1257.96,0.097037,619125,495155
1261.41,0.097208,624551,499298
1264.86,0.097856,629900,502824
1268.31,0.098282,634345,505875
1271.75,0.098937,638574,508481
1276.33,0.099119,642499,511392
1279.76,0.099133,645905,514086
1283.19,0.098620,648307,516608
1286.61,0.098211,650446,518800
1290.03,0.097897,652132,520521
1293.44,0.097567,653907,522335
1296.85,0.097151,655963,524479
1301.39,0.096868,657349,525930
1304.8,0.097019,657558,525915
1308.19,0.097388,658515,526233
1311.58,0.097550,658804,526267
1314.97,0.098013,659011,525871
1318.36,0.098679,658272,524477
1321.73,0.098828,658022,524098
1326.23,0.099868,657870,522723
1329.6,0.100726,656482,520591
1332.97,0.102243,654926,517546
1336.33,0.102949,653727,515760
1339.69,0.104807,652497,512592
1343.04,0.106396,649913,508697
1346.39,0.108362,647671,504653
1349.73,0.110323,645338,500569
1354.18,0.113272,641175,493975
1357.52,0.115117,638376,489733
1360.85,0.117366,635805,485241
1364.17,0.119211,633413,481367
1367.49,0.121451,631026,477086
1370.81,0.123795,628050,472280
1374.12,0.126402,625034,467199
1378.54,0.129609,620272,460228
1381.84,0.132702,616892,454472
1385.14,0.136618,613613,447999
1388.43,0.140698,611526,442300
1391.72,0.146099,610663,436217
1395.01,0.150475,610634,431823
1398.29,0.156059,611700,427051
1402.66,0.163575,614051,421337
1405.93,0.168844,616268,417759
1409.2,0.175110,617795,412795
1412.46,0.179588,618872,409273
1415.72,0.185026,619795,404783
1418.98,0.188719,620495,401809
1422.23,0.192638,621087,398579
1426.56,0.197097,621375,394691
1429.8,0.199902,621616,392302
1433.04,0.202944,622129,389885
1436.27,0.205006,621526,387662
1439.5,0.206285,621113,386265
1442.72,0.208820,620921,383898
1445.94,0.211000,620270,381576
1450.23,0.215250,618860,377001
1453.44,0.216989,617697,374789
1456.64,0.220116,616264,371237
1459.85,0.222644,614413,367973
1463.04,0.224873,612307,364835
1466.24,0.228073,610032,360811
1469.43,0.231181,607345,356660
1473.67,0.236264,603789,350446
1476.85,0.240857,601175,345258
1480.02,0.245730,597737,339453
1483.19,0.251621,594479,333055
1486.36,0.256384,591232,327623
1489.52,0.259749,587853,323236
1492.68,0.263159,583875,318538
1496.89,0.265398,578062,313745
1500.03,0.265499,574159,311554
1503.18,0.265099,570285,309737
1506.32,0.264122,565444,307799
1509.45,0.263483,560571,305596
1512.58,0.262116,555821,303962
1515.71,0.259529,550344,302765
1519.87,0.256350,543983,301464
1522.99,0.254361,538764,299942
1526.1,0.252140,533692,298642
1529.21,0.249122,527902,297462
1532.32,0.246007,521886,296189
1535.42,0.243699,515888,294345
1538.51,0.240210,509987,293325
1541.6,0.237551,503936,291625
1545.72,0.233670,494694,288846
1548.8,0.231669,488378,286475
1551.88,0.228877,481832,284458
1554.95,0.226564,474989,281916
1558.02,0.225362,467818,278429
1561.08,0.223459,460730,275415
1564.15,0.223172,454170,271673
1568.22,0.222080,444181,266367
1571.27,0.221697,436947,262260
1574.32,0.219405,429598,259213
1577.36,0.218309,422039,255296
1580.4,0.217227,414375,251285
1583.43,0.216352,406354,246918
1586.46,0.214491,398475,243170
1590.49,0.212057,388982,238711
1593.51,0.211072,380708,234164
1596.53,0.208473,372727,230631
1599.54,0.206424,365060,226955
1602.55,0.204228,357543,223409
1605.55,0.202206,349495,219399
1608.55,0.201173,341154,214673
1612.54,0.198775,330877,209359
1615.53,0.197604,322904,204866
1618.51,0.194398,315116,201406
1621.49,0.193860,307217,196601
1624.47,0.193405,299481,191851
1627.44,0.192398,292112,187565
1630.41,0.191211,284245,183013
1634.36,0.188971,274079,177380
1637.32,0.189211,266916,172649
1640.27,0.189010,259612,168002
1643.22,0.186338,251804,163955
1646.16,0.186530,244348,159030
1649.1,0.186598,236703,154030
1652.04,0.185345,228171,148907
1655.95,0.180701,215408,142089
1658.88,0.177813,204937,136084
1661.8,0.173217,193395,129786
1664.72,0.165984,179728,122640
1667.63,0.152721,163642,115126
1670.54,0.138322,146312,106404
1673.44,0.122100,128451,96970
1677.31,0.104004,105080,82702
1680.21,0.094437,88906,71531
1683.1,0.089616,75033,61043
1685.99,0.094915,63520,51050
1688.87,0.089387,53714,43722
1691.75,0.093952,45653,36772
1694.62,0.100960,39137,31019
1697.49,0.105051,33776,26519
1701.31,0.111168,28175,21812