File: samples/wool/wool-000811/Column 1_050537_20150331_115347.csv
Method:,Column 1,,
Host Date-Time:,31/3/15 @ 11:53:47,,
Header Version:,1,,
System Temp (C):,31.73,,
Detector Temp (C):,30.15,,
Humidity (%):,3.51,,
Lamp PD:,3826,,
Shift Vector Coefficients:,-10.5391,0.0761263,-0.000134223,,
Pixel to Wavelength Coefficients:,1775.68,-0.916766,-0.000235065,,
Serial Number:,5510004,,
Scan Config Name:,Column 1,,
Scan Config Type:,Slew,,
Section 1,,
Start wavelength (nm):,900,,
End wavelength (nm):,1700,,
Pattern Pixel Width (nm):,   7.03,,,,
Exposure (ms):,  0.635,,,,
Digital Resolution:,228,,
Num Repeats:,6,,
PGA Gain:,64,,
Total Measurement Time in sec:,  2.663,,
Wavelength (nm),Absorbance (AU),Reference Signal (unitless),Sample Signal (unitless)
901.51,0.044188,108485,97990
905.376,0.049330,121306,108281
909.237,0.049889,131909,117594
913.095,0.051756,143299,127200
916.948,0.051980,156982,139274
922.079,0.050735,179937,160098
925.923,0.050222,200504,178608
929.762,0.050940,222660,198017
933.597,0.051962,244426,216863
937.427,0.052331,263972,234006
941.254,0.052995,281845,249468
945.076,0.052614,297271,263353
950.165,0.053186,315605,279227
953.978,0.053155,328029,290240
957.786,0.052964,340470,301380
961.59,0.054457,352317,310797
965.389,0.054539,363056,320210
969.185,0.054794,373162,328930
972.976,0.055389,382632,336816
976.763,0.055916,391202,343942
981.806,0.056715,400190,351197
985.583,0.057202,406088,355974
989.355,0.058293,410162,358643
993.124,0.058423,412868,360901
996.888,0.058956,414263,361676
1000.65,0.059188,415476,362542
1004.4,0.060983,415479,361049
1009.41,0.062801,414358,358571
1013.15,0.063059,412923,357117
1016.89,0.063523,411526,355528
1020.63,0.063373,409066,353525
1024.36,0.063098,406777,351770
1028.09,0.062845,404427,349941
1031.82,0.062432,401911,348095
1036.78,0.061955,398410,345442
1040.49,0.061645,396204,343775
1044.2,0.060987,394236,342586
1047.91,0.060385,392042,341152
1051.61,0.059327,389823,340048
1055.31,0.058793,388234,339079
1059,0.057645,387599,339420
1063.92,0.056872,386688,339226
1067.61,0.056138,386598,339720
1071.29,0.055740,387377,340717
1074.96,0.054526,388536,342693
1078.63,0.053868,389855,344378
1082.3,0.053031,391215,346246
1085.96,0.052188,393215,348692
1090.84,0.051478,396270,351976
1094.49,0.051176,398760,354434
1098.14,0.051106,400987,356471
1101.79,0.050450,403477,359227
1105.43,0.050202,406116,361783
1109.06,0.050038,407701,363332
1112.7,0.049692,409859,365546
1117.53,0.050141,412494,367516
1121.15,0.051631,414909,368402
1124.77,0.051814,416559,369711
1128.38,0.053195,418532,370283
1131.99,0.054684,419956,370271
1135.6,0.056967,421946,370075
1139.2,0.058637,423881,370345
1143.99,0.061760,426786,370212
1147.58,0.063080,428617,370672
1151.17,0.064442,431169,371711
1154.75,0.066098,433579,372366
1158.33,0.068208,436264,372856
1161.91,0.070421,439132,373400
1165.48,0.072607,442389,374281
1169.04,0.076408,446101,374132
1173.79,0.080276,451929,375659
1177.34,0.083467,456026,376290
1180.9,0.085618,461306,378766
1184.44,0.087094,467657,382678
1187.99,0.088552,473969,386543
1191.52,0.087618,479856,392187
1195.06,0.087222,487372,398693
1199.76,0.085769,497347,408216
1203.29,0.084525,504311,415120
1206.81,0.083453,511507,422084
1210.33,0.081815,519078,429950
1213.84,0.080814,527163,437654
1217.35,0.080018,534208,444316
1220.85,0.078757,540472,450834
1225.51,0.077593,549929,459953
1229.01,0.076981,556888,466430
1232.5,0.075737,562180,472213
1235.98,0.075223,567975,477646
1239.46,0.073867,574815,484910
1242.94,0.072615,582782,493050
1246.41,0.071723,591476,501434
1251.03,0.071769,604016,512011
1254.5,0.071347,612289,519529
1257.96,0.071929,619125,524625
1261.41,0.072599,624551,528408
1264.86,0.073137,629900,532273
1268.31,0.073625,634345,535427
1271.75,0.074405,638574,538030
1276.33,0.074903,642499,540716
1279.76,0.074661,645905,543886
1283.19,0.074143,648307,546560
1286.61,0.073719,650446,548899
1290.03,0.073221,652132,550953
1293.44,0.073216,653907,552459
1296.85,0.072900,655963,554599
1301.39,0.072691,657349,556039
1304.8,0.072530,657558,556422
1308.19,0.073037,658515,556581
1311.58,0.072937,658804,556954
1314.97,0.073826,659011,555989
1318.36,0.074247,658272,554828
1321.73,0.074651,658022,554102
1326.23,0.075745,657870,552580
1329.6,0.076875,656482,549981
1332.97,0.078164,654926,547051
1336.33,0.079492,653727,544383
1339.69,0.081424,652497,540947
1343.04,0.083599,649913,536113
1346.39,0.085997,647671,531321
1349.73,0.088467,645338,526405
1354.18,0.091767,641175,519051
1357.52,0.093937,638376,514209
1360.85,0.096556,635805,509059
1364.17,0.099182,633413,504086
1367.49,0.101768,631026,499205
1370.81,0.104646,628050,493569
1374.12,0.107336,625034,488166
1378.54,0.111532,620272,479789
1381.84,0.115848,616892,472456
1385.14,0.120273,613613,465181
1388.43,0.125318,611526,458244
1391.72,0.131421,610663,451212
1395.01,0.137194,610634,445233
1398.29,0.143588,611700,439492
1402.66,0.152776,614051,431945
1405.93,0.159648,616268,426699
1409.2,0.166165,617795,421385
1412.46,0.172551,618872,415958
1415.72,0.177510,619795,411849
1418.98,0.183099,620495,407042
1422.23,0.187024,621087,403765
1426.56,0.191942,621375,399403
1429.8,0.195217,621616,396557
1433.04,0.197970,622129,394376
1436.27,0.201013,621526,391243
1439.5,0.202711,621113,389457
1442.72,0.205696,620921,386670
1445.94,0.208495,620270,383783
1450.23,0.211847,618860,379967
1453.44,0.215090,617697,376431
1456.64,0.217637,616264,373362
1459.85,0.220073,614413,370158
1463.04,0.223005,612307,366407
1466.24,0.226091,610032,362461
1469.43,0.229115,607345,358361
1473.67,0.233756,603789,352476
1476.85,0.238531,601175,347112
1480.02,0.244035,597737,340781
1483.19,0.250475,594479,333935
1486.36,0.255944,591232,327955
1489.52,0.260548,587853,322642
1492.68,0.264969,583875,317213
1496.89,0.267575,578062,312176
1500.03,0.268843,574159,309164
1503.18,0.268315,570285,307452
1506.32,0.267758,565444,305233
1509.45,0.266669,560571,303362
1512.58,0.265557,555821,301563
1515.71,0.263331,550344,300126
1519.87,0.260498,543983,298598
1522.99,0.257767,538764,297599
1526.1,0.254021,533692,297351
1529.21,0.251554,527902,295801
1532.32,0.248539,521886,294467
1535.42,0.245580,515888,293073
1538.51,0.241466,509987,292478
1541.6,0.238796,503936,290790
1545.72,0.233341,494694,289065
1548.8,0.230158,488378,287474
1551.88,0.227635,481832,285273
1554.95,0.225863,474989,282371
1558.02,0.223096,467818,279886
1561.08,0.222044,460730,276314
1564.15,0.221189,454170,272916
1568.22,0.219215,444181,268130
1571.27,0.219304,436947,263709
1574.32,0.218244,429598,259907
1577.36,0.215998,422039,256658
1580.4,0.214917,414375,252625
1583.43,0.213007,406354,248827
1586.46,0.211118,398475,245066
1590.49,0.208082,388982,240906
1593.51,0.205327,380708,237282
1596.53,0.203873,372727,233087
1599.54,0.201275,365060,229662
1602.55,0.199118,357543,226053
1605.55,0.196568,349495,222266
1608.55,0.193706,341154,218396
1612.54,0.191564,330877,212864
1615.53,0.189295,322904,208823
1618.51,0.187922,315116,204432
1621.49,0.186413,307217,200001
1624.47,0.184071,299481,196019
1627.44,0.183778,292112,191325
1630.41,0.181977,284245,186946
1634.36,0.180012,274079,181077
1637.32,0.179170,266916,176687
1640.27,0.178721,259612,172030
1643.22,0.176799,251804,167596
1646.16,0.176896,244348,162597
1649.1,0.174986,236703,158204
1652.04,0.174202,228171,152777
1655.95,0.172793,215408,144700
1658.88,0.172132,204937,137876
1661.8,0.172729,193395,129932
1664.72,0.169529,179728,121643
1667.63,0.164956,163642,111928
1670.54,0.162967,146312,100534
1673.44,0.158996,128451,89072
1677.31,0.155132,105080,73517
1680.21,0.154352,88906,62313
1683.1,0.159140,75033,52013
1685.99,0.161436,63520,43800
1688.87,0.169559,53714,36352
1691.75,0.175241,45653,30495
1694.62,0.178065,39137,25973
1697.49,0.183784,33776,22122
1701.31,0.189816,28175,18199