File: samples/wool/wool-000811/Column 1_050576_20150331_121200.csv
Method:,Column 1,,
Host Date-Time:,31/3/15 @ 12:12:0,,
Header Version:,1,,
System Temp (C):,33.8,,
Detector Temp (C):,34.51,,
Humidity (%):,2.69,,
Lamp PD:,3818,,
Shift Vector Coefficients:,-10.5391,0.0761263,-0.000134223,,
Pixel to Wavelength Coefficients:,1775.68,-0.916766,-0.000235065,,
Serial Number:,5510004,,
Scan Config Name:,Column 1,,
Scan Config Type:,Slew,,
Section 1,,
Start wavelength (nm):,900,,
End wavelength (nm):,1700,,
Pattern Pixel Width (nm):,   7.03,,,,
Exposure (ms):,  0.635,,,,
Digital Resolution:,228,,
Num Repeats:,6,,
PGA Gain:,64,,
Total Measurement Time in sec:,  2.678,,
Wavelength (nm),Absorbance (AU),Reference Signal (unitless),Sample Signal (unitless)
901.51,0.072324,108485,91843
905.376,0.077635,121306,101449
909.237,0.079553,131909,109830
913.095,0.081485,143299,118784
916.948,0.082870,156982,129712
922.079,0.084105,179937,148257
925.923,0.085277,200504,164758
929.762,0.085918,222660,182694
933.597,0.084917,244426,201016
937.427,0.084212,263972,217443
941.254,0.083367,281845,232618
945.076,0.082583,297271,245793
950.165,0.082199,315605,261183
953.978,0.082088,328029,271534
957.786,0.082289,340470,281702
961.59,0.082416,352317,291419
965.389,0.082096,363056,300523
969.185,0.082157,373162,308845
972.976,0.082701,382632,316286
976.763,0.083516,391202,322764
981.806,0.083572,400190,330137
985.583,0.084132,406088,334571
989.355,0.085242,410162,337065
993.124,0.084626,412868,339770
996.888,0.085792,414263,340004
1000.65,0.086371,415476,340545
1004.4,0.087442,415479,339709
1009.41,0.088165,414358,338229
1013.15,0.088760,412923,336596
1016.89,0.089609,411526,334802
1020.63,0.089430,409066,332938
1024.36,0.089837,406777,330765
1028.09,0.089237,404427,329309
1031.82,0.089484,401911,327074
1036.78,0.088345,398410,325076
1040.49,0.087994,396204,323538
1044.2,0.089203,394236,321036
1047.91,0.087818,392042,320269
1051.61,0.088188,389823,318185
1055.31,0.087650,388234,317281
1059,0.087259,387599,317047
1063.92,0.086536,386688,316829
1067.61,0.085636,386598,317412
1071.29,0.085303,387377,318296
1074.96,0.085164,388536,319350
1078.63,0.084753,389855,320738
1082.3,0.083610,391215,322705
1085.96,0.082843,393215,324928
1090.84,0.082258,396270,327894
1094.49,0.081637,398760,330426
1098.14,0.080947,400987,332800
1101.79,0.079919,403477,335660
1105.43,0.080591,406116,337333
1109.06,0.079310,407701,339650
1112.7,0.079204,409859,341531
1117.53,0.079107,412494,343804
1121.15,0.079358,414909,345617
1124.77,0.080190,416559,346327
1128.38,0.080615,418532,347627
1131.99,0.081741,419956,347907
1135.6,0.082992,421946,348550
1139.2,0.084605,423881,348850
1143.99,0.086885,426786,349402
1147.58,0.087799,428617,350163
1151.17,0.088054,431169,352041
1154.75,0.089786,433579,352600
1158.33,0.091741,436264,353190
1161.91,0.092791,439132,354653
1165.48,0.095597,442389,354983
1169.04,0.096805,446101,356967
1173.79,0.100671,451929,358426
1177.34,0.102817,456026,359892
1180.9,0.104576,461306,362588
1184.44,0.106194,467657,366213
1187.99,0.107670,473969,369896
1191.52,0.106923,479856,375135
1195.06,0.107694,487372,380335
1199.76,0.106163,497347,389490
1203.29,0.106017,504311,395077
1206.81,0.104929,511507,401719
1210.33,0.104912,519078,407681
1213.84,0.104486,527163,414437
1217.35,0.103538,534208,420894
1220.85,0.102970,540472,426386
1225.51,0.101896,549929,434921
1229.01,0.101864,556888,440457
1232.5,0.101450,562180,445067
1235.98,0.100555,567975,450582
1239.46,0.099343,574815,457283
1242.94,0.098579,582782,464437
1246.41,0.098294,591476,471675
1251.03,0.098167,604016,481816
1254.5,0.098092,612289,488500
1257.96,0.098720,619125,493240
1261.41,0.099205,624551,497007
1264.86,0.099436,629900,500998
1268.31,0.100031,634345,503842
1271.75,0.100697,638574,506424
1276.33,0.100897,642499,509302
1279.76,0.100996,645905,511885
1283.19,0.100277,648307,514640
1286.61,0.099815,650446,516888
1290.03,0.099713,652132,518349
1293.44,0.099517,653907,519995
1296.85,0.099126,655963,522100
1301.39,0.098819,657349,523573
1304.8,0.098619,657558,523980
1308.19,0.099294,658515,523928
1311.58,0.099608,658804,523779
1314.97,0.099804,659011,523707
1318.36,0.100104,658272,522759
1321.73,0.100988,658022,521498
1326.23,0.101755,657870,520457
1329.6,0.102973,656482,517905
1332.97,0.103984,654926,515476
1336.33,0.105592,653727,512630
1339.69,0.107218,652497,509754
1343.04,0.108573,649913,506153
1346.39,0.111148,647671,501426
1349.73,0.113178,645338,497289
1354.18,0.115676,641175,491248
1357.52,0.118087,638376,486396
1360.85,0.119903,635805,482415
1364.17,0.121742,633413,478570
1367.49,0.123943,631026,474356
1370.81,0.126134,628050,469743
1374.12,0.128302,625034,465159
1378.54,0.131780,620272,457933
1381.84,0.135389,616892,451669
1385.14,0.138946,613613,445603
1388.43,0.143596,611526,439358
1391.72,0.148699,610663,433613
1395.01,0.153806,610634,428524
1398.29,0.159762,611700,423425
1402.66,0.168118,614051,416952
1405.93,0.174098,616268,412735
1409.2,0.180354,617795,407841
1412.46,0.185765,618872,403493
1415.72,0.190445,619795,399763
1418.98,0.195139,620495,395913
1422.23,0.199680,621087,392168
1426.56,0.204416,621375,388095
1429.8,0.207395,621616,385591
1433.04,0.209553,622129,383997
1436.27,0.212537,621526,380998
1439.5,0.214688,621113,378863
1442.72,0.216785,620921,376922
1445.94,0.219253,620270,374393
1450.23,0.222601,618860,370673
1453.44,0.225427,617697,367577
1456.64,0.227467,616264,365006
1459.85,0.230192,614413,361633
1463.04,0.232376,612307,358586
1466.24,0.235553,610032,354650
1469.43,0.238074,607345,351044
1473.67,0.242857,603789,345166
1476.85,0.246695,601175,340648
1480.02,0.251826,597737,334722
1483.19,0.256578,594479,329275
1486.36,0.261096,591232,324087
1489.52,0.264136,587853,319987
1492.68,0.268227,583875,314842
1496.89,0.269623,578062,310707
1500.03,0.270046,574159,308309
1503.18,0.270183,570285,306132
1506.32,0.269637,565444,303915
1509.45,0.268213,560571,302286
1512.58,0.266089,555821,301194
1515.71,0.264065,550344,299619
1519.87,0.262222,543983,297415
1522.99,0.259001,538764,296755
1526.1,0.257001,533692,295318
1529.21,0.254332,527902,293915
1532.32,0.251803,521886,292262
1535.42,0.248567,515888,291064
1538.51,0.245618,509987,289695
1541.6,0.242504,503936,288318
1545.72,0.239058,494694,285285
1548.8,0.236444,488378,283343
1551.88,0.233819,481832,281240
1554.95,0.231737,474989,278578
1558.02,0.229776,467818,275614
1561.08,0.228254,460730,272391
1564.15,0.227728,454170,268838
1568.22,0.226438,444181,263707
1571.27,0.225726,436947,259838
1574.32,0.225073,429598,255852
1577.36,0.223861,422039,252053
1580.4,0.220666,414375,249303
1583.43,0.220587,406354,244522
1586.46,0.219158,398475,240571
1590.49,0.216859,388982,236086
1593.51,0.215273,380708,231910
1596.53,0.212527,372727,228488
1599.54,0.211339,365060,224401
1602.55,0.209333,357543,220798
1605.55,0.206819,349495,217081
1608.55,0.204489,341154,213040
1612.54,0.202896,330877,207382
1615.53,0.200392,322904,203555
1618.51,0.199827,315116,198904
1621.49,0.198820,307217,194368
1624.47,0.197639,299481,189990
1627.44,0.196550,292112,185780
1630.41,0.194434,284245,181660
1634.36,0.194419,274079,175169
1637.32,0.192024,266916,171534
1640.27,0.192176,259612,166782
1643.22,0.190739,251804,162302
1646.16,0.190015,244348,157759
1649.1,0.190157,236703,152773
1652.04,0.188301,228171,147897
1655.95,0.185097,215408,140658
1658.88,0.182195,204937,134718
1661.8,0.177093,193395,128633
1664.72,0.169521,179728,121645
1667.63,0.155947,163642,114274
1670.54,0.141217,146312,105697
1673.44,0.125987,128451,96106
1677.31,0.105851,105080,82351
1680.21,0.096494,88906,71193
1683.1,0.096450,75033,60090
1685.99,0.091053,63520,51506
1688.87,0.095248,53714,43136
1691.75,0.106594,45653,35717
1694.62,0.109785,39137,30395
1697.49,0.110522,33776,26187
1701.31,0.121484,28175,21300