File: samples/wool/wool-000811/Column 1_050590_20150331_121850.csv
Method:,Column 1,,
Host Date-Time:,31/3/15 @ 12:18:50,,
Header Version:,1,,
System Temp (C):,33.87,,
Detector Temp (C):,34.61,,
Humidity (%):,1.86,,
Lamp PD:,3818,,
Shift Vector Coefficients:,-10.5391,0.0761263,-0.000134223,,
Pixel to Wavelength Coefficients:,1775.68,-0.916766,-0.000235065,,
Serial Number:,5510004,,
Scan Config Name:,Column 1,,
Scan Config Type:,Slew,,
Section 1,,
Start wavelength (nm):,900,,
End wavelength (nm):,1700,,
Pattern Pixel Width (nm):,   7.03,,,,
Exposure (ms):,  0.635,,,,
Digital Resolution:,228,,
Num Repeats:,6,,
PGA Gain:,64,,
Total Measurement Time in sec:,  2.723,,
Wavelength (nm),Absorbance (AU),Reference Signal (unitless),Sample Signal (unitless)
901.51,0.068060,108485,92749
905.376,0.076135,121306,101800
909.237,0.076417,131909,110626
913.095,0.077786,143299,119800
916.948,0.078091,156982,131147
922.079,0.079278,179937,149914
925.923,0.081139,200504,166335
929.762,0.083051,222660,183904
933.597,0.082218,244426,202269
937.427,0.080951,263972,219082
941.254,0.080761,281845,234018
945.076,0.080368,297271,247050
950.165,0.079084,315605,263063
953.978,0.078282,328029,273924
957.786,0.078683,340470,284051
961.59,0.078846,352317,293824
965.389,0.079033,363056,302650
969.185,0.078810,373162,311234
972.976,0.079949,382632,318297
976.763,0.079231,391202,325964
981.806,0.080677,400190,332345
985.583,0.080523,406088,337363
989.355,0.081543,410162,339948
993.124,0.081513,412868,342214
996.888,0.081652,414263,343261
1000.65,0.082461,415476,343625
1004.4,0.084320,415479,342160
1009.41,0.085157,414358,340580
1013.15,0.085034,412923,339496
1016.89,0.086162,411526,337470
1020.63,0.085295,409066,336123
1024.36,0.086310,406777,333462
1028.09,0.086031,404427,331749
1031.82,0.085580,401911,330027
1036.78,0.085310,398410,327356
1040.49,0.085126,396204,325681
1044.2,0.084854,394236,324267
1047.91,0.084787,392042,322512
1051.61,0.085103,389823,320453
1055.31,0.083514,388234,320317
1059,0.083531,387599,319780
1063.92,0.082663,386688,319667
1067.61,0.082782,386598,319505
1071.29,0.081825,387377,320855
1074.96,0.081319,388536,322190
1078.63,0.081338,389855,323270
1082.3,0.080033,391215,325374
1085.96,0.079303,393215,327587
1090.84,0.078186,396270,330983
1094.49,0.077415,398760,333654
1098.14,0.077913,400987,335133
1101.79,0.077033,403477,337898
1105.43,0.076463,406116,340555
1109.06,0.075838,407701,342376
1112.7,0.075447,409859,344499
1117.53,0.074902,412494,347149
1121.15,0.075620,414909,348604
1124.77,0.075411,416559,350159
1128.38,0.076352,418532,351056
1131.99,0.077693,419956,351165
1135.6,0.079287,421946,351536
1139.2,0.080478,423881,352181
1143.99,0.082872,426786,352645
1147.58,0.083213,428617,353880
1151.17,0.084469,431169,354959
1154.75,0.085060,433579,356458
1158.33,0.086555,436264,357433
1161.91,0.088411,439132,358248
1165.48,0.090874,442389,358864
1169.04,0.092510,446101,360515
1173.79,0.095998,451929,362303
1177.34,0.098037,456026,363875
1180.9,0.100112,461306,366334
1184.44,0.102067,467657,369709
1187.99,0.102936,473969,373950
1191.52,0.103162,479856,378398
1195.06,0.102891,487372,384565
1199.76,0.102486,497347,392802
1203.29,0.101496,504311,399211
1206.81,0.101496,511507,404907
1210.33,0.100254,519078,412077
1213.84,0.099801,527163,418932
1217.35,0.099346,534208,424976
1220.85,0.098871,540472,430430
1225.51,0.097979,549929,438862
1229.01,0.097006,556888,445412
1232.5,0.096864,562180,449792
1235.98,0.096262,567975,455059
1239.46,0.095686,574815,461150
1242.94,0.094188,582782,469157
1246.41,0.093431,591476,476986
1251.03,0.093454,604016,487073
1254.5,0.094054,612289,493063
1257.96,0.094044,619125,498579
1261.41,0.094582,624551,502326
1264.86,0.095408,629900,505666
1268.31,0.095817,634345,508755
1271.75,0.096575,638574,511253
1276.33,0.097002,642499,513890
1279.76,0.096820,645905,516831
1283.19,0.095955,648307,519787
1286.61,0.095733,650446,521769
1290.03,0.095405,652132,523517
1293.44,0.094829,653907,525638
1296.85,0.094995,655963,527090
1301.39,0.094895,657349,528325
1304.8,0.094398,657558,529098
1308.19,0.094699,658515,529501
1311.58,0.094584,658804,529873
1314.97,0.095359,659011,529095
1318.36,0.095706,658272,528079
1321.73,0.096305,658022,527152
1326.23,0.096968,657870,526226
1329.6,0.098270,656482,523543
1332.97,0.098953,654926,521482
1336.33,0.099656,653727,519685
1339.69,0.101697,652497,516276
1343.04,0.103467,649913,512139
1346.39,0.104958,647671,508624
1349.73,0.107190,645338,504194
1354.18,0.109697,641175,498058
1357.52,0.112030,638376,493227
1360.85,0.113870,635805,489163
1364.17,0.115769,633413,485197
1367.49,0.118486,631026,480354
1370.81,0.120427,628050,475956
1374.12,0.122521,625034,471393
1378.54,0.125261,620272,464859
1381.84,0.128350,616892,459049
1385.14,0.132039,613613,452747
1388.43,0.136044,611526,447065
1391.72,0.140900,610663,441470
1395.01,0.145216,610634,437084
1398.29,0.149995,611700,433055
1402.66,0.157065,614051,427700
1405.93,0.162295,616268,424106
1409.2,0.167589,617795,420006
1412.46,0.172053,618872,416436
1415.72,0.176458,619795,412848
1418.98,0.180332,620495,409644
1422.23,0.183932,621087,406650
1426.56,0.188053,621375,402996
1429.8,0.189955,621616,401391
1433.04,0.192409,622129,399458
1436.27,0.194723,621526,396950
1439.5,0.196924,621113,394681
1442.72,0.199657,620921,392084
1445.94,0.201672,620270,389860
1450.23,0.205497,618860,385563
1453.44,0.208260,617697,382398
1456.64,0.210651,616264,379416
1459.85,0.213331,614413,375949
1463.04,0.216017,612307,372351
1466.24,0.219024,610032,368408
1469.43,0.222728,607345,363670
1473.67,0.228335,603789,356903
1476.85,0.233135,601175,351452
1480.02,0.238621,597737,345056
1483.19,0.244616,594479,338470
1486.36,0.249571,591232,332803
1489.52,0.254534,587853,327141
1492.68,0.258056,583875,322303
1496.89,0.259572,578062,317982
1500.03,0.260031,574159,315501
1503.18,0.259910,570285,313460
1506.32,0.258883,565444,311535
1509.45,0.257762,560571,309648
1512.58,0.257179,555821,307437
1515.71,0.254423,550344,306345
1519.87,0.251162,543983,305087
1522.99,0.248802,538764,303806
1526.1,0.246508,533692,302540
1529.21,0.243610,527902,301261
1532.32,0.241048,521886,299590
1535.42,0.237546,515888,298545
1538.51,0.234759,509987,297030
1541.6,0.231799,503936,295513
1545.72,0.228142,494694,292546
1548.8,0.225189,488378,290782
1551.88,0.223423,481832,288053
1554.95,0.221220,474989,285406
1558.02,0.219845,467818,281989
1561.08,0.217897,460730,278965
1564.15,0.217490,454170,275251
1568.22,0.216185,444181,270007
1571.27,0.216282,436947,265550
1574.32,0.214724,429598,262022
1577.36,0.213933,422039,257881
1580.4,0.212798,414375,253861
1583.43,0.210515,406354,250259
1586.46,0.209367,398475,246056
1590.49,0.206876,388982,241576
1593.51,0.205646,380708,237108
1596.53,0.202899,372727,233610
1599.54,0.201604,365060,229488
1602.55,0.198074,357543,226597
1605.55,0.197554,349495,221762
1608.55,0.195669,341154,217411
1612.54,0.193825,330877,211759
1615.53,0.191495,322904,207768
1618.51,0.190912,315116,203029
1621.49,0.189947,307217,198380
1624.47,0.189031,299481,193793
1627.44,0.187546,292112,189672
1630.41,0.185984,284245,185229
1634.36,0.185751,274079,178700
1637.32,0.184569,266916,174504
1640.27,0.184459,259612,169772
1643.22,0.182758,251804,165312
1646.16,0.182547,244348,160495
1649.1,0.181737,236703,155764
1652.04,0.179542,228171,150910
1655.95,0.176955,215408,143320
1658.88,0.172784,204937,137669
1661.8,0.167209,193395,131594
1664.72,0.159230,179728,124562
1667.63,0.147979,163642,116390
1670.54,0.134122,146312,107438
1673.44,0.116626,128451,98200
1677.31,0.096915,105080,84063
1680.21,0.089079,88906,72419
1683.1,0.082413,75033,62064
1685.99,0.081248,63520,52682
1688.87,0.082617,53714,44409
1691.75,0.091937,45653,36943
1694.62,0.099743,39137,31106
1697.49,0.101691,33776,26725
1701.31,0.110790,28175,21831