File: samples/wool/wool-000811/Column 1_050600_20150331_122332.csv
Method:,Column 1,,
Host Date-Time:,31/3/15 @ 12:23:32,,
Header Version:,1,,
System Temp (C):,33.97,,
Detector Temp (C):,34.75,,
Humidity (%):,1.76,,
Lamp PD:,3818,,
Shift Vector Coefficients:,-10.5391,0.0761263,-0.000134223,,
Pixel to Wavelength Coefficients:,1775.68,-0.916766,-0.000235065,,
Serial Number:,5510004,,
Scan Config Name:,Column 1,,
Scan Config Type:,Slew,,
Section 1,,
Start wavelength (nm):,900,,
End wavelength (nm):,1700,,
Pattern Pixel Width (nm):,   7.03,,,,
Exposure (ms):,  0.635,,,,
Digital Resolution:,228,,
Num Repeats:,6,,
PGA Gain:,64,,
Total Measurement Time in sec:,  2.682,,
Wavelength (nm),Absorbance (AU),Reference Signal (unitless),Sample Signal (unitless)
901.51,0.069209,108485,92504
905.376,0.074776,121306,102119
909.237,0.077266,131909,110410
913.095,0.079264,143299,119393
916.948,0.078771,156982,130942
922.079,0.080857,179937,149370
925.923,0.082429,200504,165842
929.762,0.083051,222660,183904
933.597,0.082386,244426,202191
937.427,0.081735,263972,218687
941.254,0.080071,281845,234390
945.076,0.079607,297271,247483
950.165,0.078376,315605,263492
953.978,0.078317,328029,273902
957.786,0.078565,340470,284128
961.59,0.078422,352317,294111
965.389,0.078352,363056,303125
969.185,0.078548,373162,311422
972.976,0.079056,382632,318952
976.763,0.079242,391202,325956
981.806,0.079490,400190,333255
985.583,0.080279,406088,337552
989.355,0.081192,410162,340223
993.124,0.080832,412868,342751
996.888,0.081375,414263,343480
1000.65,0.082619,415476,343500
1004.4,0.083710,415479,342641
1009.41,0.085100,414358,340624
1013.15,0.084789,412923,339688
1016.89,0.085834,411526,337725
1020.63,0.084919,409066,336414
1024.36,0.085834,406777,333828
1028.09,0.085484,404427,332167
1031.82,0.084885,401911,330556
1036.78,0.084713,398410,327806
1040.49,0.084154,396204,326411
1044.2,0.084978,394236,324174
1047.91,0.084004,392042,323094
1051.61,0.084096,389823,321197
1055.31,0.083862,388234,320060
1059,0.083244,387599,319992
1063.92,0.082184,386688,320020
1067.61,0.081484,386598,320461
1071.29,0.080745,387377,321654
1074.96,0.080868,388536,322525
1078.63,0.079802,389855,324415
1082.3,0.079495,391215,325777
1085.96,0.078697,393215,328045
1090.84,0.077656,396270,331387
1094.49,0.077298,398760,333744
1098.14,0.076180,400987,336473
1101.79,0.076365,403477,338418
1105.43,0.075910,406116,340989
1109.06,0.075057,407701,342993
1112.7,0.074673,409859,345113
1117.53,0.074503,412494,347468
1121.15,0.074953,414909,349140
1124.77,0.075627,416559,349985
1128.38,0.076011,418532,351332
1131.99,0.077663,419956,351189
1135.6,0.078781,421946,351946
1139.2,0.079816,423881,352718
1143.99,0.081597,426786,353682
1147.58,0.082764,428617,354246
1151.17,0.084041,431169,355309
1154.75,0.084280,433579,357099
1158.33,0.085737,436264,358107
1161.91,0.087227,439132,359226
1165.48,0.089495,442389,360006
1169.04,0.092068,446101,360882
1173.79,0.095256,451929,362923
1177.34,0.097065,456026,364691
1180.9,0.099465,461306,366880
1184.44,0.101281,467657,370379
1187.99,0.101920,473969,374826
1191.52,0.102041,479856,379376
1195.06,0.102166,487372,385207
1199.76,0.101310,497347,393867
1203.29,0.100974,504311,399691
1206.81,0.100512,511507,405826
1210.33,0.099205,519078,413074
1213.84,0.099357,527163,419361
1217.35,0.098548,534208,425758
1220.85,0.097650,540472,431642
1225.51,0.096842,549929,440012
1229.01,0.096616,556888,445812
1232.5,0.096066,562180,450619
1235.98,0.095338,567975,456028
1239.46,0.094531,574815,462378
1242.94,0.093341,582782,470073
1246.41,0.093234,591476,477203
1251.03,0.092719,604016,487899
1254.5,0.092606,612289,494710
1257.96,0.093057,619125,499714
1261.41,0.093869,624551,503152
1264.86,0.094069,629900,507227
1268.31,0.094785,634345,509965
1271.75,0.095237,638574,512831
1276.33,0.095726,642499,515402
1279.76,0.095713,645905,518150
1283.19,0.095334,648307,520531
1286.61,0.094902,650446,522768
1290.03,0.094560,652132,524536
1293.44,0.094001,653907,526641
1296.85,0.093689,655963,528677
1301.39,0.093116,657349,530494
1304.8,0.093510,657558,530181
1308.19,0.093416,658515,531067
1311.58,0.093703,658804,530950
1314.97,0.093951,659011,530813
1318.36,0.094675,658272,529335
1321.73,0.094552,658022,529283
1326.23,0.095630,657870,527850
1329.6,0.096567,656482,525601
1332.97,0.097266,654926,523511
1336.33,0.098186,653727,521447
1339.69,0.099438,652497,518968
1343.04,0.101540,649913,514417
1346.39,0.103495,647671,510340
1349.73,0.104974,645338,506773
1354.18,0.108134,641175,499853
1357.52,0.110407,638376,495073
1360.85,0.112503,635805,490706
1364.17,0.114193,633413,486961
1367.49,0.116455,631026,482605
1370.81,0.118723,628050,477828
1374.12,0.120474,625034,473620
1378.54,0.123917,620272,466300
1381.84,0.125933,616892,461611
1385.14,0.129707,613613,455185
1388.43,0.133465,611526,449728
1391.72,0.137780,610663,444653
1395.01,0.141736,610634,440601
1398.29,0.146570,611700,436484
1402.66,0.153055,614051,431668
1405.93,0.157599,616268,428717
1409.2,0.162906,617795,424559
1412.46,0.167391,618872,420930
1415.72,0.171047,619795,418024
1418.98,0.175409,620495,414314
1422.23,0.178420,621087,411844
1426.56,0.182600,621375,408088
1429.8,0.184694,621616,406283
1433.04,0.187088,622129,404383
1436.27,0.189461,621526,401789
1439.5,0.191268,621113,399855
1442.72,0.194075,620921,397156
1445.94,0.196503,620270,394528
1450.23,0.199976,618860,390496
1453.44,0.202752,617697,387279
1456.64,0.205140,616264,384261
1459.85,0.208153,614413,380459
1463.04,0.211150,612307,376547
1466.24,0.214188,610032,372533
1469.43,0.217800,607345,367820
1473.67,0.223743,603789,360697
1476.85,0.229472,601175,354429
1480.02,0.235643,597737,347430
1483.19,0.241479,594479,340924
1486.36,0.247349,591232,334510
1489.52,0.251399,587853,329511
1492.68,0.255527,583875,324185
1496.89,0.257054,578062,319831
1500.03,0.257440,574159,317389
1503.18,0.257345,570285,315317
1506.32,0.256976,565444,312906
1509.45,0.255281,560571,311422
1512.58,0.254092,555821,309630
1515.71,0.251738,550344,308245
1519.87,0.248471,543983,306983
1522.99,0.245918,538764,305830
1526.1,0.243869,533692,304384
1529.21,0.240531,527902,303405
1532.32,0.237879,521886,301784
1535.42,0.235127,515888,300212
1538.51,0.231934,509987,298968
1541.6,0.228918,503936,297480
1545.72,0.225852,494694,294093
1548.8,0.222400,488378,292655
1551.88,0.220171,481832,290218
1554.95,0.218724,474989,287051
1558.02,0.216221,467818,284352
1561.08,0.215545,460730,280480
1564.15,0.215429,454170,276560
1568.22,0.213475,444181,271697
1571.27,0.213498,436947,267258
1574.32,0.211972,429598,263688
1577.36,0.211050,422039,259599
1580.4,0.210144,414375,255417
1583.43,0.208688,406354,251314
1586.46,0.207316,398475,247221
1590.49,0.205822,388982,242163
1593.51,0.202843,380708,238643
1596.53,0.200880,372727,234699
1599.54,0.198301,365060,231240
1602.55,0.197400,357543,226949
1605.55,0.196019,349495,222547
1608.55,0.193141,341154,218680
1612.54,0.192065,330877,212619
1615.53,0.189251,322904,208844
1618.51,0.188579,315116,204123
1621.49,0.187283,307217,199601
1624.47,0.186535,299481,194910
1627.44,0.185844,292112,190417
1630.41,0.184689,284245,185782
1634.36,0.183478,274079,179638
1637.32,0.183379,266916,174983
1640.27,0.182909,259612,170379
1643.22,0.180322,251804,166242
1646.16,0.179879,244348,161484
1649.1,0.179016,236703,156743
1652.04,0.178140,228171,151398
1655.95,0.173767,215408,144376
1658.88,0.170284,204937,138464
1661.8,0.165414,193395,132139
1664.72,0.157803,179728,124972
1667.63,0.145750,163642,116989
1670.54,0.132166,146312,107923
1673.44,0.115173,128451,98529
1677.31,0.096265,105080,84189
1680.21,0.083614,88906,73336
1683.1,0.077362,75033,62790
1685.99,0.079348,63520,52913
1688.87,0.083076,53714,44362
1691.75,0.089744,45653,37130
1694.62,0.088688,39137,31908
1697.49,0.099470,33776,26862
1701.31,0.103081,28175,22222