File: samples/wool/wool-000811/Column 1_050621_20150331_123337.csv
Method:,Column 1,,
Host Date-Time:,31/3/15 @ 12:33:37,,
Header Version:,1,,
System Temp (C):,34.16,,
Detector Temp (C):,34.98,,
Humidity (%):,1.56,,
Lamp PD:,3818,,
Shift Vector Coefficients:,-10.5391,0.0761263,-0.000134223,,
Pixel to Wavelength Coefficients:,1775.68,-0.916766,-0.000235065,,
Serial Number:,5510004,,
Scan Config Name:,Column 1,,
Scan Config Type:,Slew,,
Section 1,,
Start wavelength (nm):,900,,
End wavelength (nm):,1700,,
Pattern Pixel Width (nm):,   7.03,,,,
Exposure (ms):,  0.635,,,,
Digital Resolution:,228,,
Num Repeats:,6,,
PGA Gain:,64,,
Total Measurement Time in sec:,  2.728,,
Wavelength (nm),Absorbance (AU),Reference Signal (unitless),Sample Signal (unitless)
901.51,0.069139,108485,92519
905.376,0.074007,121306,102300
909.237,0.077085,131909,110456
913.095,0.078251,143299,119672
916.948,0.079737,156982,130651
922.079,0.079736,179937,149756
925.923,0.081923,200504,166035
929.762,0.082437,222660,184164
933.597,0.083342,244426,201746
937.427,0.080482,263972,219319
941.254,0.080444,281845,234189
945.076,0.079260,297271,247681
950.165,0.078095,315605,263663
953.978,0.077237,328029,274584
957.786,0.077809,340470,284623
961.59,0.077268,352317,294894
965.389,0.077695,363056,303584
969.185,0.077953,373162,311849
972.976,0.077553,382632,320058
976.763,0.078380,391202,326604
981.806,0.078275,400190,334188
985.583,0.079227,406088,338371
989.355,0.079256,410162,341743
993.124,0.080230,412868,343227
996.888,0.080705,414263,344010
1000.65,0.081826,415476,344128
1004.4,0.082858,415479,343314
1009.41,0.083910,414358,341559
1013.15,0.084109,412923,340220
1016.89,0.085152,411526,338256
1020.63,0.084659,409066,336616
1024.36,0.085271,406777,334261
1028.09,0.084466,404427,332946
1031.82,0.084495,401911,330853
1036.78,0.084030,398410,328322
1040.49,0.083229,396204,327107
1044.2,0.084278,394236,324697
1047.91,0.083889,392042,323179
1051.61,0.083348,389823,321751
1055.31,0.082751,388234,320880
1059,0.082670,387599,320415
1063.92,0.081116,386688,320808
1067.61,0.080494,386598,321193
1071.29,0.080259,387377,322014
1074.96,0.079646,388536,323434
1078.63,0.079405,389855,324712
1082.3,0.078492,391215,326530
1085.96,0.077688,393215,328808
1090.84,0.076928,396270,331943
1094.49,0.076393,398760,334440
1098.14,0.075860,400987,336721
1101.79,0.075017,403477,339470
1105.43,0.074639,406116,341988
1109.06,0.074128,407701,343727
1112.7,0.073939,409859,345697
1117.53,0.073342,412494,348398
1121.15,0.074155,414909,349782
1124.77,0.073773,416559,351482
1128.38,0.075253,418532,351946
1131.99,0.076130,419956,352431
1135.6,0.076823,421946,353536
1139.2,0.078914,423881,353452
1143.99,0.080774,426786,354353
1147.58,0.081104,428617,355603
1151.17,0.081926,431169,357044
1154.75,0.083251,433579,357946
1158.33,0.084408,436264,359204
1161.91,0.086512,439132,359818
1165.48,0.088310,442389,360989
1169.04,0.090372,446101,362294
1173.79,0.093978,451929,363992
1177.34,0.095920,456026,365653
1180.9,0.098046,461306,368081
1184.44,0.099728,467657,371706
1187.99,0.100861,473969,375741
1191.52,0.101129,479856,380174
1195.06,0.100838,487372,386387
1199.76,0.100759,497347,394367
1203.29,0.099058,504311,401458
1206.81,0.099052,511507,407192
1210.33,0.098553,519078,413694
1213.84,0.097976,527163,420697
1217.35,0.097027,534208,427251
1220.85,0.096535,540472,432751
1225.51,0.095958,549929,440909
1229.01,0.095580,556888,446877
1232.5,0.094607,562180,452135
1235.98,0.094007,567975,457427
1239.46,0.092862,574815,464158
1242.94,0.092422,582782,471069
1246.41,0.091299,591476,479334
1251.03,0.091439,604016,489339
1254.5,0.091924,612289,495487
1257.96,0.092052,619125,500871
1261.41,0.092260,624551,505019
1264.86,0.092841,629900,508664
1268.31,0.093362,634345,511639
1271.75,0.094073,638574,514207
1276.33,0.094302,642499,517095
1279.76,0.094474,645905,519630
1283.19,0.093630,648307,522577
1286.61,0.093519,650446,524436
1290.03,0.092784,652132,526686
1293.44,0.092343,653907,528656
1296.85,0.092000,655963,530737
1301.39,0.092139,657349,531688
1304.8,0.091977,657558,532056
1308.19,0.092165,658515,532600
1311.58,0.092220,658804,532766
1314.97,0.092340,659011,532786
1318.36,0.092876,658272,531532
1321.73,0.093022,658022,531152
1326.23,0.094034,657870,529793
1329.6,0.094507,656482,528100
1332.97,0.095468,654926,525683
1336.33,0.096321,653727,523691
1339.69,0.097859,652497,520858
1343.04,0.099570,649913,516756
1346.39,0.101413,647671,512792
1349.73,0.103202,645338,508845
1354.18,0.105787,641175,502562
1357.52,0.107930,638376,497905
1360.85,0.109790,635805,493780
1364.17,0.112153,633413,489254
1367.49,0.113971,631026,485374
1370.81,0.116289,628050,480513
1374.12,0.118197,625034,476109
1378.54,0.121130,620272,469302
1381.84,0.123710,616892,463980
1385.14,0.127166,613613,457856
1388.43,0.130272,611526,453047
1391.72,0.134219,610663,448314
1395.01,0.138094,610634,444311
1398.29,0.142417,611700,440678
1402.66,0.148237,614051,436483
1405.93,0.153133,616268,433148
1409.2,0.157470,617795,429907
1412.46,0.161996,618872,426192
1415.72,0.164980,619795,423905
1418.98,0.168602,620495,420859
1422.23,0.171947,621087,418028
1426.56,0.175826,621375,414503
1429.8,0.178510,621616,412109
1433.04,0.180479,622129,410583
1436.27,0.183067,621526,407748
1439.5,0.185195,621113,405486
1442.72,0.187402,620921,403306
1445.94,0.190470,620270,400047
1450.23,0.193553,618860,396314
1453.44,0.196269,617697,393103
1456.64,0.199486,616264,389297
1459.85,0.201829,614413,386039
1463.04,0.205046,612307,381877
1466.24,0.207853,610032,378007
1469.43,0.211941,607345,372816
1473.67,0.218760,603789,364859
1476.85,0.224535,601175,358481
1480.02,0.231144,597737,351048
1483.19,0.237827,594479,343803
1486.36,0.243590,591232,337418
1489.52,0.248492,587853,331724
1492.68,0.252083,583875,326766
1496.89,0.254449,578062,321755
1500.03,0.254522,574159,319529
1503.18,0.254355,570285,317495
1506.32,0.254173,565444,314932
1509.45,0.252515,560571,313412
1512.58,0.251050,555821,311806
1515.71,0.248766,550344,310362
1519.87,0.245422,543983,309146
1522.99,0.242880,538764,307977
1526.1,0.240581,533692,306697
1529.21,0.237627,527902,305440
1532.32,0.234701,521886,304001
1535.42,0.231648,515888,302627
1538.51,0.229023,509987,300979
1541.6,0.225512,503936,299822
1545.72,0.221636,494694,296962
1548.8,0.218984,488378,294966
1551.88,0.216823,481832,292464
1554.95,0.215461,474989,289216
1558.02,0.213921,467818,285862
1561.08,0.212214,460730,282639
1564.15,0.210976,454170,279410
1568.22,0.210652,444181,273469
1571.27,0.210515,436947,269100
1574.32,0.208872,429598,265577
1577.36,0.208364,422039,261209
1580.4,0.207094,414375,257217
1583.43,0.204555,406354,253717
1586.46,0.204301,398475,248943
1590.49,0.203261,388982,243595
1593.51,0.199972,380708,240226
1596.53,0.198648,372727,235908
1599.54,0.196753,365060,232066
1602.55,0.194535,357543,228451
1605.55,0.192321,349495,224450
1608.55,0.190380,341154,220075
1612.54,0.188989,330877,214130
1615.53,0.187954,322904,209469
1618.51,0.186604,315116,205053
1621.49,0.185114,307217,200600
1624.47,0.183847,299481,196120
1627.44,0.182857,292112,191731
1630.41,0.182542,284245,186703
1634.36,0.179773,274079,181177
1637.32,0.179514,266916,176547
1640.27,0.179929,259612,171552
1643.22,0.178110,251804,167091
1646.16,0.179060,244348,161789
1649.1,0.178199,236703,157038
1652.04,0.176820,228171,151859
1655.95,0.172451,215408,144814
1658.88,0.169503,204937,138713
1661.8,0.164226,193395,132501
1664.72,0.157636,179728,125020
1667.63,0.143111,163642,117702
1670.54,0.129418,146312,108608
1673.44,0.113133,128451,98993
1677.31,0.091769,105080,85065
1680.21,0.081316,88906,73725
1683.1,0.075127,75033,63114
1685.99,0.072209,63520,53790
1688.87,0.078073,53714,44876
1691.75,0.076951,45653,38240
1694.62,0.090106,39137,31804
1697.49,0.088802,33776,27530
1701.31,0.094049,28175,22689