File: samples/wool/wool-000811/Column 1_050566_20150331_120715.csv
Method:,Column 1,,
Host Date-Time:,31/3/15 @ 12:7:15,,
Header Version:,1,,
System Temp (C):,33.91,,
Detector Temp (C):,33.76,,
Humidity (%):,1.86,,
Lamp PD:,3819,,
Shift Vector Coefficients:,-10.5391,0.0761263,-0.000134223,,
Pixel to Wavelength Coefficients:,1775.68,-0.916766,-0.000235065,,
Serial Number:,5510004,,
Scan Config Name:,Column 1,,
Scan Config Type:,Slew,,
Section 1,,
Start wavelength (nm):,900,,
End wavelength (nm):,1700,,
Pattern Pixel Width (nm):,   7.03,,,,
Exposure (ms):,  0.635,,,,
Digital Resolution:,228,,
Num Repeats:,6,,
PGA Gain:,64,,
Total Measurement Time in sec:,  2.674,,
Wavelength (nm),Absorbance (AU),Reference Signal (unitless),Sample Signal (unitless)
901.51,0.034675,108485,100160
905.376,0.041827,121306,110168
909.237,0.042249,131909,119681
913.095,0.043219,143299,129725
916.948,0.044857,156982,141577
922.079,0.045817,179937,161921
925.923,0.047466,200504,179745
929.762,0.047319,222660,199675
933.597,0.048762,244426,218467
937.427,0.048611,263972,236019
941.254,0.047149,281845,252849
945.076,0.046531,297271,267068
950.165,0.046412,315605,283617
953.978,0.045733,328029,295243
957.786,0.046369,340470,305992
961.59,0.046441,352317,316587
965.389,0.046971,363056,325839
969.185,0.046555,373162,335230
972.976,0.046807,382632,343538
976.763,0.047851,391202,350389
981.806,0.048515,400190,357891
985.583,0.048804,406088,362924
989.355,0.049649,410162,365853
993.124,0.049883,412868,368068
996.888,0.050954,414263,368402
1000.65,0.051449,415476,369060
1004.4,0.052219,415479,368409
1009.41,0.053814,414358,366068
1013.15,0.054509,412923,364217
1016.89,0.054644,411526,362872
1020.63,0.054709,409066,360649
1024.36,0.054851,406777,358513
1028.09,0.054594,404427,356653
1031.82,0.054150,401911,354797
1036.78,0.053879,398410,351926
1040.49,0.053626,396204,350181
1044.2,0.052937,394236,348995
1047.91,0.052227,392042,347621
1051.61,0.052017,389823,345820
1055.31,0.051390,388234,344908
1059,0.051511,387599,344248
1063.92,0.050766,386688,344029
1067.61,0.048862,386598,345460
1071.29,0.048513,387377,346434
1074.96,0.048177,388536,347740
1078.63,0.047869,389855,349168
1082.3,0.047164,391215,350955
1085.96,0.046361,393215,353402
1090.84,0.045731,396270,356665
1094.49,0.045106,398760,359423
1098.14,0.044984,400987,361532
1101.79,0.044665,403477,364044
1105.43,0.044478,406116,366583
1109.06,0.043950,407701,368461
1112.7,0.044164,409859,370229
1117.53,0.043986,412494,372762
1121.15,0.045194,414909,373903
1124.77,0.045712,416559,374942
1128.38,0.046847,418532,375735
1131.99,0.048465,419956,375611
1135.6,0.049798,421946,376235
1139.2,0.051574,423881,376418
1143.99,0.053776,426786,377081
1147.58,0.054882,428617,377735
1151.17,0.056517,431169,378556
1154.75,0.057503,433579,379809
1158.33,0.059541,436264,380372
1161.91,0.061473,439132,381173
1165.48,0.063623,442389,382104
1169.04,0.066158,446101,383067
1173.79,0.069837,451929,384798
1177.34,0.072308,456026,386084
1180.9,0.074780,461306,388337
1184.44,0.076555,467657,392078
1187.99,0.077145,473969,396830
1191.52,0.077116,479856,401786
1195.06,0.077332,487372,407876
1199.76,0.075683,497347,417808
1203.29,0.075252,504311,424079
1206.81,0.074413,511507,430962
1210.33,0.073730,519078,438029
1213.84,0.072755,527163,445851
1217.35,0.071834,534208,452769
1220.85,0.071626,540472,458297
1225.51,0.070665,549929,467349
1229.01,0.069913,556888,474083
1232.5,0.069176,562180,479401
1235.98,0.068534,567975,485060
1239.46,0.067338,574815,492255
1242.94,0.066178,582782,500413
1246.41,0.065699,591476,508438
1251.03,0.065734,604016,519176
1254.5,0.065836,612289,526163
1257.96,0.066231,619125,531554
1261.41,0.066401,624551,536003
1264.86,0.067562,629900,539150
1268.31,0.067989,634345,542421
1271.75,0.068984,638574,544788
1276.33,0.069183,642499,547885
1279.76,0.069041,645905,550969
1283.19,0.068499,648307,553709
1286.61,0.068024,650446,556144
1290.03,0.067774,652132,557906
1293.44,0.067581,653907,559674
1296.85,0.067427,655963,561632
1301.39,0.066969,657349,563413
1304.8,0.066988,657558,563568
1308.19,0.066858,658515,564557
1311.58,0.067112,658804,564474
1314.97,0.067879,659011,563655
1318.36,0.068426,658272,562315
1321.73,0.068503,658022,562002
1326.23,0.069857,657870,560123
1329.6,0.070156,656482,558556
1332.97,0.071495,654926,555517
1336.33,0.073009,653727,552570
1339.69,0.074281,652497,549917
1343.04,0.076022,649913,545548
1346.39,0.077857,647671,541374
1349.73,0.080750,645338,535843
1354.18,0.083483,641175,529046
1357.52,0.085692,638376,524064
1360.85,0.087994,635805,519194
1364.17,0.090227,633413,514588
1367.49,0.092776,631026,509649
1370.81,0.095398,628050,504192
1374.12,0.097642,625034,499185
1378.54,0.101097,620272,491457
1381.84,0.104484,616892,484981
1385.14,0.108275,613613,478211
1388.43,0.112552,611526,471914
1391.72,0.117420,610663,465995
1395.01,0.122464,610634,460593
1398.29,0.127117,611700,456480
1402.66,0.134454,614051,450558
1405.93,0.141096,616268,445321
1409.2,0.145805,617795,441611
1412.46,0.151343,618872,436775
1415.72,0.155867,619795,432894
1418.98,0.159870,620495,429406
1422.23,0.163929,621087,425817
1426.56,0.167793,621375,422241
1429.8,0.171460,621616,418854
1433.04,0.173805,622129,416942
1436.27,0.176039,621526,414401
1439.5,0.177769,621113,412479
1442.72,0.180526,620921,409742
1445.94,0.183124,620270,406871
1450.23,0.186643,618860,402670
1453.44,0.189817,617697,398987
1456.64,0.192862,616264,395280
1459.85,0.195685,614413,391539
1463.04,0.198382,612307,387782
1466.24,0.202146,610032,383007
1469.43,0.204864,607345,378941
1473.67,0.211402,603789,371093
1476.85,0.217443,601175,364383
1480.02,0.222994,597737,357698
1483.19,0.230611,594479,349563
1486.36,0.236444,591232,343016
1489.52,0.241063,587853,337447
1492.68,0.245557,583875,331713
1496.89,0.247270,578062,327118
1500.03,0.248589,574159,323924
1503.18,0.248084,570285,322113
1506.32,0.247161,565444,320058
1509.45,0.246333,560571,317905
1512.58,0.244295,555821,316694
1515.71,0.241901,550344,315307
1519.87,0.238776,543983,313913
1522.99,0.235838,538764,313012
1526.1,0.233459,533692,311768
1529.21,0.230648,527902,310388
1532.32,0.227284,521886,309237
1535.42,0.223931,515888,308052
1538.51,0.220608,509987,306868
1541.6,0.217488,503936,305413
1545.72,0.213499,494694,302578
1548.8,0.209434,488378,301524
1551.88,0.207283,481832,298960
1554.95,0.205895,474989,295657
1558.02,0.203774,467818,292619
1561.08,0.202263,460730,289190
1564.15,0.202052,454170,285211
1568.22,0.201020,444181,279602
1571.27,0.199584,436947,275959
1574.32,0.198969,429598,271702
1577.36,0.197454,422039,267854
1580.4,0.196539,414375,263545
1583.43,0.194195,406354,259842
1586.46,0.191488,398475,256397
1590.49,0.189899,388982,251206
1593.51,0.188029,380708,246924
1596.53,0.185790,372727,242997
1599.54,0.183530,365060,239240
1602.55,0.181701,357543,235303
1605.55,0.178956,349495,231465
1608.55,0.176559,341154,227191
1612.54,0.174640,330877,221323
1615.53,0.173134,322904,216740
1618.51,0.171664,315116,212230
1621.49,0.171072,307217,207192
1624.47,0.168010,299481,203404
1627.44,0.168001,292112,198403
1630.41,0.167328,284245,193359
1634.36,0.164722,274079,187566
1637.32,0.165314,266916,182415
1640.27,0.163558,259612,178142
1643.22,0.162429,251804,173234
1646.16,0.161943,244348,168293
1649.1,0.160954,236703,163399
1652.04,0.159241,228171,158132
1655.95,0.157669,215408,149828
1658.88,0.153783,204937,143826
1661.8,0.150102,193395,136881
1664.72,0.142920,179728,129329
1667.63,0.133113,163642,120443
1670.54,0.121965,146312,110488
1673.44,0.108720,128451,100004
1677.31,0.091024,105080,85211
1680.21,0.086686,88906,72819
1683.1,0.080966,75033,62271
1685.99,0.085831,63520,52129
1688.87,0.090950,53714,43565
1691.75,0.094165,45653,36754
1694.62,0.097599,39137,31260
1697.49,0.104527,33776,26551
1701.31,0.115792,28175,21581