File: samples/wool/wool-000811/Column 1_050575_20150331_121137.csv
Method:,Column 1,,
Host Date-Time:,31/3/15 @ 12:11:37,,
Header Version:,1,,
System Temp (C):,34.2,,
Detector Temp (C):,34.45,,
Humidity (%):,1.66,,
Lamp PD:,3818,,
Shift Vector Coefficients:,-10.5391,0.0761263,-0.000134223,,
Pixel to Wavelength Coefficients:,1775.68,-0.916766,-0.000235065,,
Serial Number:,5510004,,
Scan Config Name:,Column 1,,
Scan Config Type:,Slew,,
Section 1,,
Start wavelength (nm):,900,,
End wavelength (nm):,1700,,
Pattern Pixel Width (nm):,   7.03,,,,
Exposure (ms):,  0.635,,,,
Digital Resolution:,228,,
Num Repeats:,6,,
PGA Gain:,64,,
Total Measurement Time in sec:,  2.677,,
Wavelength (nm),Absorbance (AU),Reference Signal (unitless),Sample Signal (unitless)
901.51,0.034108,108485,100291
905.376,0.040206,121306,110580
909.237,0.042725,131909,119550
913.095,0.044577,143299,129320
916.948,0.045253,156982,141448
922.079,0.046547,179937,161649
925.923,0.048368,200504,179372
929.762,0.049718,222660,198575
933.597,0.048857,244426,218419
937.427,0.048696,263972,235973
941.254,0.048186,281845,252246
945.076,0.047354,297271,266562
950.165,0.047018,315605,283221
953.978,0.046018,328029,295049
957.786,0.046435,340470,305945
961.59,0.046460,352317,316573
965.389,0.046415,363056,326256
969.185,0.047201,373162,334731
972.976,0.046731,382632,343598
976.763,0.047949,391202,350310
981.806,0.048189,400190,358160
985.583,0.049032,406088,362734
989.355,0.049299,410162,366148
993.124,0.049913,412868,368043
996.888,0.050260,414263,368991
1000.65,0.051382,415476,369117
1004.4,0.052871,415479,367856
1009.41,0.053914,414358,365984
1013.15,0.054250,412923,364434
1016.89,0.054746,411526,362787
1020.63,0.054484,409066,360836
1024.36,0.054850,406777,358514
1028.09,0.054490,404427,356739
1031.82,0.053917,401911,354987
1036.78,0.053664,398410,352100
1040.49,0.053424,396204,350344
1044.2,0.053485,394236,348555
1047.91,0.053076,392042,346942
1051.61,0.052272,389823,345617
1055.31,0.051373,388234,344922
1059,0.051238,387599,344465
1063.92,0.049724,386688,344855
1067.61,0.049492,386598,344959
1071.29,0.048866,387377,346153
1074.96,0.048643,388536,347367
1078.63,0.047989,389855,349071
1082.3,0.046917,391215,351155
1085.96,0.046343,393215,353417
1090.84,0.045504,396270,356851
1094.49,0.045601,398760,359013
1098.14,0.044778,400987,361703
1101.79,0.044597,403477,364101
1105.43,0.044417,406116,366634
1109.06,0.043794,407701,368594
1112.7,0.043777,409859,370559
1117.53,0.043388,412494,373276
1121.15,0.044538,414909,374468
1124.77,0.045045,416559,375519
1128.38,0.046502,418532,376034
1131.99,0.047692,419956,376281
1135.6,0.049769,421946,376260
1139.2,0.051056,423881,376867
1143.99,0.053673,426786,377170
1147.58,0.054583,428617,377995
1151.17,0.055832,431169,379154
1154.75,0.056860,433579,380372
1158.33,0.058742,436264,381072
1161.91,0.060760,439132,381799
1165.48,0.062986,442389,382665
1169.04,0.065731,446101,383444
1173.79,0.069403,451929,385183
1177.34,0.071819,456026,386519
1180.9,0.074615,461306,388485
1184.44,0.075826,467657,392737
1187.99,0.076978,473969,396983
1191.52,0.076675,479856,402194
1195.06,0.076372,487372,408779
1199.76,0.075699,497347,417792
1203.29,0.075038,504311,424288
1206.81,0.073908,511507,431463
1210.33,0.073338,519078,438424
1213.84,0.073199,527163,445396
1217.35,0.071329,534208,453295
1220.85,0.070685,540472,459291
1225.51,0.070154,549929,467900
1229.01,0.069558,556888,474471
1232.5,0.068465,562180,480187
1235.98,0.068292,567975,485330
1239.46,0.067135,574815,492485
1242.94,0.066343,582782,500222
1246.41,0.065322,591476,508880
1251.03,0.065580,604016,519360
1254.5,0.065531,612289,526533
1257.96,0.065778,619125,532109
1261.41,0.066675,624551,535665
1264.86,0.067285,629900,539494
1268.31,0.067697,634345,542786
1271.75,0.068549,638574,545334
1276.33,0.068868,642499,548282
1279.76,0.068829,645905,551239
1283.19,0.068272,648307,553999
1286.61,0.067934,650446,556259
1290.03,0.067515,652132,558239
1293.44,0.066840,653907,560630
1296.85,0.066531,655963,562793
1301.39,0.066704,657349,563757
1304.8,0.066690,657558,563954
1308.19,0.066730,658515,564723
1311.58,0.066927,658804,564715
1314.97,0.067453,659011,564209
1318.36,0.067698,658272,563258
1321.73,0.068156,658022,562450
1326.23,0.068600,657870,561746
1329.6,0.069618,656482,559249
1332.97,0.070704,654926,556530
1336.33,0.071663,653727,554285
1339.69,0.073521,652497,550881
1343.04,0.074939,649913,546910
1346.39,0.077507,647671,541811
1349.73,0.079057,645338,537935
1354.18,0.082307,641175,530481
1357.52,0.084878,638376,525047
1360.85,0.086821,635805,520598
1364.17,0.089471,633413,515485
1367.49,0.091772,631026,510829
1370.81,0.094012,628050,505804
1374.12,0.096870,625034,500073
1378.54,0.099827,620272,492896
1381.84,0.102777,616892,486891
1385.14,0.107133,613613,479470
1388.43,0.111372,611526,473198
1391.72,0.115619,610663,467932
1395.01,0.120142,610634,463062
1398.29,0.125532,611700,458149
1402.66,0.132329,614051,452768
1405.93,0.137815,616268,448698
1409.2,0.142903,617795,444571
1412.46,0.148005,618872,440145
1415.72,0.152300,619795,436464
1418.98,0.156188,620495,433062
1422.23,0.159755,621087,429930
1426.56,0.163958,621375,425986
1429.8,0.165914,621616,424237
1433.04,0.169196,622129,421390
1436.27,0.171794,621526,418471
1439.5,0.173913,621113,416157
1442.72,0.176426,620921,413628
1445.94,0.178706,620270,411031
1450.23,0.182628,618860,406410
1453.44,0.185180,617697,403270
1456.64,0.188845,616264,398953
1459.85,0.191848,614413,395014
1463.04,0.194615,612307,391160
1466.24,0.198264,610032,386446
1469.43,0.201858,607345,381573
1473.67,0.207987,603789,374023
1476.85,0.214337,601175,366998
1480.02,0.220606,597737,359670
1483.19,0.227582,594479,352010
1486.36,0.234203,591232,344790
1489.52,0.240182,587853,338132
1492.68,0.243352,583875,333402
1496.89,0.245459,578062,328485
1500.03,0.245945,574159,325902
1503.18,0.246537,570285,323262
1506.32,0.245345,565444,321399
1509.45,0.244391,560571,319330
1512.58,0.242970,555821,317662
1515.71,0.239985,550344,316701
1519.87,0.236907,543983,315267
1522.99,0.234544,538764,313946
1526.1,0.231624,533692,313088
1529.21,0.227607,527902,312569
1532.32,0.225436,521886,310556
1535.42,0.222619,515888,308984
1538.51,0.219302,509987,307792
1541.6,0.215973,503936,306480
1545.72,0.210748,494694,304501
1548.8,0.207633,488378,302777
1551.88,0.205209,481832,300391
1554.95,0.202521,474989,297963
1558.02,0.201852,467818,293917
1561.08,0.200211,460730,290560
1564.15,0.199539,454170,286866
1568.22,0.198804,444181,281032
1571.27,0.197983,436947,276978
1574.32,0.196594,429598,273192
1577.36,0.195541,422039,269037
1580.4,0.194043,414375,265064
1583.43,0.192694,406354,260742
1586.46,0.190498,398475,256982
1590.49,0.188463,388982,252038
1593.51,0.186759,380708,247647
1596.53,0.183857,372727,244081
1599.54,0.181927,365060,240125
1602.55,0.179446,357543,236528
1605.55,0.177695,349495,232138
1608.55,0.175218,341154,227894
1612.54,0.173351,330877,221981
1615.53,0.171448,322904,217583
1618.51,0.169347,315116,213365
1621.49,0.168681,307217,208336
1624.47,0.167961,299481,203427
1627.44,0.167400,292112,198678
1630.41,0.169817,284245,192254
1634.36,0.163965,274079,187893
1637.32,0.162372,266916,183655
1640.27,0.161836,259612,178850
1643.22,0.160835,251804,173871
1646.16,0.159629,244348,169192
1649.1,0.159450,236703,163966
1652.04,0.157467,228171,158779
1655.95,0.154682,215408,150862
1658.88,0.152062,204937,144397
1661.8,0.146063,193395,138160
1664.72,0.139182,179728,130447
1667.63,0.127962,163642,121880
1670.54,0.116454,146312,111899
1673.44,0.101361,128451,101713
1677.31,0.083937,105080,86613
1680.21,0.075209,88906,74769
1683.1,0.067224,75033,64273
1685.99,0.072677,63520,53732
1688.87,0.075112,53714,45183
1691.75,0.080784,45653,37904
1694.62,0.083856,39137,32265
1697.49,0.087715,33776,27599
1701.31,0.100509,28175,22354