File: samples/wool/wool-000811/Column 1_050591_20150331_121933.csv
Method:,Column 1,,
Host Date-Time:,31/3/15 @ 12:19:33,,
Header Version:,1,,
System Temp (C):,33.88,,
Detector Temp (C):,34.64,,
Humidity (%):,1.81,,
Lamp PD:,3819,,
Shift Vector Coefficients:,-10.5391,0.0761263,-0.000134223,,
Pixel to Wavelength Coefficients:,1775.68,-0.916766,-0.000235065,,
Serial Number:,5510004,,
Scan Config Name:,Column 1,,
Scan Config Type:,Slew,,
Section 1,,
Start wavelength (nm):,900,,
End wavelength (nm):,1700,,
Pattern Pixel Width (nm):,   7.03,,,,
Exposure (ms):,  0.635,,,,
Digital Resolution:,228,,
Num Repeats:,6,,
PGA Gain:,64,,
Total Measurement Time in sec:,  2.684,,
Wavelength (nm),Absorbance (AU),Reference Signal (unitless),Sample Signal (unitless)
901.51,0.069129,108485,92521
905.376,0.075521,121306,101944
909.237,0.078215,131909,110169
913.095,0.078363,143299,119641
916.948,0.079202,156982,130812
922.079,0.081582,179937,149121
925.923,0.082426,200504,165843
929.762,0.082494,222660,184140
933.597,0.083452,244426,201695
937.427,0.081655,263972,218727
941.254,0.080956,281845,233913
945.076,0.079835,297271,247353
950.165,0.079140,315605,263029
953.978,0.078776,328029,273613
957.786,0.079065,340470,283801
961.59,0.079306,352317,293513
965.389,0.078227,363056,303212
969.185,0.079006,373162,311094
972.976,0.079324,382632,318755
976.763,0.080062,391202,325341
981.806,0.080031,400190,332840
985.583,0.080905,406088,337066
989.355,0.081510,410162,339974
993.124,0.082038,412868,341801
996.888,0.082676,414263,342452
1000.65,0.082658,415476,343469
1004.4,0.084004,415479,342409
1009.41,0.085694,414358,340159
1013.15,0.086054,412923,338700
1016.89,0.086393,411526,337291
1020.63,0.085609,409066,335880
1024.36,0.086304,406777,333467
1028.09,0.086304,404427,331540
1031.82,0.085950,401911,329746
1036.78,0.086065,398410,326787
1040.49,0.084617,396204,326063
1044.2,0.085428,394236,323838
1047.91,0.085250,392042,322168
1051.61,0.084588,389823,320833
1055.31,0.084521,388234,319575
1059,0.083959,387599,319465
1063.92,0.082584,386688,319725
1067.61,0.082233,386598,319909
1071.29,0.082351,387377,320467
1074.96,0.081667,388536,321932
1078.63,0.081078,389855,323463
1082.3,0.080599,391215,324950
1085.96,0.079541,393215,327408
1090.84,0.078577,396270,330685
1094.49,0.078350,398760,332937
1098.14,0.077602,400987,335373
1101.79,0.076822,403477,338062
1105.43,0.076595,406116,340451
1109.06,0.075868,407701,342353
1112.7,0.075937,409859,344110
1117.53,0.075612,412494,346582
1121.15,0.076051,414909,348259
1124.77,0.075550,416559,350047
1128.38,0.076722,418532,350757
1131.99,0.077889,419956,351006
1135.6,0.079626,421946,351262
1139.2,0.080939,423881,351807
1143.99,0.082768,426786,352730
1147.58,0.083094,428617,353977
1151.17,0.084751,431169,354729
1154.75,0.085528,433579,356074
1158.33,0.087376,436264,356758
1161.91,0.088460,439132,358208
1165.48,0.090799,442389,358926
1169.04,0.092887,446101,360202
1173.79,0.096542,451929,361850
1177.34,0.098682,456026,363335
1180.9,0.100468,461306,366034
1184.44,0.101881,467657,369868
1187.99,0.103459,473969,373500
1191.52,0.102997,479856,378542
1195.06,0.103437,487372,384082
1199.76,0.102557,497347,392738
1203.29,0.102066,504311,398687
1206.81,0.101230,511507,405155
1210.33,0.100406,519078,411933
1213.84,0.100128,527163,418617
1217.35,0.099530,534208,424796
1220.85,0.098448,540472,430849
1225.51,0.097756,549929,439087
1229.01,0.097638,556888,444764
1232.5,0.097909,562180,448711
1235.98,0.096831,567975,454463
1239.46,0.095453,574815,461397
1242.94,0.094368,582782,468963
1246.41,0.094027,591476,476332
1251.03,0.093991,604016,486472
1254.5,0.094153,612289,492951
1257.96,0.094396,619125,498176
1261.41,0.095024,624551,501815
1264.86,0.095460,629900,505605
1268.31,0.095764,634345,508817
1271.75,0.097041,638574,510705
1276.33,0.096787,642499,514145
1279.76,0.096398,645905,517333
1283.19,0.095932,648307,519815
1286.61,0.095580,650446,521953
1290.03,0.095664,652132,523205
1293.44,0.095036,653907,525388
1296.85,0.094821,655963,527301
1301.39,0.094776,657349,528470
1304.8,0.094557,657558,528904
1308.19,0.094894,658515,529263
1311.58,0.094494,658804,529983
1314.97,0.095325,659011,529137
1318.36,0.096061,658272,527648
1321.73,0.096309,658022,527147
1326.23,0.097064,657870,526109
1329.6,0.098112,656482,523734
1332.97,0.099030,654926,521390
1336.33,0.100333,653727,518876
1339.69,0.101672,652497,516305
1343.04,0.103169,649913,512491
1346.39,0.105087,647671,508473
1349.73,0.107064,645338,504340
1354.18,0.109952,641175,497765
1357.52,0.111959,638376,493307
1360.85,0.114008,635805,489008
1364.17,0.116131,633413,484793
1367.49,0.118428,631026,480418
1370.81,0.120578,628050,475791
1374.12,0.122446,625034,471474
1378.54,0.125603,620272,464493
1381.84,0.128427,616892,458968
1385.14,0.132165,613613,452616
1388.43,0.136154,611526,446952
1391.72,0.140362,610663,442018
1395.01,0.144546,610634,437759
1398.29,0.149661,611700,433389
1402.66,0.156736,614051,428024
1405.93,0.161619,616268,424767
1409.2,0.166864,617795,420708
1412.46,0.171742,618872,416734
1415.72,0.175906,619795,413373
1418.98,0.179856,620495,410093
1422.23,0.182633,621087,407868
1426.56,0.187027,621375,403949
1429.8,0.189697,621616,401629
1433.04,0.192342,622129,399520
1436.27,0.194241,621526,397391
1439.5,0.196203,621113,395337
1442.72,0.198349,620921,393267
1445.94,0.200755,620270,390684
1450.23,0.204389,618860,386548
1453.44,0.207025,617697,383487
1456.64,0.209712,616264,380237
1459.85,0.212910,614413,376314
1463.04,0.215505,612307,372790
1466.24,0.218174,610032,369129
1469.43,0.221691,607345,364539
1473.67,0.227133,603789,357892
1476.85,0.233092,601175,351487
1480.02,0.238363,597737,345261
1483.19,0.243916,594479,339016
1486.36,0.250117,591232,332385
1489.52,0.254243,587853,327360
1492.68,0.257333,583875,322840
1496.89,0.260124,578062,317578
1500.03,0.260099,574159,315452
1503.18,0.260373,570285,313126
1506.32,0.258909,565444,311516
1509.45,0.257955,560571,309511
1512.58,0.256472,555821,307938
1515.71,0.254208,550344,306497
1519.87,0.250564,543983,305507
1522.99,0.248947,538764,303705
1526.1,0.246446,533692,302583
1529.21,0.243426,527902,301389
1532.32,0.240288,521886,300115
1535.42,0.238157,515888,298125
1538.51,0.234981,509987,296878
1541.6,0.231856,503936,295474
1545.72,0.227892,494694,292715
1548.8,0.224510,488378,291237
1551.88,0.222583,481832,288611
1554.95,0.220656,474989,285777
1558.02,0.218664,467818,282757
1561.08,0.218042,460730,278872
1564.15,0.217269,454170,275391
1568.22,0.216142,444181,270034
1571.27,0.215464,436947,266051
1574.32,0.215259,429598,261700
1577.36,0.213800,422039,257960
1580.4,0.212503,414375,254033
1583.43,0.211328,406354,249791
1586.46,0.208886,398475,246329
1590.49,0.206887,388982,241570
1593.51,0.205627,380708,237118
1596.53,0.202996,372727,233558
1599.54,0.201701,365060,229437
1602.55,0.199431,357543,225890
1605.55,0.196748,349495,222174
1608.55,0.196343,341154,217074
1612.54,0.192807,330877,212256
1615.53,0.191771,322904,207636
1618.51,0.191128,315116,202928
1621.49,0.189562,307217,198556
1624.47,0.188216,299481,194157
1627.44,0.187723,292112,189595
1630.41,0.186716,284245,184917
1634.36,0.184892,274079,179054
1637.32,0.184721,266916,174443
1640.27,0.183863,259612,170005
1643.22,0.182609,251804,165369
1646.16,0.181377,244348,160928
1649.1,0.181369,236703,155896
1652.04,0.180361,228171,150626
1655.95,0.177422,215408,143166
1658.88,0.173896,204937,137317
1661.8,0.167916,193395,131380
1664.72,0.160155,179728,124297
1667.63,0.148640,163642,116213
1670.54,0.133484,146312,107596
1673.44,0.119070,128451,97649
1677.31,0.099761,105080,83514
1680.21,0.087074,88906,72754
1683.1,0.083470,75033,61913
1685.99,0.084193,63520,52326
1688.87,0.087999,53714,43862
1691.75,0.089978,45653,37110
1694.62,0.097654,39137,31256
1697.49,0.098759,33776,26906
1701.31,0.099810,28175,22390