File: samples/wool/wool-000811/Column 1_050595_20150331_122113.csv
Method:,Column 1,,
Host Date-Time:,31/3/15 @ 12:21:13,,
Header Version:,1,,
System Temp (C):,33.91,,
Detector Temp (C):,34.69,,
Humidity (%):,1.76,,
Lamp PD:,3818,,
Shift Vector Coefficients:,-10.5391,0.0761263,-0.000134223,,
Pixel to Wavelength Coefficients:,1775.68,-0.916766,-0.000235065,,
Serial Number:,5510004,,
Scan Config Name:,Column 1,,
Scan Config Type:,Slew,,
Section 1,,
Start wavelength (nm):,900,,
End wavelength (nm):,1700,,
Pattern Pixel Width (nm):,   7.03,,,,
Exposure (ms):,  0.635,,,,
Digital Resolution:,228,,
Num Repeats:,6,,
PGA Gain:,64,,
Total Measurement Time in sec:,  2.740,,
Wavelength (nm),Absorbance (AU),Reference Signal (unitless),Sample Signal (unitless)
901.51,0.070116,108485,92311
905.376,0.074529,121306,102177
909.237,0.078369,131909,110130
913.095,0.077692,143299,119826
916.948,0.079980,156982,130578
922.079,0.080410,179937,149524
925.923,0.082722,200504,165730
929.762,0.082437,222660,184164
933.597,0.083220,244426,201803
937.427,0.081771,263972,218669
941.254,0.081904,281845,233403
945.076,0.080422,297271,247019
950.165,0.078648,315605,263327
953.978,0.079118,328029,273397
957.786,0.077920,340470,284550
961.59,0.078639,352317,293964
965.389,0.078528,363056,303002
969.185,0.078544,373162,311425
972.976,0.079154,382632,318880
976.763,0.079996,391202,325391
981.806,0.080413,400190,332547
985.583,0.080612,406088,337294
989.355,0.080762,410162,340560
993.124,0.081480,412868,342240
996.888,0.081798,414263,343145
1000.65,0.082361,415476,343704
1004.4,0.083428,415479,342863
1009.41,0.084725,414358,340919
1013.15,0.085593,412923,339060
1016.89,0.085565,411526,337934
1020.63,0.085942,409066,335623
1024.36,0.085707,406777,333925
1028.09,0.085977,404427,331790
1031.82,0.085553,401911,330048
1036.78,0.085139,398410,327485
1040.49,0.084521,396204,326135
1044.2,0.084678,394236,324398
1047.91,0.084827,392042,322482
1051.61,0.084586,389823,320835
1055.31,0.084248,388234,319776
1059,0.083406,387599,319872
1063.92,0.082908,386688,319487
1067.61,0.082656,386598,319598
1071.29,0.081499,387377,321096
1074.96,0.082030,388536,321663
1078.63,0.080746,389855,323711
1082.3,0.079312,391215,325914
1085.96,0.079565,393215,327390
1090.84,0.077631,396270,331406
1094.49,0.077691,398760,333442
1098.14,0.077377,400987,335547
1101.79,0.076445,403477,338356
1105.43,0.075917,406116,340983
1109.06,0.075277,407701,342819
1112.7,0.074696,409859,345095
1117.53,0.075049,412494,347031
1121.15,0.075415,414909,348769
1124.77,0.075512,416559,350078
1128.38,0.076512,418532,350927
1131.99,0.077243,419956,351529
1135.6,0.079097,421946,351690
1139.2,0.080563,423881,352112
1143.99,0.082246,426786,353154
1147.58,0.083243,428617,353856
1151.17,0.084462,431169,354965
1154.75,0.085178,433579,356361
1158.33,0.086385,436264,357573
1161.91,0.088204,439132,358419
1165.48,0.089437,442389,360054
1169.04,0.092368,446101,360633
1173.79,0.096026,451929,362280
1177.34,0.097552,456026,364282
1180.9,0.099692,461306,366688
1184.44,0.102070,467657,369707
1187.99,0.103076,473969,373830
1191.52,0.102919,479856,378610
1195.06,0.102202,487372,385175
1199.76,0.101833,497347,393393
1203.29,0.101289,504311,399401
1206.81,0.100766,511507,405588
1210.33,0.099664,519078,412637
1213.84,0.099369,527163,419349
1217.35,0.099281,534208,425040
1220.85,0.098145,540472,431150
1225.51,0.097549,549929,439296
1229.01,0.097158,556888,445256
1232.5,0.096608,562180,450057
1235.98,0.095745,567975,455601
1239.46,0.094855,574815,462033
1242.94,0.094254,582782,469086
1246.41,0.093511,591476,476899
1251.03,0.093485,604016,487039
1254.5,0.093196,612289,494038
1257.96,0.093639,619125,499045
1261.41,0.094146,624551,502831
1264.86,0.094916,629900,506239
1268.31,0.095146,634345,509541
1271.75,0.095567,638574,512442
1276.33,0.096531,642499,514448
1279.76,0.096058,645905,517739
1283.19,0.095483,648307,520352
1286.61,0.095221,650446,522385
1290.03,0.095088,652132,523899
1293.44,0.094330,653907,526242
1296.85,0.094089,655963,528190
1301.39,0.094229,657349,529136
1304.8,0.093871,657558,529740
1308.19,0.094104,658515,530227
1311.58,0.094116,658804,530445
1314.97,0.094588,659011,530035
1318.36,0.095216,658272,528676
1321.73,0.095510,658022,528117
1326.23,0.096542,657870,526742
1329.6,0.096888,656482,525212
1332.97,0.097712,654926,522974
1336.33,0.098860,653727,520639
1339.69,0.100751,652497,517401
1343.04,0.102146,649913,513700
1346.39,0.104377,647671,509304
1349.73,0.106149,645338,505404
1354.18,0.108802,641175,499085
1357.52,0.110813,638376,494611
1360.85,0.113255,635805,489857
1364.17,0.114944,633413,486119
1367.49,0.117077,631026,481915
1370.81,0.119384,628050,477101
1374.12,0.121398,625034,472613
1378.54,0.124398,620272,465784
1381.84,0.127223,616892,460242
1385.14,0.130774,613613,454068
1388.43,0.134697,611526,448454
1391.72,0.139239,610663,443162
1395.01,0.143285,610634,439032
1398.29,0.148035,611700,435014
1402.66,0.154763,614051,429973
1405.93,0.160094,616268,426261
1409.2,0.165451,617795,422079
1412.46,0.169703,618872,418695
1415.72,0.173850,619795,415335
1418.98,0.176923,620495,412872
1422.23,0.180712,621087,409676
1426.56,0.184489,621375,406317
1429.8,0.187472,621616,403692
1433.04,0.189999,622129,401681
1436.27,0.192055,621526,399397
1439.5,0.194059,621113,397294
1442.72,0.196180,620921,395236
1445.94,0.199027,620270,392242
1450.23,0.202679,618860,388073
1453.44,0.204893,617697,385374
1456.64,0.207675,616264,382025
1459.85,0.210054,614413,378797
1463.04,0.213468,612307,374543
1466.24,0.216239,610032,370778
1469.43,0.220116,607345,365864
1473.67,0.225857,603789,358945
1476.85,0.231364,601175,352888
1480.02,0.236813,597737,346495
1483.19,0.242951,594479,339770
1486.36,0.248804,591232,333391
1489.52,0.253556,587853,327878
1492.68,0.256957,583875,323119
1496.89,0.258143,578062,319030
1500.03,0.258763,574159,316424
1503.18,0.258889,570285,314198
1506.32,0.258449,565444,311846
1509.45,0.257042,560571,310162
1512.58,0.255442,555821,308669
1515.71,0.252628,550344,307614
1519.87,0.249426,543983,306309
1522.99,0.247823,538764,304492
1526.1,0.244559,533692,303901
1529.21,0.241959,527902,302409
1532.32,0.239451,521886,300694
1535.42,0.236738,515888,299101
1538.51,0.233210,509987,298091
1541.6,0.230870,503936,296146
1545.72,0.226328,494694,293771
1548.8,0.223590,488378,291854
1551.88,0.221162,481832,289557
1554.95,0.219523,474989,286524
1558.02,0.218803,467818,282666
1561.08,0.216405,460730,279925
1564.15,0.216415,454170,275933
1568.22,0.215532,444181,270413
1571.27,0.214780,436947,266470
1574.32,0.213647,429598,262673
1577.36,0.213253,422039,258285
1580.4,0.211382,414375,254690
1583.43,0.210203,406354,250439
1586.46,0.208327,398475,246646
1590.49,0.205963,388982,242084
1593.51,0.203747,380708,238147
1596.53,0.201956,372727,234118
1599.54,0.199967,365060,230355
1602.55,0.197967,357543,226653
1605.55,0.196008,349495,222553
1608.55,0.194446,341154,218024
1612.54,0.191683,330877,212806
1615.53,0.190361,322904,208311
1618.51,0.190241,315116,203343
1621.49,0.188385,307217,199095
1624.47,0.186312,299481,195010
1627.44,0.186428,292112,190161
1630.41,0.186528,284245,184997
1634.36,0.184395,274079,179259
1637.32,0.184154,266916,174671
1640.27,0.183322,259612,170217
1643.22,0.181764,251804,165691
1646.16,0.181434,244348,160907
1649.1,0.179712,236703,156492
1652.04,0.179977,228171,150759
1655.95,0.177164,215408,143251
1658.88,0.172207,204937,137852
1661.8,0.165766,193395,132032
1664.72,0.159063,179728,124610
1667.63,0.146686,163642,116737
1670.54,0.133661,146312,107552
1673.44,0.116215,128451,98293
1677.31,0.097318,105080,83985
1680.21,0.082691,88906,73492
1683.1,0.080841,75033,62289
1685.99,0.081314,63520,52674
1688.87,0.085255,53714,44140
1691.75,0.088261,45653,37257
1694.62,0.098600,39137,31188
1697.49,0.101886,33776,26713
1701.31,0.108568,28175,21943