File: samples/wool/wool-000811/Column 1_050620_20150331_123303.csv
Method:,Column 1,,
Host Date-Time:,31/3/15 @ 12:33:3,,
Header Version:,1,,
System Temp (C):,34.11,,
Detector Temp (C):,35.01,,
Humidity (%):,1.66,,
Lamp PD:,3818,,
Shift Vector Coefficients:,-10.5391,0.0761263,-0.000134223,,
Pixel to Wavelength Coefficients:,1775.68,-0.916766,-0.000235065,,
Serial Number:,5510004,,
Scan Config Name:,Column 1,,
Scan Config Type:,Slew,,
Section 1,,
Start wavelength (nm):,900,,
End wavelength (nm):,1700,,
Pattern Pixel Width (nm):,   7.03,,,,
Exposure (ms):,  0.635,,,,
Digital Resolution:,228,,
Num Repeats:,6,,
PGA Gain:,64,,
Total Measurement Time in sec:,  2.674,,
Wavelength (nm),Absorbance (AU),Reference Signal (unitless),Sample Signal (unitless)
901.51,0.066756,108485,93028
905.376,0.073718,121306,102368
909.237,0.076190,131909,110684
913.095,0.077746,143299,119811
916.948,0.078728,156982,130955
922.079,0.079583,179937,149809
925.923,0.081027,200504,166378
929.762,0.081648,222660,184499
933.597,0.081570,244426,202571
937.427,0.080769,263972,219174
941.254,0.080144,281845,234351
945.076,0.077426,297271,248729
950.165,0.077311,315605,264139
953.978,0.076971,328029,274752
957.786,0.076875,340470,285236
961.59,0.077007,352317,295071
965.389,0.077379,363056,303805
969.185,0.077476,373162,312192
972.976,0.077709,382632,319943
976.763,0.078074,391202,326834
981.806,0.078325,400190,334150
985.583,0.078941,406088,338594
989.355,0.079457,410162,341585
993.124,0.080403,412868,343090
996.888,0.080337,414263,344302
1000.65,0.080713,415476,345011
1004.4,0.082046,415479,343956
1009.41,0.083404,414358,341957
1013.15,0.084062,412923,340257
1016.89,0.084736,411526,338580
1020.63,0.084539,409066,336709
1024.36,0.084358,406777,334964
1028.09,0.083674,404427,333554
1031.82,0.083577,401911,331553
1036.78,0.083388,398410,328808
1040.49,0.084037,396204,326499
1044.2,0.083037,394236,325626
1047.91,0.083054,392042,323801
1051.61,0.082946,389823,322049
1055.31,0.082865,388234,320796
1059,0.082610,387599,320459
1063.92,0.081252,386688,320707
1067.61,0.080507,386598,321183
1071.29,0.079500,387377,322577
1074.96,0.079372,388536,323638
1078.63,0.078490,389855,325397
1082.3,0.078213,391215,326740
1085.96,0.076748,393215,329520
1090.84,0.076355,396270,332381
1094.49,0.076051,398760,334704
1098.14,0.074881,400987,337481
1101.79,0.074797,403477,339642
1105.43,0.074109,406116,342406
1109.06,0.073269,407701,344408
1112.7,0.073295,409859,346210
1117.53,0.072233,412494,349289
1121.15,0.073292,414909,350478
1124.77,0.073887,416559,351390
1128.38,0.074263,418532,352749
1131.99,0.075771,419956,352722
1135.6,0.076718,421946,353622
1139.2,0.078471,423881,353812
1143.99,0.080547,426786,354538
1147.58,0.081053,428617,355645
1151.17,0.081596,431169,357315
1154.75,0.082292,433579,358737
1158.33,0.083873,436264,359647
1161.91,0.085518,439132,360643
1165.48,0.087887,442389,361341
1169.04,0.090517,446101,362173
1173.79,0.093238,451929,364613
1177.34,0.095456,456026,366044
1180.9,0.097475,461306,368565
1184.44,0.099887,467657,371570
1187.99,0.100149,473969,376358
1191.52,0.100209,479856,380980
1195.06,0.100608,487372,386592
1199.76,0.099817,497347,395223
1203.29,0.098933,504311,401574
1206.81,0.098145,511507,408044
1210.33,0.097574,519078,414628
1213.84,0.097687,527163,420977
1217.35,0.096698,534208,427575
1220.85,0.095800,540472,433484
1225.51,0.095069,549929,441812
1229.01,0.094767,556888,447714
1232.5,0.094143,562180,452619
1235.98,0.093805,567975,457640
1239.46,0.092764,574815,464263
1242.94,0.091420,582782,472157
1246.41,0.090953,591476,479716
1251.03,0.091018,604016,489813
1254.5,0.091377,612289,496112
1257.96,0.091780,619125,501185
1261.41,0.091958,624551,505370
1264.86,0.092316,629900,509279
1268.31,0.093212,634345,511816
1271.75,0.093794,638574,514538
1276.33,0.093828,642499,517660
1279.76,0.093947,645905,520261
1283.19,0.093331,648307,522938
1286.61,0.092717,650446,525405
1290.03,0.092265,652132,527316
1293.44,0.091980,653907,529098
1296.85,0.091883,655963,530880
1301.39,0.091924,657349,531951
1304.8,0.091542,657558,532589
1308.19,0.091891,658515,532935
1311.58,0.091905,658804,533152
1314.97,0.092208,659011,532948
1318.36,0.092768,658272,531664
1321.73,0.093065,658022,531099
1326.23,0.093911,657870,529943
1329.6,0.094587,656482,528002
1332.97,0.095145,654926,526075
1336.33,0.095912,653727,524185
1339.69,0.097504,652497,521284
1343.04,0.099087,649913,517331
1346.39,0.100735,647671,513594
1349.73,0.103017,645338,509061
1354.18,0.105655,641175,502715
1357.52,0.107512,638376,498385
1360.85,0.109364,635805,494265
1364.17,0.111470,633413,490024
1367.49,0.113881,631026,485474
1370.81,0.115975,628050,480861
1374.12,0.117747,625034,476603
1378.54,0.120768,620272,469693
1381.84,0.123610,616892,464087
1385.14,0.126167,613613,458910
1388.43,0.129818,611526,453521
1391.72,0.134017,610663,448523
1395.01,0.137788,610634,444624
1398.29,0.142032,611700,441069
1402.66,0.147632,614051,437092
1405.93,0.152473,616268,433807
1409.2,0.157152,617795,430222
1412.46,0.160984,618872,427186
1415.72,0.165183,619795,423706
1418.98,0.168663,620495,420800
1422.23,0.171874,621087,418098
1426.56,0.175683,621375,414640
1429.8,0.178149,621616,412452
1433.04,0.180524,622129,410541
1436.27,0.182968,621526,407841
1439.5,0.184731,621113,405919
1442.72,0.187324,620921,403378
1445.94,0.189647,620270,400806
1450.23,0.193061,618860,396763
1453.44,0.196501,617697,392893
1456.64,0.199146,616264,389602
1459.85,0.201539,614413,386297
1463.04,0.204873,612307,382029
1466.24,0.207988,610032,377889
1469.43,0.212397,607345,372425
1473.67,0.219010,603789,364649
1476.85,0.224150,601175,358799
1480.02,0.230375,597737,351670
1483.19,0.237270,594479,344244
1486.36,0.243852,591232,337214
1489.52,0.248409,587853,331787
1492.68,0.251524,583875,327187
1496.89,0.253846,578062,322202
1500.03,0.254021,574159,319898
1503.18,0.254266,570285,317560
1506.32,0.253253,565444,315600
1509.45,0.251868,560571,313879
1512.58,0.250591,555821,312136
1515.71,0.248086,550344,310848
1519.87,0.244814,543983,309579
1522.99,0.242573,538764,308195
1526.1,0.240305,533692,306892
1529.21,0.237312,527902,305662
1532.32,0.233755,521886,304664
1535.42,0.231170,515888,302960
1538.51,0.228491,509987,301348
1541.6,0.225586,503936,299771
1545.72,0.221302,494694,297190
1548.8,0.218100,488378,295567
1551.88,0.216575,481832,292631
1554.95,0.214410,474989,289917
1558.02,0.212901,467818,286534
1561.08,0.212173,460730,282666
1564.15,0.211842,454170,278854
1568.22,0.210244,444181,273726
1571.27,0.209458,436947,269756
1574.32,0.208350,429598,265896
1577.36,0.207516,422039,261720
1580.4,0.206181,414375,257758
1583.43,0.204759,406354,253598
1586.46,0.203755,398475,249256
1590.49,0.201683,388982,244482
1593.51,0.199123,380708,240696
1596.53,0.197007,372727,236801
1599.54,0.196461,365060,232222
1602.55,0.193696,357543,228893
1605.55,0.191755,349495,224743
1608.55,0.190346,341154,220092
1612.54,0.188276,330877,214482
1615.53,0.186102,322904,210364
1618.51,0.185426,315116,205610
1621.49,0.184273,307217,200989
1624.47,0.183217,299481,196405
1627.44,0.182038,292112,192093
1630.41,0.180458,284245,187601
1634.36,0.180293,274079,180960
1637.32,0.179566,266916,176526
1640.27,0.178875,259612,171969
1643.22,0.178354,251804,166997
1646.16,0.176990,244348,162562
1649.1,0.176058,236703,157814
1652.04,0.174055,228171,152829
1655.95,0.171984,215408,144970
1658.88,0.167900,204937,139226
1661.8,0.162999,193395,132876
1664.72,0.153811,179728,126126
1667.63,0.142156,163642,117961
1670.54,0.126064,146312,109450
1673.44,0.110304,128451,99640
1677.31,0.088372,105080,85733
1680.21,0.078961,88906,74126
1683.1,0.070908,75033,63730
1685.99,0.071491,63520,53879
1688.87,0.072946,53714,45409
1691.75,0.079103,45653,38051
1694.62,0.085299,39137,32158
1697.49,0.089102,33776,27511
1701.31,0.091529,28175,22821