File: samples/wool/wool-000811/Column 1_050602_20150331_122426.csv
Method:,Column 1,,
Host Date-Time:,31/3/15 @ 12:24:26,,
Header Version:,1,,
System Temp (C):,34.02,,
Detector Temp (C):,34.77,,
Humidity (%):,1.76,,
Lamp PD:,3818,,
Shift Vector Coefficients:,-10.5391,0.0761263,-0.000134223,,
Pixel to Wavelength Coefficients:,1775.68,-0.916766,-0.000235065,,
Serial Number:,5510004,,
Scan Config Name:,Column 1,,
Scan Config Type:,Slew,,
Section 1,,
Start wavelength (nm):,900,,
End wavelength (nm):,1700,,
Pattern Pixel Width (nm):,   7.03,,,,
Exposure (ms):,  0.635,,,,
Digital Resolution:,228,,
Num Repeats:,6,,
PGA Gain:,64,,
Total Measurement Time in sec:,  2.670,,
Wavelength (nm),Absorbance (AU),Reference Signal (unitless),Sample Signal (unitless)
901.51,0.068862,108485,92578
905.376,0.078110,121306,101338
909.237,0.077821,131909,110269
913.095,0.077467,143299,119888
916.948,0.078618,156982,130988
922.079,0.080642,179937,149444
925.923,0.082012,200504,166001
929.762,0.082548,222660,184117
933.597,0.082495,244426,202140
937.427,0.081199,263972,218957
941.254,0.080329,281845,234251
945.076,0.079691,297271,247435
950.165,0.078485,315605,263426
953.978,0.078021,328029,274089
957.786,0.078805,340470,283971
961.59,0.077862,352317,294491
965.389,0.077968,363056,303393
969.185,0.077988,373162,311824
972.976,0.077868,382632,319826
976.763,0.079064,391202,326090
981.806,0.079448,400190,333287
985.583,0.079777,406088,337943
989.355,0.080697,410162,340611
993.124,0.081623,412868,342128
996.888,0.081185,414263,343630
1000.65,0.082200,415476,343832
1004.4,0.083679,415479,342665
1009.41,0.085097,414358,340627
1013.15,0.085077,412923,339463
1016.89,0.085432,411526,338038
1020.63,0.085547,409066,335928
1024.36,0.085154,406777,334351
1028.09,0.085048,404427,332500
1031.82,0.085553,401911,330048
1036.78,0.085078,398410,327531
1040.49,0.084825,396204,325907
1044.2,0.084551,394236,324493
1047.91,0.084312,392042,322865
1051.61,0.083832,389823,321392
1055.31,0.083150,388234,320585
1059,0.083097,387599,320100
1063.92,0.082171,386688,320029
1067.61,0.081722,386598,320286
1071.29,0.081285,387377,321254
1074.96,0.080572,388536,322745
1078.63,0.080436,389855,323942
1082.3,0.079219,391215,325984
1085.96,0.078052,393215,328532
1090.84,0.077166,396270,331761
1094.49,0.076809,398760,334120
1098.14,0.076580,400987,336163
1101.79,0.075742,403477,338904
1105.43,0.075378,406116,341407
1109.06,0.074582,407701,343368
1112.7,0.074284,409859,345422
1117.53,0.074610,412494,347382
1121.15,0.074800,414909,349263
1124.77,0.074691,416559,350740
1128.38,0.075474,418532,351767
1131.99,0.076797,419956,351890
1135.6,0.077891,421946,352668
1139.2,0.080008,423881,352562
1143.99,0.080982,426786,354183
1147.58,0.082295,428617,354629
1151.17,0.082904,431169,356241
1154.75,0.084119,433579,357231
1158.33,0.085337,436264,358437
1161.91,0.087135,439132,359302
1165.48,0.089355,442389,360122
1169.04,0.091640,446101,361238
1173.79,0.095085,451929,363066
1177.34,0.097367,456026,364437
1180.9,0.099536,461306,366820
1184.44,0.100858,467657,370740
1187.99,0.102014,473969,374745
1191.52,0.101903,479856,379497
1195.06,0.101526,487372,385775
1199.76,0.101218,497347,393950
1203.29,0.099934,504311,400649
1206.81,0.100191,511507,406126
1210.33,0.099424,519078,412866
1213.84,0.099062,527163,419646
1217.35,0.098112,534208,426185
1220.85,0.097278,540472,432011
1225.51,0.096243,549929,440619
1229.01,0.096152,556888,446289
1232.5,0.095642,562180,451059
1235.98,0.094899,567975,456489
1239.46,0.093815,574815,463141
1242.94,0.093141,582782,470289
1246.41,0.092341,591476,478185
1251.03,0.092171,604016,488514
1254.5,0.092889,612289,494388
1257.96,0.092887,619125,499909
1261.41,0.093509,624551,503569
1264.86,0.093894,629900,507432
1268.31,0.094411,634345,510404
1271.75,0.095368,638574,512676
1276.33,0.095308,642499,515899
1279.76,0.095159,645905,518812
1283.19,0.094735,648307,521250
1286.61,0.094106,650446,523727
1290.03,0.093790,652132,525467
1293.44,0.093673,653907,527039
1296.85,0.093384,655963,529048
1301.39,0.092672,657349,531036
1304.8,0.092777,657558,531077
1308.19,0.093452,658515,531024
1311.58,0.093276,658804,531472
1314.97,0.093362,659011,531534
1318.36,0.094617,658272,529406
1321.73,0.094169,658022,529750
1326.23,0.095483,657870,528028
1329.6,0.096085,656482,526184
1332.97,0.096882,654926,523974
1336.33,0.098056,653727,521604
1339.69,0.099750,652497,518595
1343.04,0.101000,649913,515057
1346.39,0.103020,647671,510898
1349.73,0.104932,645338,506822
1354.18,0.107854,641175,500176
1357.52,0.109697,638376,495883
1360.85,0.111518,635805,491820
1364.17,0.113621,633413,487602
1367.49,0.115756,631026,483383
1370.81,0.117962,628050,478666
1374.12,0.120330,625034,473777
1378.54,0.123091,620272,467187
1381.84,0.125786,616892,461767
1385.14,0.129293,613613,455619
1388.43,0.132833,611526,450383
1391.72,0.137632,610663,444805
1395.01,0.141371,610634,440971
1398.29,0.145711,611700,437348
1402.66,0.151612,614051,433104
1405.93,0.157138,616268,429172
1409.2,0.161909,617795,425535
1412.46,0.166428,618872,421864
1415.72,0.170584,619795,418470
1418.98,0.173985,620495,415674
1422.23,0.177378,621087,412833
1426.56,0.181678,621375,408955
1429.8,0.184310,621616,406642
1433.04,0.186781,622129,404669
1436.27,0.188762,621526,402436
1439.5,0.190575,621113,400494
1442.72,0.193043,620921,398101
1445.94,0.195646,620270,395307
1450.23,0.198672,618860,391670
1453.44,0.202347,617697,387640
1456.64,0.204780,616264,384580
1459.85,0.207183,614413,381309
1463.04,0.209944,612307,377594
1466.24,0.213227,610032,373358
1469.43,0.217113,607345,368402
1473.67,0.223514,603789,360887
1476.85,0.228667,601175,355086
1480.02,0.234992,597737,347951
1483.19,0.241303,594479,341062
1486.36,0.246598,591232,335089
1489.52,0.251031,587853,329790
1492.68,0.255038,583875,324550
1496.89,0.256106,578062,320530
1500.03,0.257444,574159,317386
1503.18,0.257057,570285,315526
1506.32,0.256408,565444,313315
1509.45,0.256166,560571,310788
1512.58,0.253122,555821,310322
1515.71,0.251143,550344,308668
1519.87,0.248163,543983,307201
1522.99,0.246096,538764,305705
1526.1,0.243197,533692,304855
1529.21,0.240043,527902,303746
1532.32,0.237559,521886,302007
1535.42,0.234890,515888,300376
1538.51,0.231640,509987,299171
1541.6,0.228620,503936,297684
1545.72,0.225465,494694,294355
1548.8,0.222578,488378,292535
1551.88,0.219419,481832,290721
1554.95,0.218294,474989,287336
1558.02,0.216059,467818,284458
1561.08,0.214700,460730,281026
1564.15,0.215106,454170,276766
1568.22,0.212635,444181,272223
1571.27,0.212417,436947,267924
1574.32,0.212031,429598,263652
1577.36,0.211068,422039,259588
1580.4,0.209712,414375,255671
1583.43,0.207728,406354,251870
1586.46,0.205470,398475,248274
1590.49,0.204034,388982,243162
1593.51,0.202605,380708,238774
1596.53,0.201102,372727,234579
1599.54,0.198307,365060,231237
1602.55,0.196809,357543,227258
1605.55,0.195027,349495,223056
1608.55,0.192933,341154,218785
1612.54,0.191550,330877,212871
1615.53,0.189628,322904,208663
1618.51,0.187909,315116,204438
1621.49,0.187677,307217,199420
1624.47,0.185694,299481,195288
1627.44,0.185531,292112,190554
1630.41,0.184362,284245,185922
1634.36,0.183183,274079,179760
1637.32,0.182036,266916,175525
1640.27,0.182336,259612,170604
1643.22,0.180719,251804,166090
1646.16,0.178695,244348,161925
1649.1,0.178584,236703,156899
1652.04,0.177636,228171,151574
1655.95,0.174230,215408,144222
1658.88,0.170321,204937,138452
1661.8,0.165381,193395,132149
1664.72,0.158885,179728,124661
1667.63,0.145794,163642,116977
1670.54,0.131937,146312,107980
1673.44,0.113818,128451,98837
1677.31,0.095214,105080,84393
1680.21,0.085097,88906,73086
1683.1,0.078255,75033,62661
1685.99,0.078733,63520,52988
1688.87,0.088594,53714,43802
1691.75,0.089779,45653,37127
1694.62,0.096308,39137,31353
1697.49,0.096377,33776,27054
1701.31,0.112524,28175,21744