File: samples/wool/wool-000811/Column 1_050575_20150331_121149.csv
Method:,Column 1,,
Host Date-Time:,31/3/15 @ 12:11:49,,
Header Version:,1,,
System Temp (C):,34.22,,
Detector Temp (C):,34.45,,
Humidity (%):,1.66,,
Lamp PD:,3818,,
Shift Vector Coefficients:,-10.5391,0.0761263,-0.000134223,,
Pixel to Wavelength Coefficients:,1775.68,-0.916766,-0.000235065,,
Serial Number:,5510004,,
Scan Config Name:,Column 1,,
Scan Config Type:,Slew,,
Section 1,,
Start wavelength (nm):,900,,
End wavelength (nm):,1700,,
Pattern Pixel Width (nm):,   7.03,,,,
Exposure (ms):,  0.635,,,,
Digital Resolution:,228,,
Num Repeats:,6,,
PGA Gain:,64,,
Total Measurement Time in sec:,  2.724,,
Wavelength (nm),Absorbance (AU),Reference Signal (unitless),Sample Signal (unitless)
901.51,0.034342,108485,100237
905.376,0.040041,121306,110622
909.237,0.042681,131909,119562
913.095,0.044480,143299,129349
916.948,0.044922,156982,141556
922.079,0.047389,179937,161336
925.923,0.049027,200504,179100
929.762,0.049923,222660,198481
933.597,0.049464,244426,218114
937.427,0.048295,263972,236191
941.254,0.047892,281845,252417
945.076,0.047682,297271,266361
950.165,0.046850,315605,283331
953.978,0.045984,328029,295072
957.786,0.046139,340470,306154
961.59,0.047021,352317,316164
965.389,0.046349,363056,326306
969.185,0.046536,373162,335244
972.976,0.047483,382632,343003
976.763,0.048209,391202,350100
981.806,0.048186,400190,358163
985.583,0.048935,406088,362815
989.355,0.049728,410162,365786
993.124,0.049973,412868,367992
996.888,0.050873,414263,368471
1000.65,0.051421,415476,369084
1004.4,0.052377,415479,368275
1009.41,0.054063,414358,365858
1013.15,0.054425,412923,364287
1016.89,0.054853,411526,362697
1020.63,0.054559,409066,360773
1024.36,0.054523,406777,358784
1028.09,0.054972,404427,356343
1031.82,0.054343,401911,354639
1036.78,0.053694,398410,352076
1040.49,0.053636,396204,350173
1044.2,0.054046,394236,348105
1047.91,0.053542,392042,346570
1051.61,0.051977,389823,345852
1055.31,0.051960,388234,344456
1059,0.051520,387599,344241
1063.92,0.050179,386688,344494
1067.61,0.049898,386598,344637
1071.29,0.049171,387377,345910
1074.96,0.048626,388536,347380
1078.63,0.047325,389855,349605
1082.3,0.046807,391215,351244
1085.96,0.046853,393215,353002
1090.84,0.045583,396270,356786
1094.49,0.045073,398760,359450
1098.14,0.045184,400987,361365
1101.79,0.044550,403477,364140
1105.43,0.044608,406116,366473
1109.06,0.043598,407701,368760
1112.7,0.044175,409859,370220
1117.53,0.043418,412494,373250
1121.15,0.044909,414909,374148
1124.77,0.045225,416559,375363
1128.38,0.046236,418532,376264
1131.99,0.047988,419956,376024
1135.6,0.049813,421946,376222
1139.2,0.051324,423881,376634
1143.99,0.053954,426786,376926
1147.58,0.054274,428617,378264
1151.17,0.056105,431169,378916
1154.75,0.057228,433579,380050
1158.33,0.058906,436264,380928
1161.91,0.061272,439132,381349
1165.48,0.063286,442389,382400
1169.04,0.065994,446101,383212
1173.79,0.069785,451929,384844
1177.34,0.072087,456026,386280
1180.9,0.074308,461306,388760
1184.44,0.076407,467657,392212
1187.99,0.076926,473969,397031
1191.52,0.076863,479856,402020
1195.06,0.076891,487372,408291
1199.76,0.076257,497347,417256
1203.29,0.074811,504311,424510
1206.81,0.074181,511507,431192
1210.33,0.073391,519078,438371
1213.84,0.072296,527163,446323
1217.35,0.072493,534208,452082
1220.85,0.070972,540472,458988
1225.51,0.070421,549929,467612
1229.01,0.069798,556888,474209
1232.5,0.068402,562180,480257
1235.98,0.068314,567975,485306
1239.46,0.067231,574815,492376
1242.94,0.066120,582782,500479
1246.41,0.065501,591476,508670
1251.03,0.065490,604016,519467
1254.5,0.065613,612289,526434
1257.96,0.065925,619125,531929
1261.41,0.066935,624551,535344
1264.86,0.067461,629900,539275
1268.31,0.067810,634345,542645
1271.75,0.068499,638574,545396
1276.33,0.068800,642499,548368
1279.76,0.068874,645905,551181
1283.19,0.067913,648307,554457
1286.61,0.068048,650446,556113
1290.03,0.067501,652132,558257
1293.44,0.067181,653907,560189
1296.85,0.066667,655963,562616
1301.39,0.066598,657349,563895
1304.8,0.066164,657558,564638
1308.19,0.066806,658515,564625
1311.58,0.066822,658804,564852
1314.97,0.067496,659011,564153
1318.36,0.067565,658272,563430
1321.73,0.068058,658022,562578
1326.23,0.068760,657870,561539
1329.6,0.069856,656482,558942
1332.97,0.070687,654926,556551
1336.33,0.071806,653727,554103
1339.69,0.073583,652497,550802
1343.04,0.075306,649913,546449
1346.39,0.077313,647671,542053
1349.73,0.079865,645338,536936
1354.18,0.082602,641175,530120
1357.52,0.084998,638376,524902
1360.85,0.087218,635805,520123
1364.17,0.089044,633413,515992
1367.49,0.091888,631026,510692
1370.81,0.093972,628050,505851
1374.12,0.096706,625034,500262
1378.54,0.100149,620272,492531
1381.84,0.103216,616892,486399
1385.14,0.107101,613613,479505
1388.43,0.110803,611526,473818
1391.72,0.115566,610663,467989
1395.01,0.120398,610634,462789
1398.29,0.125203,611700,458496
1402.66,0.132120,614051,452986
1405.93,0.137744,616268,448772
1409.2,0.142895,617795,444579
1412.46,0.147342,618872,440818
1415.72,0.152089,619795,436676
1418.98,0.155915,620495,433335
1422.23,0.159929,621087,429757
1426.56,0.163458,621375,426477
1429.8,0.166097,621616,424058
1433.04,0.169037,622129,421545
1436.27,0.171500,621526,418754
1439.5,0.173316,621113,416730
1442.72,0.176332,620921,413718
1445.94,0.178723,620270,411015
1450.23,0.182384,618860,406638
1453.44,0.185907,617697,402595
1456.64,0.189044,616264,398770
1459.85,0.191909,614413,394958
1463.04,0.194462,612307,391298
1466.24,0.198103,610032,386589
1469.43,0.201664,607345,381743
1473.67,0.208238,603789,373807
1476.85,0.213855,601175,367406
1480.02,0.220671,597737,359616
1483.19,0.228143,594479,351555
1486.36,0.234139,591232,344841
1489.52,0.238871,587853,339155
1492.68,0.243044,583875,333638
1496.89,0.245177,578062,328698
1500.03,0.245949,574159,325899
1503.18,0.246922,570285,322976
1506.32,0.245601,565444,321210
1509.45,0.244245,560571,319437
1512.58,0.242528,555821,317985
1515.71,0.239680,550344,316923
1519.87,0.236766,543983,315369
1522.99,0.233902,538764,314410
1526.1,0.231856,533692,312921
1529.21,0.228549,527902,311892
1532.32,0.225056,521886,310828
1535.42,0.222850,515888,308820
1538.51,0.219104,509987,307932
1541.6,0.215924,503936,306515
1545.72,0.210998,494694,304326
1548.8,0.207726,488378,302712
1551.88,0.205580,481832,300134
1554.95,0.203768,474989,297109
1558.02,0.201833,467818,293930
1561.08,0.200442,460730,290405
1564.15,0.199582,454170,286838
1568.22,0.198372,444181,281312
1571.27,0.197797,436947,277097
1574.32,0.196893,429598,273004
1577.36,0.195432,422039,269104
1580.4,0.194003,414375,265088
1583.43,0.192181,406354,261050
1586.46,0.191537,398475,256368
1590.49,0.188153,388982,252218
1593.51,0.186319,380708,247898
1596.53,0.184386,372727,243784
1599.54,0.182392,365060,239868
1602.55,0.179578,357543,236456
1605.55,0.178069,349495,231938
1608.55,0.176208,341154,227375
1612.54,0.173122,330877,222098
1615.53,0.171820,322904,217397
1618.51,0.169942,315116,213073
1621.49,0.168791,307217,208283
1624.47,0.167515,299481,203636
1627.44,0.166626,292112,199032
1630.41,0.164789,284245,194493
1634.36,0.163362,274079,188154
1637.32,0.163807,266916,183049
1640.27,0.161576,259612,178957
1643.22,0.161248,251804,173706
1646.16,0.159572,244348,169214
1649.1,0.159675,236703,163881
1652.04,0.158053,228171,158565
1655.95,0.154837,215408,150808
1658.88,0.153098,204937,144053
1661.8,0.147555,193395,137686
1664.72,0.141341,179728,129800
1667.63,0.128643,163642,121689
1670.54,0.114900,146312,112300
1673.44,0.099971,128451,102039
1677.31,0.085293,105080,86343
1680.21,0.074699,88906,74857
1683.1,0.070500,75033,63790
1685.99,0.070589,63520,53991
1688.87,0.075680,53714,45124
1691.75,0.079377,45653,38027
1694.62,0.089655,39137,31837
1697.49,0.092668,33776,27286
1701.31,0.095717,28175,22602