File: samples/wool/wool-000811/Column 1_050574_20150331_121129.csv
Method:,Column 1,,
Host Date-Time:,31/3/15 @ 12:11:29,,
Header Version:,1,,
System Temp (C):,34.2,,
Detector Temp (C):,34.41,,
Humidity (%):,1.66,,
Lamp PD:,3818,,
Shift Vector Coefficients:,-10.5391,0.0761263,-0.000134223,,
Pixel to Wavelength Coefficients:,1775.68,-0.916766,-0.000235065,,
Serial Number:,5510004,,
Scan Config Name:,Column 1,,
Scan Config Type:,Slew,,
Section 1,,
Start wavelength (nm):,900,,
End wavelength (nm):,1700,,
Pattern Pixel Width (nm):,   7.03,,,,
Exposure (ms):,  0.635,,,,
Digital Resolution:,228,,
Num Repeats:,6,,
PGA Gain:,64,,
Total Measurement Time in sec:,  2.689,,
Wavelength (nm),Absorbance (AU),Reference Signal (unitless),Sample Signal (unitless)
901.51,0.034927,108485,100102
905.376,0.039295,121306,110812
909.237,0.043059,131909,119458
913.095,0.045213,143299,129131
916.948,0.045640,156982,141322
922.079,0.046625,179937,161620
925.923,0.048749,200504,179215
929.762,0.049980,222660,198455
933.597,0.049920,244426,217885
937.427,0.049561,263972,235503
941.254,0.048601,281845,252005
945.076,0.047358,297271,266560
950.165,0.046934,315605,283276
953.978,0.046849,328029,294485
957.786,0.046531,340470,305878
961.59,0.047105,352317,316103
965.389,0.046692,363056,326048
969.185,0.046978,373162,334903
972.976,0.047906,382632,342669
976.763,0.048300,391202,350027
981.806,0.048320,400190,358052
985.583,0.049398,406088,362428
989.355,0.050205,410162,365385
993.124,0.050055,412868,367922
996.888,0.050616,414263,368689
1000.65,0.051635,415476,368902
1004.4,0.052962,415479,367779
1009.41,0.054047,414358,365872
1013.15,0.054666,412923,364085
1016.89,0.055696,411526,361994
1020.63,0.055039,409066,360375
1024.36,0.054984,406777,358404
1028.09,0.054145,404427,357022
1031.82,0.054819,401911,354251
1036.78,0.054246,398410,351629
1040.49,0.053811,396204,350032
1044.2,0.053844,394236,348267
1047.91,0.052708,392042,347236
1051.61,0.052662,389823,345307
1055.31,0.051894,388234,344508
1059,0.051278,387599,344433
1063.92,0.050984,386688,343856
1067.61,0.049410,386598,345024
1071.29,0.049161,387377,345918
1074.96,0.048646,388536,347364
1078.63,0.048361,389855,348772
1082.3,0.047325,391215,350825
1085.96,0.046531,393215,353264
1090.84,0.045978,396270,356462
1094.49,0.045607,398760,359008
1098.14,0.045095,400987,361439
1101.79,0.044587,403477,364109
1105.43,0.044755,406116,366349
1109.06,0.044204,407701,368246
1112.7,0.043966,409859,370398
1117.53,0.044287,412494,372504
1121.15,0.045353,414909,373766
1124.77,0.045197,416559,375387
1128.38,0.046544,418532,375997
1131.99,0.047615,419956,376347
1135.6,0.050219,421946,375870
1139.2,0.051524,423881,376461
1143.99,0.053852,426786,377015
1147.58,0.054836,428617,377775
1151.17,0.056629,431169,378459
1154.75,0.057346,433579,379946
1158.33,0.058965,436264,380877
1161.91,0.060994,439132,381594
1165.48,0.064356,442389,381459
1169.04,0.066352,446101,382896
1173.79,0.070145,451929,384526
1177.34,0.072588,456026,385835
1180.9,0.074622,461306,388479
1184.44,0.076987,467657,391688
1187.99,0.077683,473969,396339
1191.52,0.077111,479856,401791
1195.06,0.076693,487372,408477
1199.76,0.076050,497347,417455
1203.29,0.075100,504311,424227
1206.81,0.074436,511507,430939
1210.33,0.073223,519078,438540
1213.84,0.072814,527163,445791
1217.35,0.072286,534208,452298
1220.85,0.071484,540472,458447
1225.51,0.070577,549929,467444
1229.01,0.069781,556888,474228
1232.5,0.069326,562180,479236
1235.98,0.068139,567975,485501
1239.46,0.066889,574815,492764
1242.94,0.066389,582782,500169
1246.41,0.065523,591476,508644
1251.03,0.065879,604016,519002
1254.5,0.065963,612289,526009
1257.96,0.066046,619125,531780
1261.41,0.066461,624551,535929
1264.86,0.067589,629900,539117
1268.31,0.067899,634345,542533
1271.75,0.068843,638574,544964
1276.33,0.068909,642499,548231
1279.76,0.069240,645905,550717
1283.19,0.068424,648307,553805
1286.61,0.067765,650446,556476
1290.03,0.067756,652132,557930
1293.44,0.067276,653907,560067
1296.85,0.067153,655963,561987
1301.39,0.066707,657349,563753
1304.8,0.066819,657558,563787
1308.19,0.066963,658515,564420
1311.58,0.067163,658804,564408
1314.97,0.067233,659011,564495
1318.36,0.068167,658272,562650
1321.73,0.068316,658022,562244
1326.23,0.068931,657870,561318
1329.6,0.070056,656482,558685
1332.97,0.070833,654926,556364
1336.33,0.072158,653727,553654
1339.69,0.073716,652497,550633
1343.04,0.075202,649913,546579
1346.39,0.077368,647671,541984
1349.73,0.079634,645338,537221
1354.18,0.083088,641175,529527
1357.52,0.085222,638376,524632
1360.85,0.087077,635805,520292
1364.17,0.089691,633413,515224
1367.49,0.092181,631026,510348
1370.81,0.094656,628050,505055
1374.12,0.096841,625034,500107
1378.54,0.100422,620272,492221
1381.84,0.103324,616892,486279
1385.14,0.107310,613613,479275
1388.43,0.111319,611526,473256
1391.72,0.115999,610663,467523
1395.01,0.120463,610634,462720
1398.29,0.125864,611700,457799
1402.66,0.132640,614051,452444
1405.93,0.137916,616268,448594
1409.2,0.143207,617795,444260
1412.46,0.148080,618872,440069
1415.72,0.152701,619795,436061
1418.98,0.156726,620495,432526
1422.23,0.159638,621087,430046
1426.56,0.164798,621375,425163
1429.8,0.167238,621616,422945
1433.04,0.170039,622129,420573
1436.27,0.171990,621526,418282
1439.5,0.174031,621113,416044
1442.72,0.176594,620921,413468
1445.94,0.179557,620270,410227
1450.23,0.183081,618860,405986
1453.44,0.186340,617697,402194
1456.64,0.189125,616264,398696
1459.85,0.192403,614413,394509
1463.04,0.195449,612307,390409
1466.24,0.198628,610032,386122
1469.43,0.202332,607345,381157
1473.67,0.208926,603789,373215
1476.85,0.214470,601175,366886
1480.02,0.220953,597737,359383
1483.19,0.227520,594479,352060
1486.36,0.234542,591232,344521
1489.52,0.240125,587853,338177
1492.68,0.243247,583875,333482
1496.89,0.245704,578062,328300
1500.03,0.246879,574159,325202
1503.18,0.247266,570285,322720
1506.32,0.245565,565444,321236
1509.45,0.244585,560571,319187
1512.58,0.243087,555821,317576
1515.71,0.240324,550344,316454
1519.87,0.237882,543983,314560
1522.99,0.234722,538764,313817
1526.1,0.231609,533692,313099
1529.21,0.228790,527902,311719
1532.32,0.225757,521886,310326
1535.42,0.222581,515888,309011
1538.51,0.219454,509987,307684
1541.6,0.216029,503936,306441
1545.72,0.211173,494694,304203
1548.8,0.207972,488378,302541
1551.88,0.205871,481832,299933
1554.95,0.204158,474989,296842
1558.02,0.201942,467818,293856
1561.08,0.200725,460730,290216
1564.15,0.199473,454170,286910
1568.22,0.198897,444181,280972
1571.27,0.198475,436947,276665
1574.32,0.197278,429598,272762
1577.36,0.196054,422039,268719
1580.4,0.195688,414375,264062
1583.43,0.192141,406354,261074
1586.46,0.191514,398475,256382
1590.49,0.189069,388982,251687
1593.51,0.186538,380708,247773
1596.53,0.184539,372727,243698
1599.54,0.181753,365060,240221
1602.55,0.179986,357543,236234
1605.55,0.177925,349495,232015
1608.55,0.175608,341154,227689
1612.54,0.173936,330877,221682
1615.53,0.171393,322904,217611
1618.51,0.170393,315116,212852
1621.49,0.168787,307217,208285
1624.47,0.166956,299481,203898
1627.44,0.166696,292112,199000
1630.41,0.166025,284245,193940
1634.36,0.163565,274079,188066
1637.32,0.162478,266916,183610
1640.27,0.162696,259612,178496
1643.22,0.161896,251804,173447
1646.16,0.161010,244348,168655
1649.1,0.160768,236703,163469
1652.04,0.159027,228171,158210
1655.95,0.155422,215408,150605
1658.88,0.151032,204937,144740
1661.8,0.147587,193395,137676
1664.72,0.141515,179728,129748
1667.63,0.129179,163642,121539
1670.54,0.116764,146312,111819
1673.44,0.101827,128451,101604
1677.31,0.085842,105080,86234
1680.21,0.076239,88906,74592
1683.1,0.074845,75033,63155
1685.99,0.069408,63520,54138
1688.87,0.084803,53714,44186
1691.75,0.081874,45653,37809
1694.62,0.090447,39137,31779
1697.49,0.093608,33776,27227
1701.31,0.109539,28175,21894