File: samples/wool/wool-000811/Column 1_050576_20150331_121220.csv
Method:,Column 1,,
Host Date-Time:,31/3/15 @ 12:12:20,,
Header Version:,1,,
System Temp (C):,33.82,,
Detector Temp (C):,34.62,,
Humidity (%):,2.64,,
Lamp PD:,3819,,
Shift Vector Coefficients:,-10.5391,0.0761263,-0.000134223,,
Pixel to Wavelength Coefficients:,1775.68,-0.916766,-0.000235065,,
Serial Number:,5510004,,
Scan Config Name:,Column 1,,
Scan Config Type:,Slew,,
Section 1,,
Start wavelength (nm):,900,,
End wavelength (nm):,1700,,
Pattern Pixel Width (nm):,   7.03,,,,
Exposure (ms):,  0.635,,,,
Digital Resolution:,228,,
Num Repeats:,6,,
PGA Gain:,64,,
Total Measurement Time in sec:,  2.674,,
Wavelength (nm),Absorbance (AU),Reference Signal (unitless),Sample Signal (unitless)
901.51,0.072224,108485,91864
905.376,0.077228,121306,101544
909.237,0.079704,131909,109792
913.095,0.081149,143299,118876
916.948,0.081756,156982,130045
922.079,0.081771,179937,149056
925.923,0.083194,200504,165550
929.762,0.085151,222660,183017
933.597,0.085051,244426,200954
937.427,0.083985,263972,217557
941.254,0.083453,281845,232572
945.076,0.081940,297271,246157
950.165,0.081033,315605,261885
953.978,0.080280,328029,272667
957.786,0.080950,340470,282572
961.59,0.081182,352317,292248
965.389,0.081595,363056,300870
969.185,0.081022,373162,309653
972.976,0.082432,382632,316482
976.763,0.082617,391202,323433
981.806,0.082566,400190,330903
985.583,0.083196,406088,335293
989.355,0.083499,410162,338420
993.124,0.084318,412868,340011
996.888,0.084434,414263,341069
1000.65,0.085308,415476,341380
1004.4,0.086182,415479,340696
1009.41,0.087771,414358,338536
1013.15,0.088707,412923,336637
1016.89,0.088746,411526,335468
1020.63,0.088755,409066,333456
1024.36,0.088460,406777,331815
1028.09,0.088229,404427,330074
1031.82,0.088461,401911,327845
1036.78,0.087754,398410,325519
1040.49,0.088298,396204,323311
1044.2,0.087726,394236,322129
1047.91,0.087175,392042,320743
1051.61,0.086432,389823,319474
1055.31,0.085931,388234,318539
1059,0.086077,387599,317911
1063.92,0.086115,386688,317136
1067.61,0.084924,386598,317933
1071.29,0.084075,387377,319197
1074.96,0.083790,388536,320362
1078.63,0.083922,389855,321352
1082.3,0.082911,391215,323225
1085.96,0.081915,393215,325623
1090.84,0.080848,396270,328960
1094.49,0.080038,398760,331645
1098.14,0.080331,400987,333272
1101.79,0.079509,403477,335977
1105.43,0.079538,406116,338152
1109.06,0.078850,407701,340010
1112.7,0.078046,409859,342443
1117.53,0.077290,412494,345245
1121.15,0.078850,414909,346021
1124.77,0.078158,416559,347951
1128.38,0.079890,418532,348208
1131.99,0.080407,419956,348977
1135.6,0.082142,421946,349233
1139.2,0.083567,423881,349685
1143.99,0.085448,426786,350560
1147.58,0.086620,428617,351115
1151.17,0.087996,431169,352088
1154.75,0.088804,433579,353398
1158.33,0.090071,436264,354551
1161.91,0.092054,439132,355256
1165.48,0.094717,442389,355703
1169.04,0.096609,446101,357128
1173.79,0.099733,451929,359201
1177.34,0.102222,456026,360386
1180.9,0.103895,461306,363157
1184.44,0.105569,467657,366740
1187.99,0.106217,473969,371136
1191.52,0.106328,479856,375650
1195.06,0.106416,487372,381456
1199.76,0.105372,497347,390200
1203.29,0.105292,504311,395737
1206.81,0.104798,511507,401840
1210.33,0.104029,519078,408511
1213.84,0.103478,527163,415400
1217.35,0.102878,534208,421534
1220.85,0.102643,540472,426707
1225.51,0.101720,549929,435098
1229.01,0.100958,556888,441377
1232.5,0.100019,562180,446536
1235.98,0.100044,567975,451113
1239.46,0.098961,574815,457685
1242.94,0.097753,582782,465321
1246.41,0.096819,591476,473280
1251.03,0.096777,604016,483361
1254.5,0.097540,612289,489121
1257.96,0.097847,619125,494233
1261.41,0.098164,624551,498200
1264.86,0.098782,629900,501753
1268.31,0.098820,634345,505249
1271.75,0.099914,638574,507338
1276.33,0.100474,642499,509798
1279.76,0.099919,645905,513156
1283.19,0.099517,648307,515542
1286.61,0.099542,650446,517213
1290.03,0.098926,652132,519290
1293.44,0.098601,653907,521093
1296.85,0.098359,655963,523022
1301.39,0.097955,657349,524615
1304.8,0.098355,657558,524299
1308.19,0.098391,658515,525019
1311.58,0.098486,658804,525134
1314.97,0.099116,659011,524538
1318.36,0.099665,658272,523288
1321.73,0.100037,658022,522641
1326.23,0.101027,657870,521331
1329.6,0.101689,656482,519438
1332.97,0.103569,654926,515969
1336.33,0.104288,653727,514172
1339.69,0.106067,652497,511107
1343.04,0.107942,649913,506890
1346.39,0.109674,647671,503130
1349.73,0.111688,645338,498999
1354.18,0.114673,641175,492384
1357.52,0.117077,638376,487528
1360.85,0.118747,635805,483701
1364.17,0.120787,633413,479623
1367.49,0.122783,631026,475625
1370.81,0.125211,628050,470742
1374.12,0.127809,625034,465688
1378.54,0.130857,620272,458908
1381.84,0.133969,616892,453148
1385.14,0.138360,613613,446205
1388.43,0.142600,611526,440367
1391.72,0.148069,610663,434243
1395.01,0.152949,610634,429370
1398.29,0.158979,611700,424189
1402.66,0.166334,614051,418669
1405.93,0.172692,616268,414074
1409.2,0.178649,617795,409445
1412.46,0.184062,618872,405078
1415.72,0.188797,619795,401283
1418.98,0.193314,620495,397580
1422.23,0.197181,621087,394431
1426.56,0.201745,621375,390489
1429.8,0.204945,621616,387773
1433.04,0.207883,622129,385476
1436.27,0.209580,621526,383601
1439.5,0.212095,621113,381132
1442.72,0.213944,620921,379396
1445.94,0.216430,620270,376835
1450.23,0.219667,618860,373186
1453.44,0.222384,617697,370162
1456.64,0.224592,616264,367430
1459.85,0.227249,614413,364092
1463.04,0.230199,612307,360388
1466.24,0.232956,610032,356777
1469.43,0.235524,607345,353111
1473.67,0.240189,603789,347293
1476.85,0.245272,601175,341766
1480.02,0.249134,597737,336803
1483.19,0.254616,594479,330766
1486.36,0.259074,591232,325600
1489.52,0.263075,587853,320770
1492.68,0.266726,583875,315932
1496.89,0.267685,578062,312097
1500.03,0.268398,574159,309481
1503.18,0.268302,570285,307461
1506.32,0.267296,565444,305558
1509.45,0.265941,560571,303871
1512.58,0.264017,555821,302634
1515.71,0.262475,550344,300718
1519.87,0.259437,543983,299329
1522.99,0.257293,538764,297924
1526.1,0.254983,533692,296693
1529.21,0.252465,527902,295181
1532.32,0.249320,521886,293938
1535.42,0.246633,515888,292363
1538.51,0.243278,509987,291260
1541.6,0.240461,503936,289677
1545.72,0.236923,494694,286691
1548.8,0.234234,488378,284788
1551.88,0.231668,481832,282636
1554.95,0.229746,474989,279858
1558.02,0.227470,467818,277081
1561.08,0.226070,460730,273764
1564.15,0.225903,454170,269970
1568.22,0.224550,444181,264856
1571.27,0.223865,436947,260954
1574.32,0.222514,429598,257364
1577.36,0.221652,422039,253338
1580.4,0.219857,414375,249768
1583.43,0.218400,406354,245756
1586.46,0.216984,398475,241778
1590.49,0.214460,388982,237394
1593.51,0.213583,380708,232814
1596.53,0.210387,372727,229617
1599.54,0.209819,365060,225188
1602.55,0.207167,357543,221902
1605.55,0.205375,349495,217804
1608.55,0.203518,341154,213517
1612.54,0.200821,330877,208375
1615.53,0.198965,322904,204225
1618.51,0.196954,315116,200224
1621.49,0.195726,307217,195758
1624.47,0.195072,299481,191116
1627.44,0.194210,292112,186784
1630.41,0.193054,284245,182238
1634.36,0.192644,274079,175886
1637.32,0.190927,266916,171968
1640.27,0.190007,259612,167617
1643.22,0.188768,251804,163040
1646.16,0.188361,244348,158361
1649.1,0.189212,236703,153106
1652.04,0.186189,228171,148618
1655.95,0.182822,215408,141397
1658.88,0.179172,204937,135659
1661.8,0.173361,193395,129743
1664.72,0.168259,179728,121999
1667.63,0.153737,163642,114857
1670.54,0.141530,146312,105621
1673.44,0.125147,128451,96292
1677.31,0.106659,105080,82198
1680.21,0.094067,88906,71592
1683.1,0.088607,75033,61185
1685.99,0.088137,63520,51853
1688.87,0.094142,53714,43246
1691.75,0.094389,45653,36735
1694.62,0.105166,39137,30720
1697.49,0.106675,33776,26420
1701.31,0.117951,28175,21474