File: samples/wool/wool-000811/Column 1_050558_20150331_120333.csv
Method:,Column 1,,
Host Date-Time:,31/3/15 @ 12:3:33,,
Header Version:,1,,
System Temp (C):,33.6,,
Detector Temp (C):,32.88,,
Humidity (%):,2.25,,
Lamp PD:,3819,,
Shift Vector Coefficients:,-10.5391,0.0761263,-0.000134223,,
Pixel to Wavelength Coefficients:,1775.68,-0.916766,-0.000235065,,
Serial Number:,5510004,,
Scan Config Name:,Column 1,,
Scan Config Type:,Slew,,
Section 1,,
Start wavelength (nm):,900,,
End wavelength (nm):,1700,,
Pattern Pixel Width (nm):,   7.03,,,,
Exposure (ms):,  0.635,,,,
Digital Resolution:,228,,
Num Repeats:,6,,
PGA Gain:,64,,
Total Measurement Time in sec:,  2.717,,
Wavelength (nm),Absorbance (AU),Reference Signal (unitless),Sample Signal (unitless)
901.51,0.035869,108485,99885
905.376,0.042052,121306,110111
909.237,0.043998,131909,119200
913.095,0.044520,143299,129337
916.948,0.045195,156982,141467
922.079,0.044976,179937,162235
925.923,0.046175,200504,180280
929.762,0.046725,222660,199948
933.597,0.047255,244426,219226
937.427,0.046958,263972,236919
941.254,0.046936,281845,252973
945.076,0.046240,297271,267247
950.165,0.046003,315605,283884
953.978,0.045774,328029,295215
957.786,0.046143,340470,306151
961.59,0.046495,352317,316547
965.389,0.046270,363056,326365
969.185,0.046930,373162,334940
972.976,0.046929,382632,343441
976.763,0.048111,391202,350179
981.806,0.048259,400190,358102
985.583,0.049347,406088,362471
989.355,0.049979,410162,365575
993.124,0.050449,412868,367589
996.888,0.050830,414263,368507
1000.65,0.051207,415476,369266
1004.4,0.052988,415479,367757
1009.41,0.053789,414358,366089
1013.15,0.054017,412923,364630
1016.89,0.054795,411526,362746
1020.63,0.054471,409066,360846
1024.36,0.055435,406777,358032
1028.09,0.054606,404427,356643
1031.82,0.054102,401911,354836
1036.78,0.054292,398410,351591
1040.49,0.053832,396204,350015
1044.2,0.053149,394236,348825
1047.91,0.053222,392042,346825
1051.61,0.052355,389823,345551
1055.31,0.051941,388234,344471
1059,0.051151,387599,344534
1063.92,0.050427,386688,344297
1067.61,0.049560,386598,344905
1071.29,0.049006,387377,346041
1074.96,0.048441,388536,347528
1078.63,0.048211,389855,348893
1082.3,0.047006,391215,351083
1085.96,0.046870,393215,352988
1090.84,0.045807,396270,356602
1094.49,0.045367,398760,359207
1098.14,0.045246,400987,361314
1101.79,0.044739,403477,363982
1105.43,0.044709,406116,366388
1109.06,0.044562,407701,367942
1112.7,0.044452,409859,369984
1117.53,0.044780,412494,372081
1121.15,0.045744,414909,373430
1124.77,0.045864,416559,374811
1128.38,0.047052,418532,375558
1131.99,0.048550,419956,375538
1135.6,0.050060,421946,376008
1139.2,0.051684,423881,376322
1143.99,0.054279,426786,376644
1147.58,0.055326,428617,377349
1151.17,0.056754,431169,378350
1154.75,0.057646,433579,379684
1158.33,0.059785,436264,380158
1161.91,0.061890,439132,380807
1165.48,0.064421,442389,381402
1169.04,0.066473,446101,382790
1173.79,0.070996,451929,383773
1177.34,0.073194,456026,385297
1180.9,0.075301,461306,387872
1184.44,0.077277,467657,391427
1187.99,0.078229,473969,395841
1191.52,0.077605,479856,401334
1195.06,0.077950,487372,407296
1199.76,0.077070,497347,416476
1203.29,0.075952,504311,423396
1206.81,0.074908,511507,430471
1210.33,0.074394,519078,437360
1213.84,0.073744,527163,444837
1217.35,0.072413,534208,452165
1220.85,0.071747,540472,458170
1225.51,0.071342,549929,466621
1229.01,0.070484,556888,473461
1232.5,0.069438,562180,479112
1235.98,0.069356,567975,484142
1239.46,0.067937,574815,491577
1242.94,0.067009,582782,499456
1246.41,0.066577,591476,507411
1251.03,0.066339,604016,518453
1254.5,0.066422,612289,525454
1257.96,0.066816,619125,530839
1261.41,0.067261,624551,534942
1264.86,0.067825,629900,538823
1268.31,0.068511,634345,541769
1271.75,0.069114,638574,544625
1276.33,0.069567,642499,547401
1279.76,0.069239,645905,550718
1283.19,0.068896,648307,553203
1286.61,0.068579,650446,555434
1290.03,0.068179,652132,557387
1293.44,0.067899,653907,559264
1296.85,0.067701,655963,561278
1301.39,0.067437,657349,562806
1304.8,0.067258,657558,563218
1308.19,0.067670,658515,563502
1311.58,0.067872,658804,563488
1314.97,0.068494,659011,562858
1318.36,0.069010,658272,561559
1321.73,0.069412,658022,560827
1326.23,0.070312,657870,559536
1329.6,0.071614,656482,556684
1332.97,0.072331,654926,554448
1336.33,0.073497,653727,551950
1339.69,0.075245,652497,548698
1343.04,0.077425,649913,543789
1346.39,0.079491,647671,539341
1349.73,0.081526,645338,534886
1354.18,0.084791,641175,527455
1357.52,0.086950,638376,522548
1360.85,0.089038,635805,517948
1364.17,0.091692,633413,512856
1367.49,0.094114,631026,508081
1370.81,0.096254,628050,503200
1374.12,0.099282,625034,497304
1378.54,0.102681,620272,489667
1381.84,0.106337,616892,482917
1385.14,0.110039,613613,476273
1388.43,0.114746,611526,469536
1391.72,0.119780,610663,463470
1395.01,0.125000,610634,457911
1398.29,0.130018,611700,453441
1402.66,0.138005,614051,446889
1405.93,0.144413,616268,441933
1409.2,0.149987,617795,437378
1412.46,0.155482,618872,432632
1415.72,0.160419,619795,428380
1418.98,0.164279,620495,425069
1422.23,0.168541,621087,421319
1426.56,0.172602,621375,417592
1429.8,0.175858,621616,414633
1433.04,0.178181,622129,412762
1436.27,0.181113,621526,409587
1439.5,0.183269,621113,407288
1442.72,0.185682,620921,404906
1445.94,0.188245,620270,402102
1450.23,0.191646,618860,398058
1453.44,0.194639,617697,394581
1456.64,0.197563,616264,391024
1459.85,0.199839,614413,387812
1463.04,0.203794,612307,382979
1466.24,0.206682,610032,379027
1469.43,0.210098,607345,374401
1473.67,0.215472,603789,367632
1476.85,0.220920,601175,361477
1480.02,0.226517,597737,354808
1483.19,0.233240,594479,347453
1486.36,0.238702,591232,341237
1489.52,0.243592,587853,335488
1492.68,0.246639,583875,330888
1496.89,0.249574,578062,325387
1500.03,0.250340,574159,322621
1503.18,0.250550,570285,320289
1506.32,0.249449,565444,318376
1509.45,0.247523,560571,317035
1512.58,0.246809,555821,314866
1515.71,0.244603,550344,313351
1519.87,0.240874,543983,312400
1522.99,0.238633,538764,311004
1526.1,0.235762,533692,310119
1529.21,0.232800,527902,308854
1532.32,0.229417,521886,307722
1535.42,0.226613,515888,306156
1538.51,0.223728,509987,304671
1541.6,0.221363,503936,302700
1545.72,0.215992,494694,300846
1548.8,0.212857,488378,299157
1551.88,0.209924,481832,297147
1554.95,0.207544,474989,294537
1558.02,0.206024,467818,291107
1561.08,0.204431,460730,287750
1564.15,0.203701,454170,284130
1568.22,0.203273,444181,278155
1571.27,0.202004,436947,274426
1574.32,0.201398,429598,270187
1577.36,0.199543,422039,266569
1580.4,0.198466,414375,262378
1583.43,0.196558,406354,258432
1586.46,0.194724,398475,254494
1590.49,0.192217,388982,249869
1593.51,0.189975,380708,245820
1596.53,0.188342,372727,241573
1599.54,0.185430,365060,238196
1602.55,0.183678,357543,234234
1605.55,0.180938,349495,230411
1608.55,0.179232,341154,225797
1612.54,0.176692,330877,220280
1615.53,0.175294,322904,215665
1618.51,0.173109,315116,211525
1621.49,0.173620,307217,205980
1624.47,0.170176,299481,202392
1627.44,0.170127,292112,197434
1630.41,0.168199,284245,192972
1634.36,0.166855,274079,186647
1637.32,0.166802,266916,181791
1640.27,0.165175,259612,177480
1643.22,0.164090,251804,172573
1646.16,0.163945,244348,167519
1649.1,0.163252,236703,162537
1652.04,0.162452,228171,156967
1655.95,0.160332,215408,148912
1658.88,0.155932,204937,143116
1661.8,0.153066,193395,135950
1664.72,0.147599,179728,127943
1667.63,0.139214,163642,118763
1670.54,0.127929,146312,108981
1673.44,0.117232,128451,98063
1677.31,0.105029,105080,82507
1680.21,0.098640,88906,70842
1683.1,0.097275,75033,59976
1685.99,0.102622,63520,50152
1688.87,0.104240,53714,42252
1691.75,0.107934,45653,35607
1694.62,0.116902,39137,29901
1697.49,0.115913,33776,25864
1701.31,0.129136,28175,20928