File: samples/wool/wool-000811/Column 1_050554_20150331_120151.csv
Method:,Column 1,,
Host Date-Time:,31/3/15 @ 12:1:51,,
Header Version:,1,,
System Temp (C):,33.45,,
Detector Temp (C):,32.45,,
Humidity (%):,2.44,,
Lamp PD:,3820,,
Shift Vector Coefficients:,-10.5391,0.0761263,-0.000134223,,
Pixel to Wavelength Coefficients:,1775.68,-0.916766,-0.000235065,,
Serial Number:,5510004,,
Scan Config Name:,Column 1,,
Scan Config Type:,Slew,,
Section 1,,
Start wavelength (nm):,900,,
End wavelength (nm):,1700,,
Pattern Pixel Width (nm):,   7.03,,,,
Exposure (ms):,  0.635,,,,
Digital Resolution:,228,,
Num Repeats:,6,,
PGA Gain:,64,,
Total Measurement Time in sec:,  2.721,,
Wavelength (nm),Absorbance (AU),Reference Signal (unitless),Sample Signal (unitless)
901.51,0.033753,108485,100373
905.376,0.040127,121306,110600
909.237,0.041901,131909,119777
913.095,0.041969,143299,130099
916.948,0.043644,156982,141973
922.079,0.044465,179937,162426
925.923,0.045795,200504,180438
929.762,0.045840,222660,200356
933.597,0.046246,244426,219736
937.427,0.045300,263972,237825
941.254,0.046313,281845,253336
945.076,0.045572,297271,267658
950.165,0.045680,315605,284095
953.978,0.045389,328029,295477
957.786,0.044741,340470,307141
961.59,0.046336,352317,316663
965.389,0.046395,363056,326271
969.185,0.046461,373162,335302
972.976,0.047137,382632,343277
976.763,0.047677,391202,350529
981.806,0.048426,400190,357965
985.583,0.049336,406088,362480
989.355,0.049451,410162,366020
993.124,0.049535,412868,368363
996.888,0.050519,414263,368771
1000.65,0.051909,415476,368669
1004.4,0.052518,415479,368155
1009.41,0.054335,414358,365629
1013.15,0.054599,412923,364141
1016.89,0.054916,411526,362645
1020.63,0.054840,409066,360540
1024.36,0.054529,406777,358779
1028.09,0.054449,404427,356772
1031.82,0.053851,401911,355041
1036.78,0.053805,398410,351986
1040.49,0.053444,396204,350328
1044.2,0.053098,394236,348866
1047.91,0.052873,392042,347104
1051.61,0.052543,389823,345402
1055.31,0.051625,388234,344722
1059,0.051492,387599,344263
1063.92,0.050634,386688,344133
1067.61,0.049852,386598,344673
1071.29,0.049272,387377,345829
1074.96,0.048575,388536,347421
1078.63,0.048095,389855,348986
1082.3,0.047448,391215,350726
1085.96,0.046926,393215,352943
1090.84,0.045883,396270,356540
1094.49,0.045198,398760,359347
1098.14,0.045030,400987,361493
1101.79,0.045061,403477,363712
1105.43,0.044519,406116,366548
1109.06,0.044658,407701,367861
1112.7,0.043851,409859,370496
1117.53,0.044120,412494,372647
1121.15,0.045067,414909,374012
1124.77,0.045396,416559,375215
1128.38,0.046648,418532,375907
1131.99,0.048098,419956,375929
1135.6,0.050419,421946,375697
1139.2,0.051921,423881,376117
1143.99,0.054639,426786,376332
1147.58,0.055582,428617,377127
1151.17,0.056884,431169,378237
1154.75,0.057670,433579,379663
1158.33,0.059567,436264,380349
1161.91,0.062519,439132,380256
1165.48,0.064362,442389,381454
1169.04,0.067225,446101,382127
1173.79,0.070198,451929,384479
1177.34,0.073445,456026,385074
1180.9,0.075665,461306,387547
1184.44,0.077395,467657,391320
1187.99,0.078195,473969,395872
1191.52,0.077964,479856,401002
1195.06,0.078045,487372,407207
1199.76,0.076669,497347,416860
1203.29,0.075950,504311,423398
1206.81,0.075340,511507,430043
1210.33,0.074342,519078,437412
1213.84,0.073520,527163,445067
1217.35,0.072751,534208,451814
1220.85,0.071768,540472,458147
1225.51,0.070825,549929,467177
1229.01,0.070538,556888,473402
1232.5,0.070405,562180,478047
1235.98,0.069374,567975,484122
1239.46,0.067793,574815,491739
1242.94,0.067103,582782,499348
1246.41,0.066272,591476,507768
1251.03,0.066308,604016,518490
1254.5,0.066309,612289,525591
1257.96,0.066844,619125,530804
1261.41,0.067342,624551,534843
1264.86,0.067999,629900,538608
1268.31,0.068612,634345,541643
1271.75,0.069552,638574,544075
1276.33,0.069596,642499,547364
1279.76,0.069785,645905,550026
1283.19,0.069249,648307,552754
1286.61,0.069116,650446,554748
1290.03,0.068324,652132,557201
1293.44,0.067902,653907,559260
1296.85,0.067714,655963,561262
1301.39,0.067873,657349,562242
1304.8,0.067732,657558,562603
1308.19,0.067914,658515,563186
1311.58,0.067965,658804,563367
1314.97,0.068671,659011,562629
1318.36,0.069384,658272,561076
1321.73,0.069721,658022,560428
1326.23,0.070686,657870,559054
1329.6,0.071587,656482,556719
1332.97,0.072756,654926,553906
1336.33,0.073630,653727,551780
1339.69,0.075586,652497,548267
1343.04,0.077648,649913,543510
1346.39,0.079849,647671,538897
1349.73,0.082102,645338,534177
1354.18,0.085379,641175,526741
1357.52,0.087347,638376,522071
1360.85,0.089817,635805,517019
1364.17,0.091507,633413,513074
1367.49,0.094363,631026,507790
1370.81,0.096896,628050,502456
1374.12,0.099705,625034,496820
1378.54,0.103038,620272,489265
1381.84,0.107140,616892,482024
1385.14,0.110967,613613,475256
1388.43,0.116253,611526,467910
1391.72,0.120959,610663,462214
1395.01,0.126074,610634,456780
1398.29,0.131833,611700,451550
1402.66,0.139708,614051,445140
1405.93,0.145849,616268,440474
1409.2,0.151373,617795,435985
1412.46,0.157621,618872,430507
1415.72,0.162342,619795,426487
1418.98,0.167385,620495,422040
1422.23,0.170870,621087,419066
1426.56,0.174873,621375,415414
1429.8,0.178390,621616,412223
1433.04,0.181380,622129,409733
1436.27,0.183459,621526,407381
1439.5,0.185753,621113,404965
1442.72,0.188633,620921,402164
1445.94,0.190833,620270,399713
1450.23,0.194734,618860,395238
1453.44,0.197374,617697,392104
1456.64,0.200439,616264,388443
1459.85,0.203191,614413,384830
1463.04,0.206021,612307,381020
1466.24,0.208888,610032,377107
1469.43,0.212486,607345,372348
1473.67,0.218031,603789,365472
1476.85,0.223259,601175,359536
1480.02,0.228852,597737,352905
1483.19,0.234724,594479,346268
1486.36,0.239756,591232,340410
1489.52,0.245213,587853,334238
1492.68,0.248262,583875,329654
1496.89,0.250202,578062,324917
1500.03,0.251041,574159,322100
1503.18,0.251685,570285,319453
1506.32,0.250259,565444,317783
1509.45,0.248992,560571,315965
1512.58,0.247436,555821,314412
1515.71,0.245945,550344,312384
1519.87,0.242734,543983,311065
1522.99,0.240152,538764,309918
1526.1,0.237511,533692,308873
1529.21,0.234043,527902,307971
1532.32,0.230664,521886,306840
1535.42,0.227738,515888,305364
1538.51,0.224993,509987,303785
1541.6,0.221086,503936,302893
1545.72,0.216925,494694,300201
1548.8,0.214136,488378,298277
1551.88,0.211277,481832,296223
1554.95,0.209321,474989,293334
1558.02,0.206967,467818,290476
1561.08,0.206426,460730,286431
1564.15,0.205182,454170,283163
1568.22,0.204627,444181,277289
1571.27,0.203845,436947,273265
1574.32,0.202476,429598,269517
1577.36,0.201342,422039,265467
1580.4,0.199391,414375,261820
1583.43,0.197593,406354,257817
1586.46,0.196370,398475,253531
1590.49,0.193503,388982,249130
1593.51,0.191385,380708,245023
1596.53,0.189493,372727,240934
1599.54,0.187856,365060,236869
1602.55,0.184268,357543,233916
1605.55,0.183179,349495,229225
1608.55,0.181172,341154,224791
1612.54,0.178200,330877,219516
1615.53,0.176159,322904,215236
1618.51,0.174773,315116,210716
1621.49,0.172954,307217,206296
1624.47,0.172271,299481,201418
1627.44,0.171152,292112,196969
1630.41,0.170071,284245,192142
1634.36,0.168318,274079,186019
1637.32,0.168156,266916,181225
1640.27,0.167649,259612,176472
1643.22,0.165678,251804,171943
1646.16,0.164183,244348,167427
1649.1,0.164662,236703,162010
1652.04,0.163477,228171,156597
1655.95,0.160195,215408,148959
1658.88,0.159237,204937,142031
1661.8,0.155478,193395,135197
1664.72,0.148095,179728,127797
1667.63,0.141083,163642,118253
1670.54,0.132061,146312,107949
1673.44,0.120790,128451,97263
1677.31,0.109745,105080,81616
1680.21,0.103095,88906,70119
1683.1,0.101619,75033,59379
1685.99,0.106013,63520,49762
1688.87,0.110243,53714,41672
1691.75,0.121990,45653,34473
1694.62,0.120577,39137,29649
1697.49,0.122750,33776,25460
1701.31,0.132595,28175,20762