File: samples/wool/wool-000811/Column 1_050563_20150331_120607.csv
Method:,Column 1,,
Host Date-Time:,31/3/15 @ 12:6:7,,
Header Version:,1,,
System Temp (C):,33.84,,
Detector Temp (C):,33.5,,
Humidity (%):,1.95,,
Lamp PD:,3819,,
Shift Vector Coefficients:,-10.5391,0.0761263,-0.000134223,,
Pixel to Wavelength Coefficients:,1775.68,-0.916766,-0.000235065,,
Serial Number:,5510004,,
Scan Config Name:,Column 1,,
Scan Config Type:,Slew,,
Section 1,,
Start wavelength (nm):,900,,
End wavelength (nm):,1700,,
Pattern Pixel Width (nm):,   7.03,,,,
Exposure (ms):,  0.635,,,,
Digital Resolution:,228,,
Num Repeats:,6,,
PGA Gain:,64,,
Total Measurement Time in sec:,  2.672,,
Wavelength (nm),Absorbance (AU),Reference Signal (unitless),Sample Signal (unitless)
901.51,0.032746,108485,100606
905.376,0.038012,121306,111140
909.237,0.042271,131909,119675
913.095,0.042748,143299,129866
916.948,0.041968,156982,142522
922.079,0.044834,179937,162288
925.923,0.047063,200504,179912
929.762,0.047173,222660,199742
933.597,0.048229,244426,218735
937.427,0.046705,263972,237057
941.254,0.046967,281845,252955
945.076,0.045954,297271,267423
950.165,0.045850,315605,283984
953.978,0.044889,328029,295817
957.786,0.045527,340470,306586
961.59,0.045761,352317,317083
965.389,0.045359,363056,327050
969.185,0.046085,373162,335593
972.976,0.046712,382632,343613
976.763,0.046921,391202,351140
981.806,0.047598,400190,358648
985.583,0.048190,406088,363438
989.355,0.049295,410162,366151
993.124,0.049604,412868,368305
996.888,0.049917,414263,369283
1000.65,0.050635,415476,369752
1004.4,0.052481,415479,368187
1009.41,0.053340,414358,366468
1013.15,0.053694,412923,364901
1016.89,0.054278,411526,363178
1020.63,0.054331,409066,360963
1024.36,0.054033,406777,359189
1028.09,0.053947,404427,357185
1031.82,0.053996,401911,354923
1036.78,0.053472,398410,352256
1040.49,0.052940,396204,350735
1044.2,0.052477,394236,349365
1047.91,0.052459,392042,347435
1051.61,0.051892,389823,345920
1055.31,0.051169,388234,345084
1059,0.050710,387599,344884
1063.92,0.049702,386688,344873
1067.61,0.048534,386598,345721
1071.29,0.047940,387377,346892
1074.96,0.047540,388536,348250
1078.63,0.047222,389855,349688
1082.3,0.046653,391215,351368
1085.96,0.045742,393215,353906
1090.84,0.045205,396270,357097
1094.49,0.044161,398760,360206
1098.14,0.044537,400987,361904
1101.79,0.043900,403477,364686
1105.43,0.044062,406116,366934
1109.06,0.043645,407701,368720
1112.7,0.043751,409859,370581
1117.53,0.043737,412494,372976
1121.15,0.045077,414909,374004
1124.77,0.044971,416559,375583
1128.38,0.046508,418532,376028
1131.99,0.048053,419956,375968
1135.6,0.049401,421946,376579
1139.2,0.051452,423881,376523
1143.99,0.053841,426786,377024
1147.58,0.054833,428617,377778
1151.17,0.056054,431169,378960
1154.75,0.056990,433579,380258
1158.33,0.059007,436264,380840
1161.91,0.060743,439132,381814
1165.48,0.063498,442389,382214
1169.04,0.066432,446101,382826
1173.79,0.069024,451929,385519
1177.34,0.072128,456026,386244
1180.9,0.074173,461306,388880
1184.44,0.076370,467657,392245
1187.99,0.077303,473969,396686
1191.52,0.077073,479856,401826
1195.06,0.076175,487372,408964
1199.76,0.075739,497347,417754
1203.29,0.074651,504311,424666
1206.81,0.074047,511507,431325
1210.33,0.073161,519078,438603
1213.84,0.072299,527163,446320
1217.35,0.071939,534208,452659
1220.85,0.070677,540472,459300
1225.51,0.069942,549929,468128
1229.01,0.069340,556888,474709
1232.5,0.068890,562180,479717
1235.98,0.067878,567975,485793
1239.46,0.067048,574815,492584
1242.94,0.066419,582782,500135
1246.41,0.065381,591476,508810
1251.03,0.065253,604016,519751
1254.5,0.065601,612289,526448
1257.96,0.066032,619125,531797
1261.41,0.066645,624551,535702
1264.86,0.066883,629900,539994
1268.31,0.067919,634345,542509
1271.75,0.068341,638574,545595
1276.33,0.069082,642499,548013
1279.76,0.068908,645905,551138
1283.19,0.068135,648307,554174
1286.61,0.068053,650446,556107
1290.03,0.067634,652132,558087
1293.44,0.067154,653907,560225
1296.85,0.066763,655963,562492
1301.39,0.066528,657349,563986
1304.8,0.066317,657558,564439
1308.19,0.066825,658515,564600
1311.58,0.067142,658804,564435
1314.97,0.067968,659011,563540
1318.36,0.068241,658272,562554
1321.73,0.068362,658022,562184
1326.23,0.069501,657870,560582
1329.6,0.070064,656482,558674
1332.97,0.071439,654926,555589
1336.33,0.072638,653727,553043
1339.69,0.074703,652497,549383
1343.04,0.076407,649913,545065
1346.39,0.078046,647671,541138
1349.73,0.080290,645338,536410
1354.18,0.083870,641175,528575
1357.52,0.085681,638376,524077
1360.85,0.088255,635805,518882
1364.17,0.090519,633413,514242
1367.49,0.092694,631026,509745
1370.81,0.095534,628050,504034
1374.12,0.097498,625034,499351
1378.54,0.101151,620272,491395
1381.84,0.104524,616892,484937
1385.14,0.108465,613613,478002
1388.43,0.113075,611526,471346
1391.72,0.117920,610663,465459
1395.01,0.122430,610634,460629
1398.29,0.128102,611700,455446
1402.66,0.135431,614051,449545
1405.93,0.140946,616268,445475
1409.2,0.146341,617795,441066
1412.46,0.151946,618872,436169
1415.72,0.156327,619795,432435
1418.98,0.160731,620495,428556
1422.23,0.164701,621087,425061
1426.56,0.168652,621375,421407
1429.8,0.171414,621616,418898
1433.04,0.174126,622129,416634
1436.27,0.176856,621526,413622
1439.5,0.179184,621113,411137
1442.72,0.181408,620921,408911
1445.94,0.183584,620270,406440
1450.23,0.187259,618860,402099
1453.44,0.190853,617697,398036
1456.64,0.193407,616264,394784
1459.85,0.196549,614413,390761
1463.04,0.199344,612307,386924
1466.24,0.202426,610032,382760
1469.43,0.205940,607345,378003
1473.67,0.212428,603789,370218
1476.85,0.218057,601175,363868
1480.02,0.223713,597737,357106
1483.19,0.230363,594479,349763
1486.36,0.236335,591232,343102
1489.52,0.240978,587853,337513
1492.68,0.245246,583875,331951
1496.89,0.247217,578062,327158
1500.03,0.247884,574159,324450
1503.18,0.247794,570285,322328
1506.32,0.246982,565444,320190
1509.45,0.245902,560571,318221
1512.58,0.244221,555821,316748
1515.71,0.241899,550344,315308
1519.87,0.239197,543983,313609
1522.99,0.235868,538764,312990
1526.1,0.234113,533692,311299
1529.21,0.230262,527902,310664
1532.32,0.227116,521886,309357
1535.42,0.224130,515888,307911
1538.51,0.220906,509987,306657
1541.6,0.218137,503936,304957
1545.72,0.213448,494694,302614
1548.8,0.210229,488378,300973
1551.88,0.207426,481832,298861
1554.95,0.205351,474989,296028
1558.02,0.203883,467818,292546
1561.08,0.201913,460730,289423
1564.15,0.202099,454170,285180
1568.22,0.200886,444181,279688
1571.27,0.199581,436947,275961
1574.32,0.198150,429598,272215
1577.36,0.196970,422039,268153
1580.4,0.195497,414375,264178
1583.43,0.194070,406354,259917
1586.46,0.192192,398475,255982
1590.49,0.190503,388982,250857
1593.51,0.188122,380708,246871
1596.53,0.185822,372727,242979
1599.54,0.183434,365060,239293
1602.55,0.181874,357543,235209
1605.55,0.178369,349495,231778
1608.55,0.176793,341154,227069
1612.54,0.174626,330877,221330
1615.53,0.172212,322904,217201
1618.51,0.171361,315116,212378
1621.49,0.169257,307217,208060
1624.47,0.168634,299481,203112
1627.44,0.167752,292112,198517
1630.41,0.166938,284245,193533
1634.36,0.164780,274079,187541
1637.32,0.164631,266916,182702
1640.27,0.164156,259612,177897
1643.22,0.162432,251804,173233
1646.16,0.161399,244348,168504
1649.1,0.160399,236703,163608
1652.04,0.159881,228171,157899
1655.95,0.156635,215408,150185
1658.88,0.153261,204937,143999
1661.8,0.150775,193395,136669
1664.72,0.143249,179728,129231
1667.63,0.132735,163642,120548
1670.54,0.121713,146312,110552
1673.44,0.109442,128451,99838
1677.31,0.093493,105080,84728
1680.21,0.084830,88906,73131
1683.1,0.082693,75033,62024
1685.99,0.085490,63520,52170
1688.87,0.090272,53714,43633
1691.75,0.090025,45653,37106
1694.62,0.098739,39137,31178
1697.49,0.100311,33776,26810
1701.31,0.110075,28175,21867