File: samples/wool/wool-000811/Column 1_050546_20150331_115809.csv
Method:,Column 1,,
Host Date-Time:,31/3/15 @ 11:58:9,,
Header Version:,1,,
System Temp (C):,32.99,,
Detector Temp (C):,31.62,,
Humidity (%):,2.44,,
Lamp PD:,3823,,
Shift Vector Coefficients:,-10.5391,0.0761263,-0.000134223,,
Pixel to Wavelength Coefficients:,1775.68,-0.916766,-0.000235065,,
Serial Number:,5510004,,
Scan Config Name:,Column 1,,
Scan Config Type:,Slew,,
Section 1,,
Start wavelength (nm):,900,,
End wavelength (nm):,1700,,
Pattern Pixel Width (nm):,   7.03,,,,
Exposure (ms):,  0.635,,,,
Digital Resolution:,228,,
Num Repeats:,6,,
PGA Gain:,64,,
Total Measurement Time in sec:,  2.681,,
Wavelength (nm),Absorbance (AU),Reference Signal (unitless),Sample Signal (unitless)
901.51,0.045186,108485,97765
905.376,0.050326,121306,108033
909.237,0.053423,131909,116641
913.095,0.054177,143299,126493
916.948,0.054036,156982,138616
922.079,0.054905,179937,158568
925.923,0.054805,200504,176733
929.762,0.056269,222660,195602
933.597,0.055978,244426,214867
937.427,0.056534,263972,231752
941.254,0.056869,281845,247253
945.076,0.055820,297271,261416
950.165,0.055143,315605,277972
953.978,0.056471,328029,288032
957.786,0.055728,340470,299468
961.59,0.056607,352317,309262
965.389,0.056676,363056,318638
969.185,0.056889,373162,327347
972.976,0.057304,382632,335334
976.763,0.057803,391202,342451
981.806,0.058504,400190,349754
985.583,0.059300,406088,354258
989.355,0.059781,410162,357416
993.124,0.060485,412868,359192
996.888,0.061018,414263,359963
1000.65,0.061856,415476,360321
1004.4,0.062741,415479,359590
1009.41,0.064287,414358,357346
1013.15,0.064887,412923,355617
1016.89,0.065290,411526,354085
1020.63,0.065580,409066,351733
1024.36,0.064621,406777,350538
1028.09,0.064615,404427,348518
1031.82,0.064503,401911,346439
1036.78,0.063988,398410,343829
1040.49,0.063294,396204,342472
1044.2,0.063220,394236,340829
1047.91,0.062178,392042,339746
1051.61,0.061632,389823,338248
1055.31,0.060363,388234,337855
1059,0.059880,387599,337678
1063.92,0.059154,386688,337448
1067.61,0.057959,386598,338299
1071.29,0.056410,387377,340192
1074.96,0.056958,388536,340779
1078.63,0.056130,389855,342589
1082.3,0.055021,391215,344663
1085.96,0.054442,393215,346887
1090.84,0.053635,396270,350232
1094.49,0.053057,398760,352902
1098.14,0.052778,400987,355101
1101.79,0.053008,403477,357117
1105.43,0.052625,406116,359770
1109.06,0.051499,407701,362112
1112.7,0.051926,409859,363671
1117.53,0.051785,412494,366128
1121.15,0.052576,414909,367601
1124.77,0.053212,416559,368523
1128.38,0.054786,418532,368929
1131.99,0.056724,419956,368536
1135.6,0.058484,421946,368785
1139.2,0.060646,423881,368636
1143.99,0.063377,426786,368836
1147.58,0.064160,428617,369751
1151.17,0.065182,431169,371078
1154.75,0.067052,433579,371549
1158.33,0.069598,436264,371665
1161.91,0.071715,439132,372289
1165.48,0.074151,442389,372952
1169.04,0.077620,446101,373090
1173.79,0.081320,451929,374757
1177.34,0.083848,456026,375960
1180.9,0.086704,461306,377820
1184.44,0.087960,467657,381916
1187.99,0.089524,473969,385679
1191.52,0.088890,479856,391040
1195.06,0.088278,487372,397725
1199.76,0.086999,497347,407062
1203.29,0.085436,504311,414250
1206.81,0.084800,511507,420777
1210.33,0.083520,519078,428265
1213.84,0.082458,527163,436000
1217.35,0.081472,534208,442831
1220.85,0.079970,540472,449576
1225.51,0.078919,549929,458551
1229.01,0.078041,556888,465293
1232.5,0.076955,562180,470891
1235.98,0.076610,567975,476123
1239.46,0.075230,574815,483390
1242.94,0.073989,582782,491493
1246.41,0.073276,591476,499644
1251.03,0.072606,604016,511025
1254.5,0.072579,612289,518057
1257.96,0.073084,619125,523232
1261.41,0.073533,624551,527272
1264.86,0.074508,629900,530596
1268.31,0.074910,634345,533845
1271.75,0.075738,638574,536381
1276.33,0.076165,642499,539147
1279.76,0.076058,645905,542139
1283.19,0.075357,648307,545034
1286.61,0.074896,650446,547413
1290.03,0.074356,652132,549515
1293.44,0.074019,653907,551439
1296.85,0.073697,655963,553583
1301.39,0.073491,657349,555016
1304.8,0.073571,657558,555090
1308.19,0.073927,658515,555442
1311.58,0.073947,658804,555660
1314.97,0.074759,659011,554797
1318.36,0.075195,658272,553618
1321.73,0.075033,658022,553614
1326.23,0.076206,657870,551994
1329.6,0.077442,656482,549263
1332.97,0.078872,654926,546161
1336.33,0.079513,653727,544356
1339.69,0.081540,652497,540802
1343.04,0.083900,649913,535742
1346.39,0.086152,647671,531132
1349.73,0.088485,645338,526383
1354.18,0.092294,641175,518421
1357.52,0.094503,638376,513539
1360.85,0.096613,635805,508992
1364.17,0.099550,633413,503659
1367.49,0.101938,631026,499010
1370.81,0.104316,628050,493945
1374.12,0.107314,625034,488191
1378.54,0.110998,620272,480379
1381.84,0.114982,616892,473399
1385.14,0.119058,613613,466484
1388.43,0.124394,611526,459220
1391.72,0.130001,610663,452690
1395.01,0.135339,610634,447138
1398.29,0.141772,611700,441333
1402.66,0.149524,614051,435192
1405.93,0.156696,616268,429609
1409.2,0.162413,617795,425042
1412.46,0.168874,618872,419495
1415.72,0.173214,619795,415943
1418.98,0.177324,620495,412491
1422.23,0.181758,621087,408690
1426.56,0.186177,621375,404741
1429.8,0.189599,621616,401720
1433.04,0.192653,622129,399234
1436.27,0.194625,621526,397040
1439.5,0.196998,621113,394614
1442.72,0.199739,620921,392010
1445.94,0.202477,620270,389138
1450.23,0.206118,618860,385012
1453.44,0.209018,617697,381731
1456.64,0.211806,616264,378408
1459.85,0.214563,614413,374884
1463.04,0.217818,612307,370810
1466.24,0.220338,610032,367295
1469.43,0.224000,607345,362606
1473.67,0.229230,603789,356168
1476.85,0.234112,601175,350662
1480.02,0.239978,597737,343979
1483.19,0.247332,594479,336360
1486.36,0.252692,591232,330420
1489.52,0.258113,587853,324456
1492.68,0.262620,583875,318933
1496.89,0.265395,578062,313747
1500.03,0.265820,574159,311324
1503.18,0.266379,570285,308825
1506.32,0.266013,565444,306462
1509.45,0.264730,560571,304720
1512.58,0.262520,555821,303679
1515.71,0.260325,550344,302210
1519.87,0.257878,543983,300405
1522.99,0.254477,538764,299862
1526.1,0.252233,533692,298578
1529.21,0.249098,527902,297478
1532.32,0.245725,521886,296381
1535.42,0.242345,515888,295264
1538.51,0.238916,509987,294200
1541.6,0.236282,503936,292478
1545.72,0.230841,494694,290734
1548.8,0.227861,488378,288998
1551.88,0.225388,481832,286753
1554.95,0.222540,474989,284540
1558.02,0.220645,467818,281470
1561.08,0.218997,460730,278259
1564.15,0.218578,454170,274562
1568.22,0.216489,444181,269818
1571.27,0.216926,436947,265157
1574.32,0.214743,429598,262011
1577.36,0.213662,422039,258042
1580.4,0.212133,414375,254250
1583.43,0.210753,406354,250122
1586.46,0.208512,398475,246541
1590.49,0.206254,388982,241922
1593.51,0.203836,380708,238098
1596.53,0.200850,372727,234715
1599.54,0.198673,365060,231042
1602.55,0.195862,357543,227754
1605.55,0.194716,349495,223216
1608.55,0.191241,341154,219639
1612.54,0.188478,330877,214382
1615.53,0.187260,322904,209804
1618.51,0.184875,315116,205871
1621.49,0.183718,307217,201246
1624.47,0.182285,299481,196827
1627.44,0.180485,292112,192781
1630.41,0.179563,284245,187988
1634.36,0.177711,274079,182039
1637.32,0.176511,266916,177772
1640.27,0.174710,259612,173626
1643.22,0.174112,251804,168636
1646.16,0.173488,244348,163878
1649.1,0.172749,236703,159021
1652.04,0.170850,228171,153961
1655.95,0.169981,215408,145640
1658.88,0.166987,204937,139519
1661.8,0.165115,193395,132230
1664.72,0.160159,179728,124296
1667.63,0.153114,163642,115022
1670.54,0.146700,146312,104371
1673.44,0.137220,128451,93652
1677.31,0.129403,105080,78004
1680.21,0.126390,88906,66457
1683.1,0.123796,75033,56423
1685.99,0.131349,63520,46942
1688.87,0.135032,53714,39360
1691.75,0.140035,45653,33070
1694.62,0.144856,39137,28037
1697.49,0.149067,33776,23963
1701.31,0.156369,28175,19656