File: samples/wool/wool-000811/Column 1_050621_20150331_123343.csv
Method:,Column 1,,
Host Date-Time:,31/3/15 @ 12:33:43,,
Header Version:,1,,
System Temp (C):,34.13,,
Detector Temp (C):,35.03,,
Humidity (%):,1.56,,
Lamp PD:,3818,,
Shift Vector Coefficients:,-10.5391,0.0761263,-0.000134223,,
Pixel to Wavelength Coefficients:,1775.68,-0.916766,-0.000235065,,
Serial Number:,5510004,,
Scan Config Name:,Column 1,,
Scan Config Type:,Slew,,
Section 1,,
Start wavelength (nm):,900,,
End wavelength (nm):,1700,,
Pattern Pixel Width (nm):,   7.03,,,,
Exposure (ms):,  0.635,,,,
Digital Resolution:,228,,
Num Repeats:,6,,
PGA Gain:,64,,
Total Measurement Time in sec:,  2.722,,
Wavelength (nm),Absorbance (AU),Reference Signal (unitless),Sample Signal (unitless)
901.51,0.070083,108485,92318
905.376,0.077763,121306,101419
909.237,0.077400,131909,110376
913.095,0.077192,143299,119964
916.948,0.079501,156982,130722
922.079,0.080453,179937,149509
925.923,0.083060,200504,165601
929.762,0.082409,222660,184176
933.597,0.082854,244426,201973
937.427,0.081120,263972,218997
941.254,0.080090,281845,234380
945.076,0.079848,297271,247346
950.165,0.079111,315605,263047
953.978,0.077555,328029,274383
957.786,0.078223,340470,284352
961.59,0.078157,352317,294291
965.389,0.077024,363056,304053
969.185,0.077733,373162,312007
972.976,0.077953,382632,319763
976.763,0.078981,391202,326152
981.806,0.079306,400190,333396
985.583,0.079959,406088,337801
989.355,0.079937,410162,341207
993.124,0.080398,412868,343094
996.888,0.081116,414263,343685
1000.65,0.081658,415476,344261
1004.4,0.083402,415479,342884
1009.41,0.084560,414358,341048
1013.15,0.084209,412923,340142
1016.89,0.085306,411526,338136
1020.63,0.085158,409066,336229
1024.36,0.084475,406777,334874
1028.09,0.084489,404427,332929
1031.82,0.085234,401911,330290
1036.78,0.083729,398410,328550
1040.49,0.083374,396204,326998
1044.2,0.084783,394236,324320
1047.91,0.083519,392042,323455
1051.61,0.083275,389823,321805
1055.31,0.083287,388234,320484
1059,0.082713,387599,320383
1063.92,0.080875,386688,320986
1067.61,0.080611,386598,321106
1071.29,0.080858,387377,321570
1074.96,0.079777,388536,323336
1078.63,0.079403,389855,324713
1082.3,0.078200,391215,326750
1085.96,0.077449,393215,328989
1090.84,0.076981,396270,331902
1094.49,0.076388,398760,334444
1098.14,0.075727,400987,336824
1101.79,0.075125,403477,339386
1105.43,0.074520,406116,342082
1109.06,0.073994,407701,343833
1112.7,0.073379,409859,346143
1117.53,0.072900,412494,348753
1121.15,0.073422,414909,350373
1124.77,0.074042,416559,351265
1128.38,0.074722,418532,352376
1131.99,0.076024,419956,352517
1135.6,0.077786,421946,352753
1139.2,0.078901,423881,353462
1143.99,0.080313,426786,354729
1147.58,0.081615,428617,355185
1151.17,0.082622,431169,356472
1154.75,0.083286,433579,357917
1158.33,0.084613,436264,359035
1161.91,0.085940,439132,360292
1165.48,0.088545,442389,360794
1169.04,0.090711,446101,362011
1173.79,0.094018,451929,363959
1177.34,0.095863,456026,365701
1180.9,0.098480,461306,367713
1184.44,0.099910,467657,371550
1187.99,0.100869,473969,375734
1191.52,0.101050,479856,380243
1195.06,0.100971,487372,386269
1199.76,0.100123,497347,394945
1203.29,0.099722,504311,400845
1206.81,0.099267,511507,406991
1210.33,0.097948,519078,414271
1213.84,0.097931,527163,420740
1217.35,0.097422,534208,426863
1220.85,0.096600,540472,432686
1225.51,0.095662,549929,441209
1229.01,0.095619,556888,446837
1232.5,0.094307,562180,452448
1235.98,0.093872,567975,457570
1239.46,0.092944,574815,464071
1242.94,0.092253,582782,471252
1246.41,0.091590,591476,479013
1251.03,0.091274,604016,489525
1254.5,0.091295,612289,496205
1257.96,0.091790,619125,501174
1261.41,0.092323,624551,504946
1264.86,0.092865,629900,508635
1268.31,0.093406,634345,511587
1271.75,0.093939,638574,514366
1276.33,0.094157,642499,517268
1279.76,0.093904,645905,520313
1283.19,0.093754,648307,522428
1286.61,0.093469,650446,524496
1290.03,0.093087,652132,526318
1293.44,0.092446,653907,528531
1296.85,0.092416,655963,530229
1301.39,0.092028,657349,531824
1304.8,0.091712,657558,532380
1308.19,0.092392,658515,532321
1311.58,0.091943,658804,533106
1314.97,0.092807,659011,532213
1318.36,0.093197,658272,531139
1321.73,0.093405,658022,530683
1326.23,0.094058,657870,529764
1329.6,0.094521,656482,528083
1332.97,0.095499,654926,525646
1336.33,0.096769,653727,523151
1339.69,0.097656,652497,521102
1343.04,0.099174,649913,517227
1346.39,0.101177,647671,513071
1349.73,0.102907,645338,509191
1354.18,0.105868,641175,502468
1357.52,0.107741,638376,498122
1360.85,0.110001,635805,493541
1364.17,0.111980,633413,489449
1367.49,0.114016,631026,485323
1370.81,0.116438,628050,480348
1374.12,0.118080,625034,476238
1378.54,0.121382,620272,469029
1381.84,0.123481,616892,464225
1385.14,0.127255,613613,457762
1388.43,0.130021,611526,453309
1391.72,0.134102,610663,448435
1395.01,0.138140,610634,444264
1398.29,0.142604,611700,440488
1402.66,0.148301,614051,436419
1405.93,0.152991,616268,433290
1409.2,0.157688,617795,429691
1412.46,0.161756,618872,426427
1415.72,0.165400,619795,423495
1418.98,0.168851,620495,420617
1422.23,0.172170,621087,417813
1426.56,0.176095,621375,414246
1429.8,0.178402,621616,412212
1433.04,0.181094,622129,410002
1436.27,0.183246,621526,407580
1439.5,0.185111,621113,405564
1442.72,0.187365,620921,403340
1445.94,0.190019,620270,400462
1450.23,0.193769,618860,396117
1453.44,0.196323,617697,393054
1456.64,0.199554,616264,389236
1459.85,0.202361,614413,385567
1463.04,0.205038,612307,381884
1466.24,0.208364,610032,377562
1469.43,0.212399,607345,372423
1473.67,0.219277,603789,364425
1476.85,0.225043,601175,358062
1480.02,0.230957,597737,351199
1483.19,0.238420,594479,343334
1486.36,0.244051,591232,337060
1489.52,0.248957,587853,331369
1492.68,0.251858,583875,326935
1496.89,0.254668,578062,321593
1500.03,0.254334,574159,319667
1503.18,0.255103,570285,316949
1506.32,0.253677,565444,315292
1509.45,0.252658,560571,313309
1512.58,0.250523,555821,312185
1515.71,0.248178,550344,310782
1519.87,0.246035,543983,308710
1522.99,0.243145,538764,307789
1526.1,0.240024,533692,307091
1529.21,0.237492,527902,305535
1532.32,0.234808,521886,303926
1535.42,0.231715,515888,302580
1538.51,0.228440,509987,301383
1541.6,0.225476,503936,299847
1545.72,0.221541,494694,297027
1548.8,0.219545,488378,294585
1551.88,0.216664,481832,292571
1554.95,0.214092,474989,290129
1558.02,0.213583,467818,286084
1561.08,0.211970,460730,282798
1564.15,0.211603,454170,279007
1568.22,0.210574,444181,273518
1571.27,0.210426,436947,269155
1574.32,0.209451,429598,265223
1577.36,0.208478,422039,261141
1580.4,0.206478,414375,257582
1583.43,0.205204,406354,253338
1586.46,0.204237,398475,248980
1590.49,0.202141,388982,244224
1593.51,0.200171,380708,240116
1596.53,0.197890,372727,236320
1599.54,0.196599,365060,232148
1602.55,0.194028,357543,228718
1605.55,0.192832,349495,224186
1608.55,0.190937,341154,219793
1612.54,0.189799,330877,213731
1615.53,0.186695,322904,210077
1618.51,0.185857,315116,205406
1621.49,0.185489,307217,200427
1624.47,0.183159,299481,196431
1627.44,0.183201,292112,191579
1630.41,0.181111,284245,187319
1634.36,0.180598,274079,180833
1637.32,0.180066,266916,176323
1640.27,0.179780,259612,171611
1643.22,0.178346,251804,167000
1646.16,0.177209,244348,162480
1649.1,0.175987,236703,157840
1652.04,0.175523,228171,152313
1655.95,0.173881,215408,144338
1658.88,0.167835,204937,139247
1661.8,0.163889,193395,132604
1664.72,0.156014,179728,125488
1667.63,0.143133,163642,117696
1670.54,0.129042,146312,108702
1673.44,0.109620,128451,99797
1677.31,0.092495,105080,84923
1680.21,0.082148,88906,73584
1683.1,0.072342,75033,63520
1685.99,0.073689,63520,53607
1688.87,0.079586,53714,44720
1691.75,0.086609,45653,37399
1694.62,0.083654,39137,32280
1697.49,0.094918,33776,27145
1701.31,0.099131,28175,22425