File: samples/wool/wool-000811/Column 1_050614_20150331_123011.csv
Method:,Column 1,,
Host Date-Time:,31/3/15 @ 12:30:11,,
Header Version:,1,,
System Temp (C):,34.08,,
Detector Temp (C):,34.97,,
Humidity (%):,1.66,,
Lamp PD:,3818,,
Shift Vector Coefficients:,-10.5391,0.0761263,-0.000134223,,
Pixel to Wavelength Coefficients:,1775.68,-0.916766,-0.000235065,,
Serial Number:,5510004,,
Scan Config Name:,Column 1,,
Scan Config Type:,Slew,,
Section 1,,
Start wavelength (nm):,900,,
End wavelength (nm):,1700,,
Pattern Pixel Width (nm):,   7.03,,,,
Exposure (ms):,  0.635,,,,
Digital Resolution:,228,,
Num Repeats:,6,,
PGA Gain:,64,,
Total Measurement Time in sec:,  2.673,,
Wavelength (nm),Absorbance (AU),Reference Signal (unitless),Sample Signal (unitless)
901.51,0.068477,108485,92660
905.376,0.073044,121306,102527
909.237,0.076009,131909,110730
913.095,0.076490,143299,120158
916.948,0.078602,156982,130993
922.079,0.079725,179937,149760
925.923,0.081231,200504,166300
929.762,0.081832,222660,184421
933.597,0.081740,244426,202492
937.427,0.079783,263972,219672
941.254,0.080277,281845,234279
945.076,0.078200,297271,248286
950.165,0.078385,315605,263487
953.978,0.077329,328029,274526
957.786,0.077016,340470,285143
961.59,0.077478,352317,294751
965.389,0.077529,363056,303700
969.185,0.077238,373162,312363
972.976,0.077656,382632,319982
976.763,0.078407,391202,326583
981.806,0.078647,400190,333902
985.583,0.079414,406088,338225
989.355,0.079135,410162,341838
993.124,0.079906,412868,343483
996.888,0.080593,414263,344099
1000.65,0.080999,415476,344784
1004.4,0.082535,415479,343569
1009.41,0.083925,414358,341547
1013.15,0.084088,412923,340237
1016.89,0.084687,411526,338618
1020.63,0.083843,409066,337249
1024.36,0.084247,406777,335050
1028.09,0.084615,404427,332832
1031.82,0.084083,401911,331167
1036.78,0.083741,398410,328541
1040.49,0.083819,396204,326663
1044.2,0.083624,394236,325186
1047.91,0.083268,392042,323642
1051.61,0.082954,389823,322043
1055.31,0.081757,388234,321615
1059,0.081722,387599,321115
1063.92,0.080657,386688,321147
1067.61,0.080341,386598,321306
1071.29,0.080196,387377,322061
1074.96,0.079830,388536,323297
1078.63,0.079002,389855,325013
1082.3,0.078211,391215,326742
1085.96,0.077587,393215,328884
1090.84,0.076497,396270,332272
1094.49,0.075872,398760,334842
1098.14,0.075671,400987,336868
1101.79,0.074543,403477,339841
1105.43,0.074930,406116,341759
1109.06,0.073889,407701,343916
1112.7,0.073718,409859,345873
1117.53,0.073195,412494,348516
1121.15,0.073443,414909,350356
1124.77,0.073428,416559,351762
1128.38,0.074583,418532,352489
1131.99,0.075740,419956,352747
1135.6,0.077167,421946,353256
1139.2,0.077973,423881,354218
1143.99,0.080796,426786,354335
1147.58,0.081524,428617,355259
1151.17,0.082011,431169,356974
1154.75,0.082881,433579,358251
1158.33,0.084210,436264,359368
1161.91,0.085971,439132,360267
1165.48,0.087977,442389,361266
1169.04,0.090168,446101,362464
1173.79,0.093498,451929,364395
1177.34,0.095157,456026,366296
1180.9,0.097605,461306,368455
1184.44,0.099797,467657,371647
1187.99,0.100508,473969,376047
1191.52,0.100245,479856,380948
1195.06,0.100694,487372,386515
1199.76,0.099606,497347,395415
1203.29,0.098986,504311,401525
1206.81,0.098791,511507,407437
1210.33,0.098304,519078,413932
1213.84,0.097662,527163,421001
1217.35,0.097510,534208,426776
1220.85,0.096233,540472,433052
1225.51,0.095205,549929,441674
1229.01,0.095005,556888,447469
1232.5,0.094420,562180,452330
1235.98,0.093948,567975,457490
1239.46,0.093159,574815,463841
1242.94,0.091640,582782,471918
1246.41,0.091409,591476,479212
1251.03,0.091536,604016,489229
1254.5,0.091506,612289,495964
1257.96,0.091651,619125,501334
1261.41,0.092127,624551,505174
1264.86,0.093033,629900,508439
1268.31,0.093420,634345,511570
1271.75,0.094040,638574,514246
1276.33,0.094250,642499,517157
1279.76,0.094142,645905,520028
1283.19,0.093189,648307,523109
1286.61,0.093380,650446,524604
1290.03,0.092947,652132,526488
1293.44,0.092548,653907,528406
1296.85,0.092196,655963,530497
1301.39,0.091833,657349,532063
1304.8,0.092047,657558,531970
1308.19,0.091893,658515,532933
1311.58,0.091787,658804,533297
1314.97,0.092592,659011,532477
1318.36,0.092939,658272,531455
1321.73,0.093231,658022,530896
1326.23,0.094177,657870,529619
1329.6,0.094962,656482,527546
1332.97,0.095619,654926,525501
1336.33,0.096403,653727,523593
1339.69,0.098096,652497,520574
1343.04,0.100017,649913,516224
1346.39,0.101494,647671,512697
1349.73,0.103390,645338,508624
1354.18,0.106000,641175,502315
1357.52,0.108213,638376,497581
1360.85,0.110232,635805,493278
1364.17,0.111851,633413,489594
1367.49,0.114734,631026,484522
1370.81,0.116642,628050,480123
1374.12,0.118806,625034,475442
1378.54,0.121307,620272,469111
1381.84,0.124098,616892,463565
1385.14,0.127489,613613,457515
1388.43,0.131053,611526,452233
1391.72,0.134802,610663,447713
1395.01,0.138348,610634,444051
1398.29,0.142974,611700,440113
1402.66,0.149201,614051,435515
1405.93,0.153828,616268,432456
1409.2,0.158585,617795,428805
1412.46,0.162807,618872,425396
1415.72,0.166874,619795,422060
1418.98,0.170412,620495,419108
1422.23,0.173319,621087,416710
1426.56,0.177204,621375,413190
1429.8,0.179744,621616,410940
1433.04,0.181765,622129,409369
1436.27,0.184294,621526,406598
1439.5,0.185963,621113,404769
1442.72,0.188834,620921,401978
1445.94,0.190901,620270,399650
1450.23,0.195071,618860,394931
1453.44,0.197898,617697,391631
1456.64,0.200052,616264,388790
1459.85,0.203669,614413,384407
1463.04,0.206608,612307,380506
1466.24,0.209163,610032,376868
1469.43,0.213395,607345,371570
1473.67,0.219530,603789,364213
1476.85,0.224891,601175,358187
1480.02,0.231392,597737,350847
1483.19,0.238176,594479,343527
1486.36,0.243955,591232,337134
1489.52,0.248703,587853,331563
1492.68,0.252002,583875,326827
1496.89,0.254241,578062,321909
1500.03,0.254599,574159,319472
1503.18,0.255300,570285,316805
1506.32,0.254206,565444,314908
1509.45,0.252160,560571,313668
1512.58,0.250766,555821,312010
1515.71,0.248678,550344,310425
1519.87,0.245814,543983,308867
1522.99,0.242569,538764,308198
1526.1,0.241193,533692,306265
1529.21,0.238003,527902,305176
1532.32,0.234948,521886,303828
1535.42,0.232313,515888,302164
1538.51,0.229180,509987,300870
1541.6,0.226314,503936,299269
1545.72,0.223512,494694,295682
1548.8,0.218778,488378,295106
1551.88,0.216857,481832,292441
1554.95,0.215143,474989,289428
1558.02,0.213735,467818,285984
1561.08,0.212336,460730,282560
1564.15,0.211691,454170,278951
1568.22,0.210572,444181,273519
1571.27,0.211569,436947,268448
1574.32,0.209463,429598,265216
1577.36,0.207843,422039,261523
1580.4,0.207635,414375,256897
1583.43,0.205861,406354,252955
1586.46,0.204209,398475,248996
1590.49,0.202606,388982,243963
1593.51,0.200971,380708,239674
1596.53,0.198306,372727,236094
1599.54,0.196453,365060,232226
1602.55,0.194497,357543,228471
1605.55,0.192405,349495,224407
1608.55,0.190796,341154,219864
1612.54,0.188533,330877,214355
1615.53,0.187376,322904,209748
1618.51,0.186691,315116,205012
1621.49,0.185203,307217,200559
1624.47,0.183945,299481,196076
1627.44,0.182171,292112,192034
1630.41,0.182630,284245,186665
1634.36,0.181038,274079,180650
1637.32,0.178966,266916,176770
1640.27,0.179620,259612,171674
1643.22,0.177255,251804,167420
1646.16,0.176982,244348,162565
1649.1,0.176807,236703,157542
1652.04,0.174410,228171,152704
1655.95,0.172871,215408,144674
1658.88,0.168203,204937,139129
1661.8,0.162995,193395,132877
1664.72,0.155080,179728,125758
1667.63,0.142274,163642,117929
1670.54,0.127197,146312,109165
1673.44,0.111107,128451,99456
1677.31,0.090408,105080,85332
1680.21,0.077656,88906,74349
1683.1,0.073300,75033,63380
1685.99,0.072888,63520,53706
1688.87,0.078955,53714,44785
1691.75,0.081094,45653,37877
1694.62,0.082955,39137,32332
1697.49,0.091921,33776,27333
1701.31,0.098512,28175,22457