File: samples/wool/wool-000811/Column 1_050555_20150331_120225.csv
Method:,Column 1,,
Host Date-Time:,31/3/15 @ 12:2:25,,
Header Version:,1,,
System Temp (C):,33.47,,
Detector Temp (C):,32.57,,
Humidity (%):,2.44,,
Lamp PD:,3820,,
Shift Vector Coefficients:,-10.5391,0.0761263,-0.000134223,,
Pixel to Wavelength Coefficients:,1775.68,-0.916766,-0.000235065,,
Serial Number:,5510004,,
Scan Config Name:,Column 1,,
Scan Config Type:,Slew,,
Section 1,,
Start wavelength (nm):,900,,
End wavelength (nm):,1700,,
Pattern Pixel Width (nm):,   7.03,,,,
Exposure (ms):,  0.635,,,,
Digital Resolution:,228,,
Num Repeats:,6,,
PGA Gain:,64,,
Total Measurement Time in sec:,  2.676,,
Wavelength (nm),Absorbance (AU),Reference Signal (unitless),Sample Signal (unitless)
901.51,0.034623,108485,100172
905.376,0.038720,121306,110959
909.237,0.041792,131909,119807
913.095,0.043045,143299,129777
916.948,0.043210,156982,142115
922.079,0.044920,179937,162256
925.923,0.046106,200504,180309
929.762,0.046445,222660,200077
933.597,0.046268,244426,219725
937.427,0.046222,263972,237321
941.254,0.045957,281845,253544
945.076,0.045451,297271,267733
950.165,0.045650,315605,284115
953.978,0.044857,328029,295839
957.786,0.045760,340470,306421
961.59,0.046661,352317,316426
965.389,0.046173,363056,326438
969.185,0.046523,373162,335254
972.976,0.047312,382632,343138
976.763,0.047873,391202,350371
981.806,0.048367,400190,358013
985.583,0.049059,406088,362711
989.355,0.049795,410162,365730
993.124,0.050057,412868,367921
996.888,0.050728,414263,368594
1000.65,0.051387,415476,369113
1004.4,0.052596,415479,368089
1009.41,0.054576,414358,365426
1013.15,0.053968,412923,364671
1016.89,0.055238,411526,362376
1020.63,0.054710,409066,360648
1024.36,0.054742,406777,358603
1028.09,0.054744,404427,356530
1031.82,0.054220,401911,354740
1036.78,0.053561,398410,352184
1040.49,0.053985,396204,349892
1044.2,0.053561,394236,348494
1047.91,0.053059,392042,346955
1051.61,0.052805,389823,345193
1055.31,0.051749,388234,344623
1059,0.051437,387599,344307
1063.92,0.050455,386688,344275
1067.61,0.049714,386598,344783
1071.29,0.048887,387377,346136
1074.96,0.048147,388536,347764
1078.63,0.048376,389855,348760
1082.3,0.047245,391215,350890
1085.96,0.046258,393215,353486
1090.84,0.045848,396270,356569
1094.49,0.045166,398760,359373
1098.14,0.044938,400987,361570
1101.79,0.045058,403477,363715
1105.43,0.044842,406116,366276
1109.06,0.044647,407701,367870
1112.7,0.044049,409859,370327
1117.53,0.044672,412494,372174
1121.15,0.044543,414909,374464
1124.77,0.045507,416559,375119
1128.38,0.047363,418532,375289
1131.99,0.048830,419956,375296
1135.6,0.050262,421946,375833
1139.2,0.052017,423881,376034
1143.99,0.054504,426786,376449
1147.58,0.055726,428617,377002
1151.17,0.057119,431169,378032
1154.75,0.058132,433579,379259
1158.33,0.059884,436264,380072
1161.91,0.062044,439132,380672
1165.48,0.064730,442389,381131
1169.04,0.067135,446101,382207
1173.79,0.070549,451929,384168
1177.34,0.073268,456026,385231
1180.9,0.075422,461306,387764
1184.44,0.077221,467657,391477
1187.99,0.078273,473969,395801
1191.52,0.078304,479856,400689
1195.06,0.077690,487372,407540
1199.76,0.077119,497347,416429
1203.29,0.075769,504311,423574
1206.81,0.074849,511507,430529
1210.33,0.073935,519078,437822
1213.84,0.073402,527163,445187
1217.35,0.072673,534208,451895
1220.85,0.071784,540472,458130
1225.51,0.070898,549929,467099
1229.01,0.070349,556888,473608
1232.5,0.069601,562180,478933
1235.98,0.069111,567975,484416
1239.46,0.067708,574815,491836
1242.94,0.067191,582782,499247
1246.41,0.066276,591476,507763
1251.03,0.065783,604016,519117
1254.5,0.066643,612289,525186
1257.96,0.066747,619125,530923
1261.41,0.067544,624551,534594
1264.86,0.067830,629900,538817
1268.31,0.068439,634345,541859
1271.75,0.069393,638574,544275
1276.33,0.069772,642499,547142
1279.76,0.069640,645905,550210
1283.19,0.068900,648307,553198
1286.61,0.068766,650446,555195
1290.03,0.068176,652132,557391
1293.44,0.067826,653907,559358
1296.85,0.067428,655963,561631
1301.39,0.067411,657349,562840
1304.8,0.067581,657558,562799
1308.19,0.067841,658515,563280
1311.58,0.067909,658804,563440
1314.97,0.068616,659011,562700
1318.36,0.069159,658272,561366
1321.73,0.069679,658022,560482
1326.23,0.070200,657870,559681
1329.6,0.071566,656482,556745
1332.97,0.072230,654926,554577
1336.33,0.073690,653727,551704
1339.69,0.075377,652497,548531
1343.04,0.077616,649913,543550
1346.39,0.080030,647671,538672
1349.73,0.082073,645338,534213
1354.18,0.085165,641175,527001
1357.52,0.087764,638376,521570
1360.85,0.089757,635805,517091
1364.17,0.091991,633413,512503
1367.49,0.094264,631026,507906
1370.81,0.096911,628050,502439
1374.12,0.099368,625034,497205
1378.54,0.102794,620272,489540
1381.84,0.106611,616892,482612
1385.14,0.110932,613613,475294
1388.43,0.115188,611526,469058
1391.72,0.120403,610663,462806
1395.01,0.125435,610634,457453
1398.29,0.131466,611700,451931
1402.66,0.139837,614051,445008
1405.93,0.145403,616268,440927
1409.2,0.151558,617795,435799
1412.46,0.156921,618872,431201
1415.72,0.161977,619795,426846
1418.98,0.166537,620495,422865
1422.23,0.170183,621087,419729
1426.56,0.174554,621375,415719
1429.8,0.177329,621616,413231
1433.04,0.180382,622129,410675
1436.27,0.182636,621526,408153
1439.5,0.184809,621113,405846
1442.72,0.187482,620921,403231
1445.94,0.189899,620270,400573
1450.23,0.193894,618860,396003
1453.44,0.196533,617697,392864
1456.64,0.199339,616264,389429
1459.85,0.202321,614413,385602
1463.04,0.205129,612307,381804
1466.24,0.208436,610032,377500
1469.43,0.211467,607345,373223
1473.67,0.216606,603789,366673
1476.85,0.222293,601175,360336
1480.02,0.228061,597737,353549
1483.19,0.234299,594479,346607
1486.36,0.239506,591232,340606
1489.52,0.245104,587853,334322
1492.68,0.247764,583875,330032
1496.89,0.250675,578062,324563
1500.03,0.250408,574159,322570
1503.18,0.251224,570285,319792
1506.32,0.249579,565444,318281
1509.45,0.248589,560571,316258
1512.58,0.246925,555821,314782
1515.71,0.244961,550344,313093
1519.87,0.241108,543983,312232
1522.99,0.238761,538764,310912
1526.1,0.236136,533692,309852
1529.21,0.233805,527902,308140
1532.32,0.230566,521886,306909
1535.42,0.227854,515888,305282
1538.51,0.224441,509987,304171
1541.6,0.220834,503936,303069
1545.72,0.217263,494694,299967
1548.8,0.213438,488378,298757
1551.88,0.210481,481832,296766
1554.95,0.208993,474989,293556
1558.02,0.206965,467818,290477
1561.08,0.206151,460730,286613
1564.15,0.205078,454170,283231
1568.22,0.203022,444181,278316
1571.27,0.203051,436947,273765
1574.32,0.200966,429598,270456
1577.36,0.200757,422039,265825
1580.4,0.198559,414375,262322
1583.43,0.196689,406354,258354
1586.46,0.195990,398475,253753
1590.49,0.192708,388982,249587
1593.51,0.191332,380708,245053
1596.53,0.188888,372727,241270
1599.54,0.186750,365060,237473
1602.55,0.184448,357543,233819
1605.55,0.182435,349495,229618
1608.55,0.179509,341154,225653
1612.54,0.178234,330877,219499
1615.53,0.175654,322904,215486
1618.51,0.173949,315116,211116
1621.49,0.172978,307217,206285
1624.47,0.171517,299481,201768
1627.44,0.171573,292112,196778
1630.41,0.169718,284245,192298
1634.36,0.168251,274079,186048
1637.32,0.165555,266916,182314
1640.27,0.165596,259612,177308
1643.22,0.164601,251804,172370
1646.16,0.164266,244348,167395
1649.1,0.163647,236703,162389
1652.04,0.162518,228171,156943
1655.95,0.159863,215408,149073
1658.88,0.156710,204937,142860
1661.8,0.154580,193395,135477
1664.72,0.150149,179728,127194
1667.63,0.139418,163642,118707
1670.54,0.130411,146312,108360
1673.44,0.118097,128451,97868
1677.31,0.108056,105080,81934
1680.21,0.101963,88906,70302
1683.1,0.100881,75033,59480
1685.99,0.108393,63520,49490
1688.87,0.107594,53714,41927
1691.75,0.112976,45653,35196
1694.62,0.122677,39137,29506
1697.49,0.121779,33776,25517
1701.31,0.125993,28175,21080