File: samples/wool/wool-000811/Column 1_050562_20150331_120536.csv
Method:,Column 1,,
Host Date-Time:,31/3/15 @ 12:5:36,,
Header Version:,1,,
System Temp (C):,33.78,,
Detector Temp (C):,33.42,,
Humidity (%):,2.05,,
Lamp PD:,3819,,
Shift Vector Coefficients:,-10.5391,0.0761263,-0.000134223,,
Pixel to Wavelength Coefficients:,1775.68,-0.916766,-0.000235065,,
Serial Number:,5510004,,
Scan Config Name:,Column 1,,
Scan Config Type:,Slew,,
Section 1,,
Start wavelength (nm):,900,,
End wavelength (nm):,1700,,
Pattern Pixel Width (nm):,   7.03,,,,
Exposure (ms):,  0.635,,,,
Digital Resolution:,228,,
Num Repeats:,6,,
PGA Gain:,64,,
Total Measurement Time in sec:,  2.671,,
Wavelength (nm),Absorbance (AU),Reference Signal (unitless),Sample Signal (unitless)
901.51,0.034437,108485,100215
905.376,0.041141,121306,110342
909.237,0.043096,131909,119448
913.095,0.044900,143299,129224
916.948,0.043308,156982,142083
922.079,0.045281,179937,162121
925.923,0.046248,200504,180250
929.762,0.047308,222660,199680
933.597,0.049259,244426,218217
937.427,0.047339,263972,236711
941.254,0.047269,281845,252779
945.076,0.045835,297271,267496
950.165,0.046226,315605,283738
953.978,0.045946,328029,295098
957.786,0.046225,340470,306093
961.59,0.046443,352317,316585
965.389,0.046446,363056,326233
969.185,0.046709,373162,335111
972.976,0.047083,382632,343319
976.763,0.047563,391202,350621
981.806,0.048452,400190,357943
985.583,0.049123,406088,362658
989.355,0.049966,410162,365586
993.124,0.049844,412868,368101
996.888,0.050489,414263,368797
1000.65,0.051140,415476,369323
1004.4,0.052461,415479,368204
1009.41,0.054162,414358,365775
1013.15,0.054914,412923,363877
1016.89,0.054902,411526,362656
1020.63,0.054783,409066,360587
1024.36,0.055354,406777,358098
1028.09,0.054346,404427,356857
1031.82,0.054892,401911,354191
1036.78,0.053786,398410,352001
1040.49,0.053236,396204,350496
1044.2,0.052918,394236,349010
1047.91,0.052630,392042,347298
1051.61,0.051862,389823,345944
1055.31,0.051222,388234,345042
1059,0.051298,387599,344417
1063.92,0.049683,386688,344888
1067.61,0.049326,386598,345091
1071.29,0.048901,387377,346125
1074.96,0.048656,388536,347356
1078.63,0.047707,389855,349298
1082.3,0.046748,391215,351291
1085.96,0.046242,393215,353499
1090.84,0.045711,396270,356681
1094.49,0.045606,398760,359009
1098.14,0.044911,400987,361592
1101.79,0.044506,403477,364177
1105.43,0.044804,406116,366308
1109.06,0.044310,407701,368156
1112.7,0.044285,409859,370126
1117.53,0.044178,412494,372597
1121.15,0.044513,414909,374490
1124.77,0.044907,416559,375638
1128.38,0.046735,418532,375832
1131.99,0.047412,419956,376523
1135.6,0.049657,421946,376357
1139.2,0.051622,423881,376376
1143.99,0.054295,426786,376630
1147.58,0.055536,428617,377167
1151.17,0.056332,431169,378718
1154.75,0.057689,433579,379646
1158.33,0.059171,436264,380696
1161.91,0.061654,439132,381014
1165.48,0.064295,442389,381513
1169.04,0.066613,446101,382666
1173.79,0.070392,451929,384307
1177.34,0.072775,456026,385669
1180.9,0.074614,461306,388486
1184.44,0.076716,467657,391933
1187.99,0.077426,473969,396574
1191.52,0.077123,479856,401780
1195.06,0.077154,487372,408044
1199.76,0.076245,497347,417267
1203.29,0.075177,504311,424152
1206.81,0.074898,511507,430481
1210.33,0.073518,519078,438243
1213.84,0.072826,527163,445778
1217.35,0.072228,534208,452358
1220.85,0.071198,540472,458749
1225.51,0.070066,549929,467994
1229.01,0.070040,556888,473945
1232.5,0.069654,562180,478874
1235.98,0.069025,567975,484512
1239.46,0.067583,574815,491977
1242.94,0.066705,582782,499806
1246.41,0.065727,591476,508405
1251.03,0.065958,604016,518908
1254.5,0.065785,612289,526225
1257.96,0.066389,619125,531361
1261.41,0.066998,624551,535266
1264.86,0.067341,629900,539425
1268.31,0.068031,634345,542369
1271.75,0.069053,638574,544701
1276.33,0.069207,642499,547855
1279.76,0.068878,645905,551176
1283.19,0.068691,648307,553465
1286.61,0.068473,650446,555569
1290.03,0.067930,652132,557706
1293.44,0.067464,653907,559825
1296.85,0.066923,655963,562285
1301.39,0.066980,657349,563399
1304.8,0.067302,657558,563160
1308.19,0.067307,658515,563974
1311.58,0.067217,658804,564338
1314.97,0.068197,659011,563243
1318.36,0.068521,658272,562192
1321.73,0.069100,658022,561229
1326.23,0.069784,657870,560217
1329.6,0.070742,656482,557803
1332.97,0.071991,654926,554883
1336.33,0.072688,653727,552979
1339.69,0.074887,652497,549151
1343.04,0.076379,649913,545100
1346.39,0.078379,647671,540724
1349.73,0.081149,645338,535351
1354.18,0.084069,641175,528333
1357.52,0.086576,638376,522999
1360.85,0.088493,635805,518598
1364.17,0.090816,633413,513891
1367.49,0.093074,631026,509299
1370.81,0.095686,628050,503858
1374.12,0.098395,625034,498320
1378.54,0.101460,620272,491046
1381.84,0.104918,616892,484497
1385.14,0.109186,613613,477209
1388.43,0.113183,611526,471229
1391.72,0.118245,610663,465111
1395.01,0.123673,610634,459312
1398.29,0.128513,611700,455015
1402.66,0.136488,614051,448452
1405.93,0.141990,616268,444406
1409.2,0.147627,617795,439762
1412.46,0.152755,618872,435357
1415.72,0.157353,619795,431415
1418.98,0.161787,620495,427515
1422.23,0.165966,621087,423825
1426.56,0.169866,621375,420231
1429.8,0.173045,621616,417328
1433.04,0.175313,622129,415497
1436.27,0.178112,621526,412427
1439.5,0.180003,621113,410362
1442.72,0.182790,620921,407611
1445.94,0.185266,620270,404869
1450.23,0.189257,618860,400254
1453.44,0.191649,617697,397307
1456.64,0.194576,616264,393723
1459.85,0.197410,614413,389987
1463.04,0.200582,612307,385822
1466.24,0.203324,610032,381969
1469.43,0.206827,607345,377232
1473.67,0.213213,603789,369549
1476.85,0.218606,601175,363408
1480.02,0.224536,597737,356430
1483.19,0.231444,594479,348893
1486.36,0.237371,591232,342284
1489.52,0.242133,587853,336617
1492.68,0.245846,583875,331493
1496.89,0.248063,578062,326521
1500.03,0.249191,574159,323475
1503.18,0.248669,570285,321679
1506.32,0.248131,565444,319344
1509.45,0.246764,560571,317590
1512.58,0.244837,555821,316299
1515.71,0.242726,550344,314708
1519.87,0.239517,543983,313378
1522.99,0.237518,538764,311803
1526.1,0.234024,533692,311363
1529.21,0.231200,527902,309994
1532.32,0.227628,521886,308992
1535.42,0.225823,515888,306713
1538.51,0.222220,509987,305731
1541.6,0.218895,503936,304425
1545.72,0.214357,494694,301981
1548.8,0.210868,488378,300530
1551.88,0.208350,481832,298226
1554.95,0.206666,474989,295133
1558.02,0.204364,467818,292222
1561.08,0.203198,460730,288568
1564.15,0.203269,454170,284413
1568.22,0.201533,444181,279272
1571.27,0.200935,436947,275102
1574.32,0.199368,429598,271453
1577.36,0.197849,422039,267611
1580.4,0.196270,414375,263708
1583.43,0.194960,406354,259385
1586.46,0.193457,398475,255237
1590.49,0.191767,388982,250128
1593.51,0.189173,380708,246274
1596.53,0.186285,372727,242720
1599.54,0.184670,365060,238613
1602.55,0.182678,357543,234774
1605.55,0.180233,349495,230785
1608.55,0.178107,341154,226383
1612.54,0.175988,330877,220637
1615.53,0.173902,322904,216357
1618.51,0.173528,315116,211321
1621.49,0.172119,307217,206693
1624.47,0.170275,299481,202346
1627.44,0.169068,292112,197916
1630.41,0.167708,284245,193190
1634.36,0.165881,274079,187066
1637.32,0.165074,266916,182516
1640.27,0.163722,259612,178075
1643.22,0.164258,251804,172506
1646.16,0.163168,244348,167819
1649.1,0.163556,236703,162423
1652.04,0.159752,228171,157946
1655.95,0.158165,215408,149657
1658.88,0.155511,204937,143255
1661.8,0.151526,193395,136433
1664.72,0.144397,179728,128890
1667.63,0.134876,163642,119955
1670.54,0.122913,146312,110247
1673.44,0.111688,128451,99323
1677.31,0.098178,105080,83819
1680.21,0.089391,88906,72367
1683.1,0.089858,75033,61009
1685.99,0.091466,63520,51457
1688.87,0.101453,53714,42524
1691.75,0.096974,45653,36517
1694.62,0.107420,39137,30561
1697.49,0.109760,33776,26233
1701.31,0.117951,28175,21474