File: samples/wool/wool-000811/Column 1_050592_20150331_121950.csv
Method:,Column 1,,
Host Date-Time:,31/3/15 @ 12:19:50,,
Header Version:,1,,
System Temp (C):,33.93,,
Detector Temp (C):,34.59,,
Humidity (%):,1.81,,
Lamp PD:,3819,,
Shift Vector Coefficients:,-10.5391,0.0761263,-0.000134223,,
Pixel to Wavelength Coefficients:,1775.68,-0.916766,-0.000235065,,
Serial Number:,5510004,,
Scan Config Name:,Column 1,,
Scan Config Type:,Slew,,
Section 1,,
Start wavelength (nm):,900,,
End wavelength (nm):,1700,,
Pattern Pixel Width (nm):,   7.03,,,,
Exposure (ms):,  0.635,,,,
Digital Resolution:,228,,
Num Repeats:,6,,
PGA Gain:,64,,
Total Measurement Time in sec:,  2.673,,
Wavelength (nm),Absorbance (AU),Reference Signal (unitless),Sample Signal (unitless)
901.51,0.069623,108485,92416
905.376,0.076715,121306,101664
909.237,0.077022,131909,110472
913.095,0.078806,143299,119519
916.948,0.079289,156982,130786
922.079,0.080918,179937,149349
925.923,0.082559,200504,165792
929.762,0.083590,222660,183676
933.597,0.082848,244426,201976
937.427,0.082329,263972,218388
941.254,0.081474,281845,233634
945.076,0.079804,297271,247371
950.165,0.079509,315605,262806
953.978,0.079368,328029,273240
957.786,0.078866,340470,283931
961.59,0.078942,352317,293759
965.389,0.079554,363056,302287
969.185,0.079872,373162,310474
972.976,0.079052,382632,318955
976.763,0.079962,391202,325416
981.806,0.080441,400190,332526
985.583,0.080770,406088,337171
989.355,0.081197,410162,340219
993.124,0.081770,412868,342012
996.888,0.082395,414263,342674
1000.65,0.083047,415476,343162
1004.4,0.084313,415479,342165
1009.41,0.085209,414358,340539
1013.15,0.085710,412923,338968
1016.89,0.086793,411526,336980
1020.63,0.086316,409066,335334
1024.36,0.086498,406777,333318
1028.09,0.086304,404427,331540
1031.82,0.086302,401911,329479
1036.78,0.085405,398410,327284
1040.49,0.085731,396204,325228
1044.2,0.085406,394236,323855
1047.91,0.085106,392042,322275
1051.61,0.084997,389823,320531
1055.31,0.084131,388234,319862
1059,0.083795,387599,319586
1063.92,0.082456,386688,319819
1067.61,0.082777,386598,319509
1071.29,0.082405,387377,320427
1074.96,0.081647,388536,321947
1078.63,0.080891,389855,323603
1082.3,0.080003,391215,325396
1085.96,0.079516,393215,327427
1090.84,0.078691,396270,330598
1094.49,0.078369,398760,332922
1098.14,0.077705,400987,335294
1101.79,0.076029,403477,338680
1105.43,0.076358,406116,340637
1109.06,0.075698,407701,342487
1112.7,0.075414,409859,344525
1117.53,0.075478,412494,346689
1121.15,0.075685,414909,348552
1124.77,0.076156,416559,349559
1128.38,0.076815,418532,350682
1131.99,0.078287,419956,350685
1135.6,0.079278,421946,351543
1139.2,0.080626,423881,352061
1143.99,0.082930,426786,352598
1147.58,0.083425,428617,353708
1151.17,0.084579,431169,354869
1154.75,0.085422,433579,356161
1158.33,0.087127,436264,356962
1161.91,0.088529,439132,358151
1165.48,0.090648,442389,359051
1169.04,0.092770,446101,360299
1173.79,0.096166,451929,362163
1177.34,0.098504,456026,363484
1180.9,0.100005,461306,366424
1184.44,0.102052,467657,369722
1187.99,0.103542,473969,373429
1191.52,0.103509,479856,378096
1195.06,0.103190,487372,384300
1199.76,0.102802,497347,392516
1203.29,0.101795,504311,398936
1206.81,0.101549,511507,404858
1210.33,0.100814,519078,411546
1213.84,0.099938,527163,418800
1217.35,0.099698,534208,424632
1220.85,0.099235,540472,430069
1225.51,0.097983,549929,438858
1229.01,0.097691,556888,444710
1232.5,0.096922,562180,449732
1235.98,0.096514,567975,454794
1239.46,0.095388,574815,461466
1242.94,0.094205,582782,469139
1246.41,0.093928,591476,476441
1251.03,0.093996,604016,486466
1254.5,0.094015,612289,493107
1257.96,0.094297,619125,498289
1261.41,0.095278,624551,501522
1264.86,0.095286,629900,505808
1268.31,0.096083,634345,508443
1271.75,0.096683,638574,511126
1276.33,0.096843,642499,514078
1279.76,0.096583,645905,517113
1283.19,0.096289,648307,519388
1286.61,0.095929,650446,521533
1290.03,0.095385,652132,523541
1293.44,0.095449,653907,524888
1296.85,0.095361,655963,526645
1301.39,0.094683,657349,528583
1304.8,0.094542,657558,528923
1308.19,0.094690,658515,529512
1311.58,0.094985,658804,529385
1314.97,0.095114,659011,529393
1318.36,0.096311,658272,527344
1321.73,0.096278,658022,527184
1326.23,0.097092,657870,526076
1329.6,0.097930,656482,523954
1332.97,0.099106,654926,521298
1336.33,0.099977,653727,519301
1339.69,0.101688,652497,516286
1343.04,0.103466,649913,512141
1346.39,0.104730,647671,508891
1349.73,0.107328,645338,504033
1354.18,0.109862,641175,497868
1357.52,0.112038,638376,493218
1360.85,0.114223,635805,488766
1364.17,0.115815,633413,485145
1367.49,0.118122,631026,480757
1370.81,0.120634,628050,475730
1374.12,0.122281,625034,471653
1378.54,0.125541,620272,464559
1381.84,0.128275,616892,459128
1385.14,0.131423,613613,453390
1388.43,0.136373,611526,446727
1391.72,0.140092,610663,442293
1395.01,0.145098,610634,437203
1398.29,0.149122,611700,433927
1402.66,0.156080,614051,428671
1405.93,0.161655,616268,424732
1409.2,0.166750,617795,420818
1412.46,0.171208,618872,417247
1415.72,0.175788,619795,413485
1418.98,0.179320,620495,410599
1422.23,0.183029,621087,407496
1426.56,0.186891,621375,404076
1429.8,0.189060,621616,402219
1433.04,0.191914,622129,399914
1436.27,0.194190,621526,397438
1439.5,0.195358,621113,396107
1442.72,0.198499,620921,393131
1445.94,0.200956,620270,390503
1450.23,0.204309,618860,386619
1453.44,0.206561,617697,383897
1456.64,0.209577,616264,380356
1459.85,0.212140,614413,376982
1463.04,0.214681,612307,373498
1466.24,0.217945,610032,369324
1469.43,0.220895,607345,365208
1473.67,0.227097,603789,357922
1476.85,0.232154,601175,352247
1480.02,0.237899,597737,345630
1483.19,0.244864,594479,338277
1486.36,0.249943,591232,332518
1489.52,0.253872,587853,327640
1492.68,0.256968,583875,323111
1496.89,0.259734,578062,317863
1500.03,0.260170,574159,315400
1503.18,0.259965,570285,313420
1506.32,0.259494,565444,311097
1509.45,0.257631,560571,309742
1512.58,0.256489,555821,307926
1515.71,0.253694,550344,306860
1519.87,0.250300,543983,305693
1522.99,0.248326,538764,304139
1526.1,0.246198,533692,302756
1529.21,0.243054,527902,301647
1532.32,0.240376,521886,300054
1535.42,0.237866,515888,298325
1538.51,0.234315,509987,297334
1541.6,0.230933,503936,296103
1545.72,0.227846,494694,292746
1548.8,0.225498,488378,290575
1551.88,0.222641,481832,288572
1554.95,0.220141,474989,286116
1558.02,0.219257,467818,282371
1561.08,0.218528,460730,278560
1564.15,0.216980,454170,275574
1568.22,0.215500,444181,270433
1571.27,0.215415,436947,266081
1574.32,0.215242,429598,261710
1577.36,0.212971,422039,258453
1580.4,0.211435,414375,254659
1583.43,0.210537,406354,250246
1586.46,0.209249,398475,246123
1590.49,0.206541,388982,241762
1593.51,0.205203,380708,237350
1596.53,0.203160,372727,233470
1599.54,0.201370,365060,229612
1602.55,0.199462,357543,225874
1605.55,0.197399,349495,221841
1608.55,0.195917,341154,217287
1612.54,0.193870,330877,211737
1615.53,0.191829,322904,207608
1618.51,0.190256,315116,203336
1621.49,0.190447,307217,198152
1624.47,0.188319,299481,194111
1627.44,0.187116,292112,189860
1630.41,0.186392,284245,185055
1634.36,0.185360,274079,178861
1637.32,0.184579,266916,174500
1640.27,0.184942,259612,169583
1643.22,0.183197,251804,165145
1646.16,0.181960,244348,160712
1649.1,0.181444,236703,155869
1652.04,0.180591,228171,150546
1655.95,0.176913,215408,143334
1658.88,0.172028,204937,137909
1661.8,0.168300,193395,131264
1664.72,0.161092,179728,124029
1667.63,0.147442,163642,116534
1670.54,0.132838,146312,107756
1673.44,0.119190,128451,97622
1677.31,0.096895,105080,84067
1680.21,0.086430,88906,72862
1683.1,0.080075,75033,62399
1685.99,0.083903,63520,52361
1688.87,0.085354,53714,44130
1691.75,0.094023,45653,36766
1694.62,0.094774,39137,31464
1697.49,0.098420,33776,26927
1701.31,0.106042,28175,22071