File: samples/wool/wool-000811/Column 1_050561_20150331_120510.csv
Method:,Column 1,,
Host Date-Time:,31/3/15 @ 12:5:10,,
Header Version:,1,,
System Temp (C):,33.72,,
Detector Temp (C):,33.3,,
Humidity (%):,2.05,,
Lamp PD:,3819,,
Shift Vector Coefficients:,-10.5391,0.0761263,-0.000134223,,
Pixel to Wavelength Coefficients:,1775.68,-0.916766,-0.000235065,,
Serial Number:,5510004,,
Scan Config Name:,Column 1,,
Scan Config Type:,Slew,,
Section 1,,
Start wavelength (nm):,900,,
End wavelength (nm):,1700,,
Pattern Pixel Width (nm):,   7.03,,,,
Exposure (ms):,  0.635,,,,
Digital Resolution:,228,,
Num Repeats:,6,,
PGA Gain:,64,,
Total Measurement Time in sec:,  2.731,,
Wavelength (nm),Absorbance (AU),Reference Signal (unitless),Sample Signal (unitless)
901.51,0.033160,108485,100510
905.376,0.037961,121306,111153
909.237,0.041303,131909,119942
913.095,0.042136,143299,130049
916.948,0.043247,156982,142103
922.079,0.043989,179937,162604
925.923,0.044956,200504,180787
929.762,0.046606,222660,200003
933.597,0.046669,244426,219522
937.427,0.046388,263972,237230
941.254,0.046864,281845,253015
945.076,0.046175,297271,267287
950.165,0.045676,315605,284098
953.978,0.045231,328029,295584
957.786,0.045378,340470,306691
961.59,0.046350,352317,316653
965.389,0.046436,363056,326240
969.185,0.046153,373162,335540
972.976,0.047172,382632,343249
976.763,0.047338,391202,350803
981.806,0.048199,400190,358152
985.583,0.048916,406088,362831
989.355,0.049226,410162,366209
993.124,0.049117,412868,368718
996.888,0.050254,414263,368996
1000.65,0.050968,415476,369469
1004.4,0.051684,415479,368863
1009.41,0.053113,414358,366659
1013.15,0.053857,412923,364764
1016.89,0.054147,411526,363287
1020.63,0.053451,409066,361695
1024.36,0.054598,406777,358722
1028.09,0.053941,404427,357190
1031.82,0.053916,401911,354988
1036.78,0.052986,398410,352650
1040.49,0.053017,396204,350673
1044.2,0.052354,394236,349464
1047.91,0.052495,392042,347406
1051.61,0.051839,389823,345962
1055.31,0.051446,388234,344864
1059,0.050706,387599,344887
1063.92,0.049495,386688,345037
1067.61,0.048866,386598,345457
1071.29,0.048827,387377,346184
1074.96,0.048075,388536,347821
1078.63,0.047447,389855,349507
1082.3,0.046708,391215,351324
1085.96,0.046157,393215,353568
1090.84,0.045229,396270,357077
1094.49,0.045242,398760,359310
1098.14,0.044974,400987,361540
1101.79,0.044001,403477,364601
1105.43,0.044557,406116,366516
1109.06,0.043358,407701,368964
1112.7,0.043483,409859,370810
1117.53,0.043737,412494,372976
1121.15,0.044837,414909,374210
1124.77,0.045126,416559,375449
1128.38,0.046644,418532,375911
1131.99,0.047374,419956,376556
1135.6,0.049780,421946,376250
1139.2,0.051274,423881,376678
1143.99,0.053832,426786,377032
1147.58,0.055051,428617,377588
1151.17,0.055675,431169,379291
1154.75,0.057104,433579,380158
1158.33,0.059047,436264,380805
1161.91,0.060634,439132,381910
1165.48,0.063703,442389,382033
1169.04,0.065900,446101,383295
1173.79,0.069879,451929,384761
1177.34,0.072541,456026,385877
1180.9,0.074730,461306,388382
1184.44,0.075982,467657,392596
1187.99,0.077259,473969,396726
1191.52,0.077319,479856,401598
1195.06,0.077039,487372,408152
1199.76,0.075888,497347,417611
1203.29,0.075000,504311,424325
1206.81,0.073691,511507,431679
1210.33,0.073446,519078,438315
1213.84,0.073300,527163,445292
1217.35,0.072131,534208,452459
1220.85,0.071047,540472,458909
1225.51,0.070453,549929,467577
1229.01,0.069803,556888,474204
1232.5,0.069187,562180,479389
1235.98,0.068461,567975,485141
1239.46,0.067364,574815,492226
1242.94,0.066402,582782,500155
1246.41,0.065879,591476,508228
1251.03,0.065368,604016,519613
1254.5,0.065570,612289,526486
1257.96,0.066168,619125,531631
1261.41,0.066456,624551,535935
1264.86,0.067348,629900,539416
1268.31,0.067819,634345,542633
1271.75,0.068536,638574,545350
1276.33,0.069392,642499,547621
1279.76,0.069124,645905,550864
1283.19,0.068617,648307,553559
1286.61,0.067990,650446,556188
1290.03,0.067804,652132,557868
1293.44,0.067149,653907,560231
1296.85,0.067128,655963,562019
1301.39,0.066826,657349,563599
1304.8,0.066874,657558,563716
1308.19,0.067105,658515,564236
1311.58,0.067390,658804,564113
1314.97,0.068004,659011,563493
1318.36,0.068497,658272,562223
1321.73,0.068572,658022,561912
1326.23,0.069472,657870,560619
1329.6,0.070643,656482,557930
1332.97,0.071726,654926,555221
1336.33,0.072595,653727,553097
1339.69,0.074237,652497,549973
1343.04,0.076592,649913,544833
1346.39,0.078373,647671,540731
1349.73,0.080645,645338,535972
1354.18,0.083922,641175,528512
1357.52,0.086214,638376,523435
1360.85,0.088254,635805,518883
1364.17,0.090734,633413,513988
1367.49,0.093370,631026,508952
1370.81,0.096100,628050,503378
1374.12,0.098088,625034,498673
1378.54,0.101604,620272,490883
1381.84,0.105001,616892,484405
1385.14,0.108948,613613,477471
1388.43,0.113448,611526,470941
1391.72,0.118336,610663,465014
1395.01,0.123397,610634,459604
1398.29,0.128775,611700,454740
1402.66,0.136375,614051,448569
1405.93,0.141993,616268,444403
1409.2,0.147668,617795,439720
1412.46,0.153266,618872,434845
1415.72,0.157957,619795,430815
1418.98,0.162063,620495,427243
1422.23,0.165579,621087,424203
1426.56,0.170071,621375,420032
1429.8,0.172931,621616,417437
1433.04,0.175736,622129,415092
1436.27,0.178359,621526,412193
1439.5,0.180073,621113,410296
1442.72,0.183079,620921,407340
1445.94,0.185688,620270,404476
1450.23,0.188914,618860,400570
1453.44,0.191978,617697,397006
1456.64,0.194534,616264,393761
1459.85,0.198076,614413,389390
1463.04,0.200512,612307,385884
1466.24,0.204088,610032,381298
1469.43,0.206897,607345,377171
1473.67,0.213500,603789,369305
1476.85,0.218779,601175,363264
1480.02,0.224017,597737,356856
1483.19,0.231485,594479,348860
1486.36,0.237406,591232,342257
1489.52,0.241591,587853,337037
1492.68,0.245629,583875,331658
1496.89,0.248270,578062,326366
1500.03,0.248986,574159,323628
1503.18,0.248669,570285,321679
1506.32,0.247860,565444,319543
1509.45,0.246559,560571,317740
1512.58,0.245417,555821,315877
1515.71,0.242520,550344,314858
1519.87,0.238925,543983,313805
1522.99,0.236339,538764,312651
1526.1,0.234515,533692,311011
1529.21,0.231025,527902,310119
1532.32,0.228100,521886,308657
1535.42,0.224757,515888,307467
1538.51,0.221184,509987,306461
1541.6,0.218087,503936,304992
1545.72,0.214097,494694,302162
1548.8,0.210255,488378,300955
1551.88,0.207992,481832,298472
1554.95,0.206781,474989,295055
1558.02,0.204128,467818,292381
1561.08,0.202943,460730,288738
1564.15,0.202057,454170,285208
1568.22,0.201495,444181,279296
1571.27,0.200640,436947,275289
1574.32,0.200000,429598,271058
1577.36,0.197795,422039,267644
1580.4,0.196260,414375,263714
1583.43,0.194294,406354,259783
1586.46,0.192793,398475,255628
1590.49,0.190313,388982,250967
1593.51,0.188611,380708,246593
1596.53,0.186344,372727,242687
1599.54,0.183921,365060,239025
1602.55,0.181411,357543,235460
1605.55,0.179889,349495,230968
1608.55,0.177744,341154,226572
1612.54,0.175353,330877,220960
1615.53,0.172864,322904,216875
1618.51,0.171637,315116,212243
1621.49,0.170729,307217,207356
1624.47,0.169391,299481,202758
1627.44,0.169068,292112,197916
1630.41,0.168356,284245,192902
1634.36,0.165839,274079,187084
1637.32,0.164921,266916,182580
1640.27,0.165021,259612,177543
1643.22,0.164102,251804,172568
1646.16,0.161504,244348,168463
1649.1,0.160166,236703,163696
1652.04,0.160206,228171,157781
1655.95,0.157327,215408,149946
1658.88,0.153910,204937,143784
1661.8,0.149522,193395,137064
1664.72,0.143679,179728,129103
1667.63,0.133221,163642,120413
1670.54,0.123157,146312,110185
1673.44,0.111443,128451,99379
1677.31,0.096652,105080,84114
1680.21,0.089697,88906,72316
1683.1,0.085369,75033,61643
1685.99,0.094039,63520,51153
1688.87,0.088138,53714,43848
1691.75,0.099335,45653,36319
1694.62,0.102559,39137,30905
1697.49,0.101951,33776,26709
1701.31,0.115089,28175,21616