File: samples/wool/wool-000811/Column 1_050587_20150331_121728.csv
Method:,Column 1,,
Host Date-Time:,31/3/15 @ 12:17:28,,
Header Version:,1,,
System Temp (C):,33.83,,
Detector Temp (C):,34.54,,
Humidity (%):,1.86,,
Lamp PD:,3819,,
Shift Vector Coefficients:,-10.5391,0.0761263,-0.000134223,,
Pixel to Wavelength Coefficients:,1775.68,-0.916766,-0.000235065,,
Serial Number:,5510004,,
Scan Config Name:,Column 1,,
Scan Config Type:,Slew,,
Section 1,,
Start wavelength (nm):,900,,
End wavelength (nm):,1700,,
Pattern Pixel Width (nm):,   7.03,,,,
Exposure (ms):,  0.635,,,,
Digital Resolution:,228,,
Num Repeats:,6,,
PGA Gain:,64,,
Total Measurement Time in sec:,  2.674,,
Wavelength (nm),Absorbance (AU),Reference Signal (unitless),Sample Signal (unitless)
901.51,0.069021,108485,92544
905.376,0.074308,121306,102229
909.237,0.076508,131909,110603
913.095,0.078639,143299,119565
916.948,0.079827,156982,130624
922.079,0.080476,179937,149501
925.923,0.081829,200504,166071
929.762,0.082600,222660,184095
933.597,0.082220,244426,202268
937.427,0.081622,263972,218744
941.254,0.081874,281845,233419
945.076,0.080130,297271,247185
950.165,0.079373,315605,262888
953.978,0.078880,328029,273547
957.786,0.079129,340470,283759
961.59,0.079392,352317,293455
965.389,0.079479,363056,302339
969.185,0.079446,373162,310779
972.976,0.079821,382632,318391
976.763,0.079818,391202,325524
981.806,0.080575,400190,332423
985.583,0.081411,406088,336674
989.355,0.081676,410162,339844
993.124,0.082237,412868,341644
996.888,0.082325,414263,342729
1000.65,0.083329,415476,342939
1004.4,0.084459,415479,342050
1009.41,0.085724,414358,340135
1013.15,0.085645,412923,339019
1016.89,0.086626,411526,337110
1020.63,0.086868,409066,334908
1024.36,0.086414,406777,333382
1028.09,0.086092,404427,331702
1031.82,0.086252,401911,329517
1036.78,0.085682,398410,327076
1040.49,0.085651,396204,325288
1044.2,0.085744,394236,323603
1047.91,0.085388,392042,322066
1051.61,0.084985,389823,320540
1055.31,0.084681,388234,319457
1059,0.084102,387599,319360
1063.92,0.083390,386688,319132
1067.61,0.082978,386598,319361
1071.29,0.082441,387377,320400
1074.96,0.081973,388536,321705
1078.63,0.081709,389855,322994
1082.3,0.080368,391215,325123
1085.96,0.079399,393215,327515
1090.84,0.079154,396270,330246
1094.49,0.078329,398760,332953
1098.14,0.077061,400987,335791
1101.79,0.077367,403477,337638
1105.43,0.077061,406116,340086
1109.06,0.075629,407701,342541
1112.7,0.075926,409859,344119
1117.53,0.074637,412494,347361
1121.15,0.076084,414909,348232
1124.77,0.076044,416559,349649
1128.38,0.077386,418532,350221
1131.99,0.078355,419956,350630
1135.6,0.079885,421946,351052
1139.2,0.081010,423881,351750
1143.99,0.083427,426786,352195
1147.58,0.083787,428617,353413
1151.17,0.084433,431169,354989
1154.75,0.086497,433579,355280
1158.33,0.087189,436264,356911
1161.91,0.089403,439132,357431
1165.48,0.090945,442389,358806
1169.04,0.093829,446101,359422
1173.79,0.096922,451929,361533
1177.34,0.098693,456026,363326
1180.9,0.100933,461306,365642
1184.44,0.102421,467657,369408
1187.99,0.103470,473969,373491
1191.52,0.103342,479856,378241
1195.06,0.103536,487372,383994
1199.76,0.102965,497347,392369
1203.29,0.102018,504311,398731
1206.81,0.101548,511507,404859
1210.33,0.101080,519078,411294
1213.84,0.100984,527163,417793
1217.35,0.099792,534208,424540
1220.85,0.098950,540472,430351
1225.51,0.098395,549929,438441
1229.01,0.098196,556888,444193
1232.5,0.097433,562180,449203
1235.98,0.097139,567975,454141
1239.46,0.096190,574815,460615
1242.94,0.095185,582782,468081
1246.41,0.094554,591476,475755
1251.03,0.094236,604016,486197
1254.5,0.094817,612289,492197
1257.96,0.094955,619125,497535
1261.41,0.095377,624551,501408
1264.86,0.096034,629900,504938
1268.31,0.096579,634345,507863
1271.75,0.097111,638574,510623
1276.33,0.097416,642499,513401
1279.76,0.097562,645905,515949
1283.19,0.096386,648307,519272
1286.61,0.096353,650446,521025
1290.03,0.096100,652132,522679
1293.44,0.095494,653907,524834
1296.85,0.095217,655963,526820
1301.39,0.095110,657349,528063
1304.8,0.095172,657558,528156
1308.19,0.095088,658515,529027
1311.58,0.095491,658804,528768
1314.97,0.096140,659011,528144
1318.36,0.096329,658272,527323
1321.73,0.096713,658022,526657
1326.23,0.097695,657870,525345
1329.6,0.098753,656482,522962
1332.97,0.099632,654926,520667
1336.33,0.100552,653727,518614
1339.69,0.102507,652497,515313
1343.04,0.104055,649913,511447
1346.39,0.105833,647671,507600
1349.73,0.107821,645338,503461
1354.18,0.110453,641175,497191
1357.52,0.112681,638376,492488
1360.85,0.115065,635805,487819
1364.17,0.117043,633413,483776
1367.49,0.118884,631026,479914
1370.81,0.121164,628050,475149
1374.12,0.123479,625034,470354
1378.54,0.126532,620272,463500
1381.84,0.129615,616892,457714
1385.14,0.133120,613613,451621
1388.43,0.137467,611526,445603
1391.72,0.141735,610663,440622
1395.01,0.146088,610634,436207
1398.29,0.151525,611700,431532
1402.66,0.157849,614051,426929
1405.93,0.163831,616268,422609
1409.2,0.169268,617795,418385
1412.46,0.174071,618872,414505
1415.72,0.178277,619795,411122
1418.98,0.182158,620495,407925
1422.23,0.185897,621087,404814
1426.56,0.189524,621375,401633
1429.8,0.192417,621616,399122
1433.04,0.195242,622129,396861
1436.27,0.197178,621526,394713
1439.5,0.199048,621113,392756
1442.72,0.201622,620921,390314
1445.94,0.203634,620270,388103
1450.23,0.207141,618860,384106
1453.44,0.210050,617697,380825
1456.64,0.212703,616264,377628
1459.85,0.215162,614413,374368
1463.04,0.217474,612307,371104
1466.24,0.220946,610032,366781
1469.43,0.224311,607345,362347
1473.67,0.229394,603789,356034
1476.85,0.234759,601175,350140
1480.02,0.239995,597737,343966
1483.19,0.245680,594479,337642
1486.36,0.251417,591232,331391
1489.52,0.255666,587853,326289
1492.68,0.258658,583875,321856
1496.89,0.259998,578062,317670
1500.03,0.261454,574159,314469
1503.18,0.261217,570285,312518
1506.32,0.260264,565444,310546
1509.45,0.259232,560571,308602
1512.58,0.257640,555821,307111
1515.71,0.255917,550344,305293
1519.87,0.251964,543983,304524
1522.99,0.250246,538764,302798
1526.1,0.247141,533692,302099
1529.21,0.244544,527902,300614
1532.32,0.241756,521886,299102
1535.42,0.238934,515888,297592
1538.51,0.236250,509987,296012
1541.6,0.233584,503936,294301
1545.72,0.229308,494694,291762
1548.8,0.226559,488378,289866
1551.88,0.224120,481832,287591
1554.95,0.222017,474989,284883
1558.02,0.220653,467818,281465
1561.08,0.218935,460730,278299
1564.15,0.218259,454170,274764
1568.22,0.217851,444181,268973
1571.27,0.216541,436947,265392
1574.32,0.216933,429598,260693
1577.36,0.214641,422039,257461
1580.4,0.213686,414375,253342
1583.43,0.211820,406354,249508
1586.46,0.209620,398475,245913
1590.49,0.207785,388982,241071
1593.51,0.206183,380708,236815
1596.53,0.203662,372727,233200
1599.54,0.202208,365060,229169
1602.55,0.199945,357543,225623
1605.55,0.198509,349495,221275
1608.55,0.196299,341154,217096
1612.54,0.194763,330877,211302
1615.53,0.193311,322904,206901
1618.51,0.192084,315116,202482
1621.49,0.190587,307217,198088
1624.47,0.189780,299481,193459
1627.44,0.189205,292112,188949
1630.41,0.187689,284245,184503
1634.36,0.185537,274079,178788
1637.32,0.185309,266916,174207
1640.27,0.184267,259612,169847
1643.22,0.183071,251804,165193
1646.16,0.182910,244348,160361
1649.1,0.182018,236703,155663
1652.04,0.179701,228171,150855
1655.95,0.177422,215408,143166
1658.88,0.174282,204937,137195
1661.8,0.168492,193395,131206
1664.72,0.160634,179728,124160
1667.63,0.148969,163642,116125
1670.54,0.135933,146312,106991
1673.44,0.119274,128451,97603
1677.31,0.101543,105080,83172
1680.21,0.087092,88906,72751
1683.1,0.085742,75033,61590
1685.99,0.085773,63520,52136
1688.87,0.087089,53714,43954
1691.75,0.087900,45653,37288
1694.62,0.092914,39137,31599
1697.49,0.101674,33776,26726
1701.31,0.106652,28175,22040