File: samples/wool/wool-000811/Column 1_050605_20150331_122546.csv
Method:,Column 1,,
Host Date-Time:,31/3/15 @ 12:25:46,,
Header Version:,1,,
System Temp (C):,34.04,,
Detector Temp (C):,34.84,,
Humidity (%):,1.71,,
Lamp PD:,3818,,
Shift Vector Coefficients:,-10.5391,0.0761263,-0.000134223,,
Pixel to Wavelength Coefficients:,1775.68,-0.916766,-0.000235065,,
Serial Number:,5510004,,
Scan Config Name:,Column 1,,
Scan Config Type:,Slew,,
Section 1,,
Start wavelength (nm):,900,,
End wavelength (nm):,1700,,
Pattern Pixel Width (nm):,   7.03,,,,
Exposure (ms):,  0.635,,,,
Digital Resolution:,228,,
Num Repeats:,6,,
PGA Gain:,64,,
Total Measurement Time in sec:,  2.660,,
Wavelength (nm),Absorbance (AU),Reference Signal (unitless),Sample Signal (unitless)
901.51,0.068351,108485,92687
905.376,0.074185,121306,102258
909.237,0.076574,131909,110586
913.095,0.079101,143299,119438
916.948,0.077671,156982,131274
922.079,0.079047,179937,149994
925.923,0.081348,200504,166255
929.762,0.081686,222660,184483
933.597,0.082364,244426,202201
937.427,0.080547,263972,219286
941.254,0.079756,281845,234560
945.076,0.079370,297271,247618
950.165,0.077055,315605,264295
953.978,0.077079,328029,274684
957.786,0.077223,340470,285007
961.59,0.077117,352317,294996
965.389,0.077731,363056,303559
969.185,0.077597,373162,312105
972.976,0.077835,382632,319850
976.763,0.078727,391202,326343
981.806,0.078424,400190,334074
985.583,0.079480,406088,338174
989.355,0.079492,410162,341557
993.124,0.080182,412868,343265
996.888,0.080769,414263,343959
1000.65,0.081494,415476,344391
1004.4,0.082323,415479,343737
1009.41,0.083482,414358,341896
1013.15,0.084123,412923,340209
1016.89,0.084454,411526,338800
1020.63,0.084768,409066,336531
1024.36,0.084795,406777,334627
1028.09,0.084312,404427,333064
1031.82,0.083936,401911,331279
1036.78,0.084024,398410,328327
1040.49,0.084062,396204,326480
1044.2,0.083548,394236,325243
1047.91,0.083803,392042,323243
1051.61,0.083159,389823,321891
1055.31,0.081998,388234,321437
1059,0.082014,387599,320899
1063.92,0.081710,386688,320369
1067.61,0.081165,386598,320697
1071.29,0.080667,387377,321712
1074.96,0.079651,388536,323430
1078.63,0.078954,389855,325049
1082.3,0.077781,391215,327065
1085.96,0.078009,393215,328565
1090.84,0.076735,396270,332090
1094.49,0.076596,398760,334284
1098.14,0.074965,400987,337416
1101.79,0.075135,403477,339378
1105.43,0.074755,406116,341897
1109.06,0.073883,407701,343921
1112.7,0.073435,409859,346098
1117.53,0.073630,412494,348167
1121.15,0.074071,414909,349850
1124.77,0.074087,416559,351228
1128.38,0.074928,418532,352209
1131.99,0.076333,419956,352266
1135.6,0.077438,421946,353036
1139.2,0.078808,423881,353538
1143.99,0.080873,426786,354272
1147.58,0.081381,428617,355376
1151.17,0.082377,431169,356673
1154.75,0.083415,433579,357811
1158.33,0.084800,436264,358880
1161.91,0.086305,439132,359990
1165.48,0.088715,442389,360653
1169.04,0.091347,446101,361482
1173.79,0.094401,451929,363638
1177.34,0.095956,456026,365623
1180.9,0.098577,461306,367631
1184.44,0.099759,467657,371679
1187.99,0.101149,473969,375492
1191.52,0.101307,479856,380018
1195.06,0.101611,487372,385700
1199.76,0.100458,497347,394640
1203.29,0.099637,504311,400923
1206.81,0.099350,511507,406913
1210.33,0.098683,519078,413571
1213.84,0.098297,527163,420386
1217.35,0.097194,534208,427087
1220.85,0.097075,540472,432213
1225.51,0.095933,549929,440934
1229.01,0.095549,556888,446909
1232.5,0.095451,562180,451257
1235.98,0.094384,567975,457031
1239.46,0.093364,574815,463622
1242.94,0.092448,582782,471040
1246.41,0.091809,591476,478771
1251.03,0.091534,604016,489231
1254.5,0.091715,612289,495726
1257.96,0.092483,619125,500375
1261.41,0.092823,624551,504365
1264.86,0.093250,629900,508185
1268.31,0.093670,634345,511276
1271.75,0.094497,638574,513705
1276.33,0.094857,642499,516435
1279.76,0.094771,645905,519275
1283.19,0.094216,648307,521873
1286.61,0.093518,650446,524437
1290.03,0.093282,652132,526082
1293.44,0.092932,653907,527939
1296.85,0.092553,655963,530061
1301.39,0.092356,657349,531422
1304.8,0.092454,657558,531472
1308.19,0.092632,658515,532027
1311.58,0.092853,658804,531990
1314.97,0.093293,659011,531618
1318.36,0.093521,658272,530743
1321.73,0.093646,658022,530389
1326.23,0.094923,657870,528710
1329.6,0.095175,656482,527288
1332.97,0.096180,654926,524822
1336.33,0.097327,653727,522480
1339.69,0.098674,652497,519882
1343.04,0.100254,649913,515942
1346.39,0.101942,647671,512168
1349.73,0.103974,645338,507941
1354.18,0.106878,641175,501301
1357.52,0.108911,638376,496782
1360.85,0.111006,635805,492400
1364.17,0.112468,633413,488899
1367.49,0.115005,631026,484219
1370.81,0.116928,628050,479807
1374.12,0.119607,625034,474566
1378.54,0.122348,620272,467987
1381.84,0.125007,616892,462596
1385.14,0.128503,613613,456448
1388.43,0.132307,611526,450929
1391.72,0.136193,610663,446281
1395.01,0.140334,610634,442025
1398.29,0.144894,611700,438172
1402.66,0.150966,614051,433749
1405.93,0.156092,616268,430207
1409.2,0.160806,617795,426617
1412.46,0.165374,618872,422889
1415.72,0.168793,619795,420199
1418.98,0.172686,620495,416920
1422.23,0.176550,621087,413621
1426.56,0.179988,621375,410550
1429.8,0.182480,621616,408359
1433.04,0.184672,622129,406638
1436.27,0.187073,621526,404005
1439.5,0.189191,621113,401772
1442.72,0.191985,620921,399072
1445.94,0.194041,620270,396771
1450.23,0.197775,618860,392480
1453.44,0.200215,617697,389548
1456.64,0.202669,616264,386454
1459.85,0.206222,614413,382154
1463.04,0.208555,612307,378804
1466.24,0.212038,610032,374382
1469.43,0.215772,607345,369542
1473.67,0.222161,603789,362013
1476.85,0.227664,601175,355907
1480.02,0.233269,597737,349334
1483.19,0.240424,594479,341753
1486.36,0.245249,591232,336131
1489.52,0.250258,587853,330378
1492.68,0.253411,583875,325768
1496.89,0.255820,578062,320741
1500.03,0.256449,574159,318114
1503.18,0.255974,570285,316314
1506.32,0.255573,565444,313918
1509.45,0.254020,560571,312328
1512.58,0.252707,555821,310619
1515.71,0.250186,550344,309349
1519.87,0.247016,543983,308013
1522.99,0.244110,538764,307106
1526.1,0.242393,533692,305420
1529.21,0.239661,527902,304013
1532.32,0.236157,521886,302983
1535.42,0.233921,515888,301047
1538.51,0.230925,509987,299664
1541.6,0.228123,503936,298025
1545.72,0.223077,494694,295978
1548.8,0.220957,488378,293629
1551.88,0.218680,481832,291216
1554.95,0.216743,474989,288364
1558.02,0.214932,467818,285197
1561.08,0.213977,460730,281494
1564.15,0.213603,454170,277725
1568.22,0.212410,444181,272364
1571.27,0.211478,436947,268504
1574.32,0.211476,429598,263989
1577.36,0.209688,422039,260414
1580.4,0.208858,414375,256174
1583.43,0.207120,406354,252223
1586.46,0.205333,398475,248352
1590.49,0.203234,388982,243610
1593.51,0.201715,380708,239264
1596.53,0.199702,372727,235336
1599.54,0.197283,365060,231783
1602.55,0.195958,357543,227704
1605.55,0.193746,349495,223715
1608.55,0.192368,341154,219070
1612.54,0.189511,330877,213873
1615.53,0.187332,322904,209769
1618.51,0.186888,315116,204919
1621.49,0.186654,307217,199890
1624.47,0.184852,299481,195667
1627.44,0.184091,292112,191187
1630.41,0.183177,284245,186430
1634.36,0.182314,274079,180120
1637.32,0.181151,266916,175883
1640.27,0.181029,259612,171118
1643.22,0.180152,251804,166307
1646.16,0.179922,244348,161468
1649.1,0.177318,236703,157357
1652.04,0.176891,228171,151834
1655.95,0.173283,215408,144537
1658.88,0.170167,204937,138501
1661.8,0.164577,193395,132394
1664.72,0.156059,179728,125475
1667.63,0.144264,163642,117390
1670.54,0.129882,146312,108492
1673.44,0.115231,128451,98516
1677.31,0.093534,105080,84720
1680.21,0.080857,88906,73803
1683.1,0.076312,75033,62942
1685.99,0.076151,63520,53304
1688.87,0.079586,53714,44720
1691.75,0.087446,45653,37327
1694.62,0.085826,39137,32119
1697.49,0.091794,33776,27341
1701.31,0.101209,28175,22318