File: samples/wool/wool-000811/Column 1_050614_20150331_123003.csv
Method:,Column 1,,
Host Date-Time:,31/3/15 @ 12:30:3,,
Header Version:,1,,
System Temp (C):,34.07,,
Detector Temp (C):,34.95,,
Humidity (%):,1.66,,
Lamp PD:,3818,,
Shift Vector Coefficients:,-10.5391,0.0761263,-0.000134223,,
Pixel to Wavelength Coefficients:,1775.68,-0.916766,-0.000235065,,
Serial Number:,5510004,,
Scan Config Name:,Column 1,,
Scan Config Type:,Slew,,
Section 1,,
Start wavelength (nm):,900,,
End wavelength (nm):,1700,,
Pattern Pixel Width (nm):,   7.03,,,,
Exposure (ms):,  0.635,,,,
Digital Resolution:,228,,
Num Repeats:,6,,
PGA Gain:,64,,
Total Measurement Time in sec:,  2.666,,
Wavelength (nm),Absorbance (AU),Reference Signal (unitless),Sample Signal (unitless)
901.51,0.070342,108485,92263
905.376,0.074457,121306,102194
909.237,0.077419,131909,110371
913.095,0.077917,143299,119764
916.948,0.079239,156982,130801
922.079,0.080505,179937,149491
925.923,0.081981,200504,166013
929.762,0.082430,222660,184167
933.597,0.082431,244426,202170
937.427,0.081247,263972,218933
941.254,0.080975,281845,233903
945.076,0.079418,297271,247591
950.165,0.078306,315605,263535
953.978,0.076894,328029,274801
957.786,0.077335,340470,284934
961.59,0.078077,352317,294345
965.389,0.078416,363056,303080
969.185,0.077910,373162,311880
972.976,0.078486,382632,319371
976.763,0.078648,391202,326402
981.806,0.079202,400190,333476
985.583,0.079479,406088,338175
989.355,0.080036,410162,341130
993.124,0.080656,412868,342890
996.888,0.080639,414263,344062
1000.65,0.081709,415476,344221
1004.4,0.083447,415479,342848
1009.41,0.083975,414358,341508
1013.15,0.084633,412923,339810
1016.89,0.085479,411526,338001
1020.63,0.085378,409066,336059
1024.36,0.085145,406777,334358
1028.09,0.084697,404427,332769
1031.82,0.084352,401911,330962
1036.78,0.083735,398410,328545
1040.49,0.083885,396204,326613
1044.2,0.083916,394236,324968
1047.91,0.083497,392042,323471
1051.61,0.083372,389823,321733
1055.31,0.082996,388234,320699
1059,0.082712,387599,320384
1063.92,0.081984,386688,320167
1067.61,0.080595,386598,321118
1071.29,0.080703,387377,321685
1074.96,0.080312,388536,322938
1078.63,0.079526,389855,324621
1082.3,0.078013,391215,326891
1085.96,0.077540,393215,328920
1090.84,0.076951,396270,331925
1094.49,0.076491,398760,334365
1098.14,0.075749,400987,336807
1101.79,0.074776,403477,339659
1105.43,0.074953,406116,341741
1109.06,0.074145,407701,343714
1112.7,0.073750,409859,345847
1117.53,0.073971,412494,347894
1121.15,0.074299,414909,349666
1124.77,0.074764,416559,350681
1128.38,0.074794,418532,352318
1131.99,0.076321,419956,352276
1135.6,0.077331,421946,353123
1139.2,0.078691,423881,353633
1143.99,0.081217,426786,353992
1147.58,0.081493,428617,355285
1151.17,0.082785,431169,356338
1154.75,0.083806,433579,357489
1158.33,0.084318,436264,359279
1161.91,0.086149,439132,360119
1165.48,0.088645,442389,360711
1169.04,0.090962,446101,361802
1173.79,0.093885,451929,364070
1177.34,0.096203,456026,365415
1180.9,0.098393,461306,367787
1184.44,0.100397,467657,371134
1187.99,0.101164,473969,375479
1191.52,0.101270,479856,380050
1195.06,0.101388,487372,385898
1199.76,0.101353,497347,393828
1203.29,0.099961,504311,400624
1206.81,0.099382,511507,406883
1210.33,0.098466,519078,413777
1213.84,0.098140,527163,420538
1217.35,0.097707,534208,426583
1220.85,0.097008,540472,432280
1225.51,0.095823,549929,441046
1229.01,0.095345,556888,447119
1232.5,0.095245,562180,451472
1235.98,0.094666,567975,456734
1239.46,0.093179,574815,463820
1242.94,0.092444,582782,471045
1246.41,0.091918,591476,478651
1251.03,0.091500,604016,489270
1254.5,0.091856,612289,495565
1257.96,0.092009,619125,500921
1261.41,0.092758,624551,504440
1264.86,0.093112,629900,508346
1268.31,0.094965,634345,509754
1271.75,0.094710,638574,513454
1276.33,0.094284,642499,517116
1279.76,0.094383,645905,519739
1283.19,0.093929,648307,522218
1286.61,0.093739,650446,524170
1290.03,0.093169,652132,526219
1293.44,0.092703,653907,528218
1296.85,0.092549,655963,530066
1301.39,0.092103,657349,531732
1304.8,0.092571,657558,531328
1308.19,0.092244,658515,532503
1311.58,0.092756,658804,532109
1314.97,0.093227,659011,531699
1318.36,0.093426,658272,530859
1321.73,0.093372,658022,530724
1326.23,0.094393,657870,529355
1329.6,0.095101,656482,527378
1332.97,0.095789,654926,525295
1336.33,0.096716,653727,523215
1339.69,0.098365,652497,520252
1343.04,0.099709,649913,516590
1346.39,0.101830,647671,512300
1349.73,0.103484,645338,508514
1354.18,0.106654,641175,501560
1357.52,0.108669,638376,497059
1360.85,0.110432,635805,493051
1364.17,0.112253,633413,489141
1367.49,0.115002,631026,484223
1370.81,0.116398,628050,480392
1374.12,0.118706,625034,475552
1378.54,0.122249,620272,468094
1381.84,0.124568,616892,463064
1385.14,0.127790,613613,457198
1388.43,0.131344,611526,451930
1391.72,0.135011,610663,447498
1395.01,0.139423,610634,442953
1398.29,0.143693,611700,439385
1402.66,0.149543,614051,435172
1405.93,0.154160,616268,432125
1409.2,0.159381,617795,428019
1412.46,0.163047,618872,425161
1415.72,0.167692,619795,421266
1418.98,0.170726,620495,418805
1422.23,0.174072,621087,415988
1426.56,0.177798,621375,412625
1429.8,0.179918,621616,410775
1433.04,0.182671,622129,408516
1436.27,0.184649,621526,406266
1439.5,0.186734,621113,404051
1442.72,0.189602,620921,401268
1445.94,0.191796,620270,398827
1450.23,0.195939,618860,394143
1453.44,0.197972,617697,391565
1456.64,0.200856,616264,388071
1459.85,0.202948,614413,385046
1463.04,0.206523,612307,380580
1466.24,0.210523,610032,375690
1469.43,0.214394,607345,370716
1473.67,0.220340,603789,363534
1476.85,0.226188,601175,357119
1480.02,0.232121,597737,350259
1483.19,0.238994,594479,342880
1486.36,0.244033,591232,337074
1489.52,0.249129,587853,331238
1492.68,0.253108,583875,325996
1496.89,0.254344,578062,321833
1500.03,0.254688,574159,319407
1503.18,0.254556,570285,317348
1506.32,0.254380,565444,314782
1509.45,0.253562,560571,312657
1512.58,0.251700,555821,311340
1515.71,0.248981,550344,310208
1519.87,0.245843,543983,308846
1522.99,0.243098,538764,307823
1526.1,0.241274,533692,306208
1529.21,0.238340,527902,304939
1532.32,0.235302,521886,303580
1535.42,0.232856,515888,301786
1538.51,0.229375,509987,300735
1541.6,0.227117,503936,298716
1545.72,0.222765,494694,296191
1548.8,0.220167,488378,294164
1551.88,0.217665,481832,291898
1554.95,0.215919,474989,288911
1558.02,0.214544,467818,285452
1561.08,0.214021,460730,281466
1564.15,0.212019,454170,278740
1568.22,0.211178,444181,273138
1571.27,0.211117,436947,268727
1574.32,0.210661,429598,264485
1577.36,0.209012,422039,260820
1580.4,0.207831,414375,256781
1583.43,0.206834,406354,252389
1586.46,0.205047,398475,248516
1590.49,0.203149,388982,243658
1593.51,0.200991,380708,239663
1596.53,0.198486,372727,235996
1599.54,0.196655,365060,232118
1602.55,0.194168,357543,228644
1605.55,0.193373,349495,223907
1608.55,0.191103,341154,219709
1612.54,0.189373,330877,213941
1615.53,0.187282,322904,209793
1618.51,0.186378,315116,205160
1621.49,0.185853,307217,200259
1624.47,0.184297,299481,195917
1627.44,0.184832,292112,190861
1630.41,0.183482,284245,186299
1634.36,0.181557,274079,180434
1637.32,0.181050,266916,175924
1640.27,0.180086,259612,171490
1643.22,0.179080,251804,166718
1646.16,0.177450,244348,162390
1649.1,0.177958,236703,157125
1652.04,0.176574,228171,151945
1655.95,0.172463,215408,144810
1658.88,0.170334,204937,138448
1661.8,0.165033,193395,132255
1664.72,0.156155,179728,125447
1667.63,0.144079,163642,117440
1670.54,0.127778,146312,109019
1673.44,0.114412,128451,98702
1677.31,0.094674,105080,84498
1680.21,0.082224,88906,73571
1683.1,0.076029,75033,62983
1685.99,0.074167,63520,53548
1688.87,0.078286,53714,44854
1691.75,0.084651,45653,37568
1694.62,0.090981,39137,31740
1697.49,0.096457,33776,27049
1701.31,0.104275,28175,22161