File: samples/wool/wool-000811/Column 1_050592_20150331_121944.csv
Method:,Column 1,,
Host Date-Time:,31/3/15 @ 12:19:44,,
Header Version:,1,,
System Temp (C):,33.91,,
Detector Temp (C):,34.62,,
Humidity (%):,1.81,,
Lamp PD:,3819,,
Shift Vector Coefficients:,-10.5391,0.0761263,-0.000134223,,
Pixel to Wavelength Coefficients:,1775.68,-0.916766,-0.000235065,,
Serial Number:,5510004,,
Scan Config Name:,Column 1,,
Scan Config Type:,Slew,,
Section 1,,
Start wavelength (nm):,900,,
End wavelength (nm):,1700,,
Pattern Pixel Width (nm):,   7.03,,,,
Exposure (ms):,  0.635,,,,
Digital Resolution:,228,,
Num Repeats:,6,,
PGA Gain:,64,,
Total Measurement Time in sec:,  2.691,,
Wavelength (nm),Absorbance (AU),Reference Signal (unitless),Sample Signal (unitless)
901.51,0.069890,108485,92359
905.376,0.075325,121306,101990
909.237,0.078724,131909,110040
913.095,0.080339,143299,119098
916.948,0.080536,156982,130411
922.079,0.082153,179937,148925
925.923,0.083089,200504,165590
929.762,0.084160,222660,183435
933.597,0.083198,244426,201813
937.427,0.081386,263972,218863
941.254,0.081322,281845,233716
945.076,0.080057,297271,247227
950.165,0.079041,315605,263089
953.978,0.079266,328029,273304
957.786,0.079780,340470,283334
961.59,0.080053,352317,293009
965.389,0.079379,363056,302409
969.185,0.079580,373162,310683
972.976,0.079567,382632,318577
976.763,0.080307,391202,325158
981.806,0.080354,400190,332592
985.583,0.081006,406088,336988
989.355,0.081514,410162,339971
993.124,0.081845,412868,341953
996.888,0.082912,414263,342266
1000.65,0.083308,415476,342956
1004.4,0.084327,415479,342154
1009.41,0.085971,414358,339942
1013.15,0.086142,412923,338631
1016.89,0.086432,411526,337260
1020.63,0.085700,409066,335810
1024.36,0.085878,406777,333794
1028.09,0.086498,404427,331392
1031.82,0.085463,401911,330116
1036.78,0.085971,398410,326858
1040.49,0.085128,396204,325680
1044.2,0.085501,394236,323784
1047.91,0.085749,392042,321798
1051.61,0.084689,389823,320759
1055.31,0.084299,388234,319738
1059,0.083901,387599,319508
1063.92,0.082951,386688,319455
1067.61,0.082680,386598,319580
1071.29,0.081908,387377,320794
1074.96,0.081408,388536,322124
1078.63,0.081150,389855,323410
1082.3,0.080202,391215,325247
1085.96,0.079310,393215,327582
1090.84,0.078441,396270,330788
1094.49,0.077852,398760,333319
1098.14,0.077993,400987,335071
1101.79,0.077436,403477,337585
1105.43,0.076740,406116,340338
1109.06,0.076125,407701,342150
1112.7,0.075208,409859,344688
1117.53,0.075841,412494,346399
1121.15,0.075785,414909,348472
1124.77,0.076360,416559,349395
1128.38,0.077036,418532,350504
1131.99,0.078030,419956,350892
1135.6,0.080050,421946,350919
1139.2,0.081047,423881,351720
1143.99,0.082976,426786,352561
1147.58,0.083859,428617,353354
1151.17,0.084686,431169,354782
1154.75,0.085622,433579,355997
1158.33,0.086626,436264,357374
1161.91,0.088474,439132,358196
1165.48,0.090935,442389,358814
1169.04,0.092847,446101,360235
1173.79,0.096483,451929,361899
1177.34,0.098619,456026,363388
1180.9,0.100559,461306,365957
1184.44,0.102100,467657,369681
1187.99,0.103011,473969,373886
1191.52,0.103548,479856,378062
1195.06,0.103007,487372,384462
1199.76,0.102607,497347,392692
1203.29,0.101887,504311,398852
1206.81,0.101729,511507,404690
1210.33,0.100853,519078,411509
1213.84,0.099934,527163,418804
1217.35,0.099760,534208,424571
1220.85,0.098894,540472,430407
1225.51,0.097931,549929,438910
1229.01,0.097731,556888,444669
1232.5,0.096874,562180,449781
1235.98,0.096455,567975,454856
1239.46,0.095635,574815,461204
1242.94,0.094485,582782,468836
1246.41,0.094196,591476,476147
1251.03,0.093658,604016,486845
1254.5,0.093923,612289,493212
1257.96,0.094683,619125,497846
1261.41,0.095348,624551,501441
1264.86,0.095844,629900,505158
1268.31,0.096222,634345,508281
1271.75,0.097134,638574,510596
1276.33,0.096322,642499,514696
1279.76,0.096451,645905,517270
1283.19,0.096388,648307,519269
1286.61,0.095960,650446,521496
1290.03,0.095971,652132,522835
1293.44,0.094662,653907,525840
1296.85,0.094969,655963,527121
1301.39,0.094632,657349,528645
1304.8,0.094413,657558,529080
1308.19,0.094681,658515,529523
1311.58,0.094663,658804,529777
1314.97,0.095044,659011,529479
1318.36,0.095664,658272,528131
1321.73,0.096144,658022,527347
1326.23,0.097293,657870,525832
1329.6,0.097732,656482,524192
1332.97,0.099096,654926,521310
1336.33,0.099789,653727,519526
1339.69,0.101411,652497,516616
1343.04,0.103277,649913,512364
1346.39,0.105142,647671,508408
1349.73,0.107150,645338,504240
1354.18,0.110021,641175,497686
1357.52,0.112140,638376,493102
1360.85,0.114031,635805,488982
1364.17,0.115797,633413,485166
1367.49,0.118591,631026,480238
1370.81,0.120270,628050,476129
1374.12,0.122732,625034,471164
1378.54,0.125398,620272,464712
1381.84,0.128725,616892,458653
1385.14,0.131949,613613,452841
1388.43,0.135319,611526,447812
1391.72,0.140508,610663,441869
1395.01,0.144674,610634,437630
1398.29,0.149524,611700,433525
1402.66,0.156725,614051,428035
1405.93,0.161847,616268,424544
1409.2,0.166761,617795,420807
1412.46,0.171611,618872,416860
1415.72,0.175566,619795,413697
1418.98,0.179139,620495,410771
1422.23,0.182980,621087,407542
1426.56,0.186786,621375,404173
1429.8,0.188857,621616,402407
1433.04,0.191877,622129,399948
1436.27,0.194403,621526,397243
1439.5,0.196581,621113,394993
1442.72,0.198841,620921,392822
1445.94,0.201174,620270,390307
1450.23,0.204267,618860,386657
1453.44,0.206762,617697,383719
1456.64,0.209427,616264,380487
1459.85,0.212378,614413,376775
1463.04,0.214910,612307,373301
1466.24,0.218410,610032,368929
1469.43,0.221893,607345,364370
1473.67,0.227310,603789,357746
1476.85,0.232753,601175,351761
1480.02,0.238224,597737,345371
1483.19,0.243682,594479,339199
1486.36,0.249387,591232,332944
1489.52,0.254024,587853,327525
1492.68,0.257684,583875,322579
1496.89,0.259872,578062,317762
1500.03,0.260636,574159,315062
1503.18,0.260116,570285,313311
1506.32,0.259858,565444,310836
1509.45,0.257748,560571,309658
1512.58,0.256023,555821,308256
1515.71,0.253601,550344,306926
1519.87,0.250921,543983,305256
1522.99,0.248571,538764,303968
1526.1,0.245818,533692,303021
1529.21,0.243806,527902,301125
1532.32,0.240806,521886,299757
1535.42,0.237808,515888,298365
1538.51,0.234991,509987,296871
1541.6,0.231712,503936,295572
1545.72,0.227794,494694,292781
1548.8,0.224787,488378,291051
1551.88,0.222784,481832,288477
1554.95,0.220351,474989,285978
1558.02,0.219111,467818,282466
1561.08,0.217922,460730,278949
1564.15,0.217793,454170,275059
1568.22,0.216563,444181,269772
1571.27,0.215596,436947,265970
1574.32,0.214937,429598,261894
1577.36,0.213666,422039,258040
1580.4,0.211892,414375,254391
1583.43,0.211044,406354,249954
1586.46,0.208893,398475,246325
1590.49,0.209961,388982,239866
1593.51,0.205183,380708,237361
1596.53,0.202885,372727,233618
1599.54,0.201103,365060,229753
1602.55,0.200051,357543,225568
1605.55,0.198395,349495,221333
1608.55,0.195947,341154,217272
1612.54,0.194453,330877,211453
1615.53,0.192357,322904,207356
1618.51,0.191261,315116,202866
1621.49,0.190464,307217,198144
1624.47,0.188615,299481,193979
1627.44,0.187102,292112,189866
1630.41,0.187202,284245,184710
1634.36,0.185297,274079,178887
1637.32,0.184218,266916,174645
1640.27,0.185035,259612,169547
1643.22,0.184045,251804,164823
1646.16,0.183097,244348,160292
1649.1,0.182261,236703,155576
1652.04,0.179528,228171,150915
1655.95,0.176713,215408,143400
1658.88,0.173501,204937,137442
1661.8,0.169018,193395,131047
1664.72,0.162977,179728,123492
1667.63,0.147781,163642,116443
1670.54,0.134733,146312,107287
1673.44,0.117365,128451,98033
1677.31,0.099756,105080,83515
1680.21,0.088407,88906,72531
1683.1,0.084651,75033,61745
1685.99,0.082206,63520,52566
1688.87,0.084646,53714,44202
1691.75,0.091831,45653,36952
1694.62,0.099688,39137,31110
1697.49,0.101723,33776,26723
1701.31,0.115350,28175,21603