File: samples/wool/wool-000811/Column 1_050603_20150331_122455.csv
Method:,Column 1,,
Host Date-Time:,31/3/15 @ 12:24:55,,
Header Version:,1,,
System Temp (C):,34.02,,
Detector Temp (C):,34.76,,
Humidity (%):,1.71,,
Lamp PD:,3818,,
Shift Vector Coefficients:,-10.5391,0.0761263,-0.000134223,,
Pixel to Wavelength Coefficients:,1775.68,-0.916766,-0.000235065,,
Serial Number:,5510004,,
Scan Config Name:,Column 1,,
Scan Config Type:,Slew,,
Section 1,,
Start wavelength (nm):,900,,
End wavelength (nm):,1700,,
Pattern Pixel Width (nm):,   7.03,,,,
Exposure (ms):,  0.635,,,,
Digital Resolution:,228,,
Num Repeats:,6,,
PGA Gain:,64,,
Total Measurement Time in sec:,  2.676,,
Wavelength (nm),Absorbance (AU),Reference Signal (unitless),Sample Signal (unitless)
901.51,0.069505,108485,92441
905.376,0.075061,121306,102052
909.237,0.077880,131909,110254
913.095,0.076968,143299,120026
916.948,0.079358,156982,130765
922.079,0.081640,179937,149101
925.923,0.082499,200504,165815
929.762,0.082567,222660,184109
933.597,0.082306,244426,202228
937.427,0.081187,263972,218963
941.254,0.080119,281845,234364
945.076,0.079397,297271,247603
950.165,0.078177,315605,263613
953.978,0.077120,328029,274658
957.786,0.078006,340470,284494
961.59,0.078382,352317,294138
965.389,0.078048,363056,303337
969.185,0.077747,373162,311997
972.976,0.078620,382632,319272
976.763,0.078720,391202,326348
981.806,0.079316,400190,333388
985.583,0.079755,406088,337960
989.355,0.080418,410162,340830
993.124,0.081018,412868,342605
996.888,0.081114,414263,343686
1000.65,0.081827,415476,344127
1004.4,0.083089,415479,343131
1009.41,0.084241,414358,341299
1013.15,0.084399,412923,339993
1016.89,0.085278,411526,338158
1020.63,0.085214,409066,336186
1024.36,0.084986,406777,334480
1028.09,0.084708,404427,332761
1031.82,0.084600,401911,330773
1036.78,0.085018,398410,327576
1040.49,0.084523,396204,326134
1044.2,0.084257,394236,324713
1047.91,0.084343,392042,322842
1051.61,0.083903,389823,321340
1055.31,0.083617,388234,320241
1059,0.083299,387599,319951
1063.92,0.081750,386688,320340
1067.61,0.080622,386598,321098
1071.29,0.080923,387377,321522
1074.96,0.080741,388536,322619
1078.63,0.080046,389855,324233
1082.3,0.078640,391215,326419
1085.96,0.078068,393215,328520
1090.84,0.077350,396270,331620
1094.49,0.076625,398760,334262
1098.14,0.076314,400987,336369
1101.79,0.075807,403477,338853
1105.43,0.075114,406116,341614
1109.06,0.074748,407701,343237
1112.7,0.074444,409859,345295
1117.53,0.073710,412494,348103
1121.15,0.074292,414909,349672
1124.77,0.074532,416559,350869
1128.38,0.075430,418532,351802
1131.99,0.076789,419956,351896
1135.6,0.078023,421946,352561
1139.2,0.079627,423881,352872
1143.99,0.081859,426786,353469
1147.58,0.082737,428617,354268
1151.17,0.082483,431169,356586
1154.75,0.083987,433579,357340
1158.33,0.085955,436264,357927
1161.91,0.087018,439132,359399
1165.48,0.089688,442389,359846
1169.04,0.090935,446101,361825
1173.79,0.094887,451929,363231
1177.34,0.096836,456026,364883
1180.9,0.098940,461306,367324
1184.44,0.100774,467657,370812
1187.99,0.101925,473969,374822
1191.52,0.102448,479856,379021
1195.06,0.101886,487372,385456
1199.76,0.101057,497347,394096
1203.29,0.100544,504311,400087
1206.81,0.100381,511507,405948
1210.33,0.099207,519078,413072
1213.84,0.098884,527163,419818
1217.35,0.097634,534208,426655
1220.85,0.097372,540472,431918
1225.51,0.096201,549929,440662
1229.01,0.096115,556888,446327
1232.5,0.095257,562180,451459
1235.98,0.095081,567975,456298
1239.46,0.093772,574815,463187
1242.94,0.092769,582782,470692
1246.41,0.092034,591476,478523
1251.03,0.092282,604016,488390
1254.5,0.092619,612289,494695
1257.96,0.092512,619125,500341
1261.41,0.093640,624551,503417
1264.86,0.093618,629900,507754
1268.31,0.094268,634345,510573
1271.75,0.095130,638574,512957
1276.33,0.094996,642499,516269
1279.76,0.095000,645905,519002
1283.19,0.094207,648307,521884
1286.61,0.094174,650446,523645
1290.03,0.093821,652132,525429
1293.44,0.093352,653907,527429
1296.85,0.093443,655963,528977
1301.39,0.093090,657349,530525
1304.8,0.092970,657558,530841
1308.19,0.092947,658515,531641
1311.58,0.093224,658804,531535
1314.97,0.093361,659011,531535
1318.36,0.094361,658272,529717
1321.73,0.093909,658022,530068
1326.23,0.095634,657870,527844
1329.6,0.095613,656482,526756
1332.97,0.096941,654926,523904
1336.33,0.097551,653727,522210
1339.69,0.099230,652497,519216
1343.04,0.100714,649913,515396
1346.39,0.102958,647671,510971
1349.73,0.104719,645338,507070
1354.18,0.107593,641175,500476
1357.52,0.109519,638376,496087
1360.85,0.111463,635805,491882
1364.17,0.113437,633413,487809
1367.49,0.115764,631026,483374
1370.81,0.118397,628050,478186
1374.12,0.120142,625034,473982
1378.54,0.122775,620272,467528
1381.84,0.125776,616892,461778
1385.14,0.128920,613613,456010
1388.43,0.132876,611526,450338
1391.72,0.136864,610663,445592
1395.01,0.141042,610634,441305
1398.29,0.145701,611700,437358
1402.66,0.151852,614051,432865
1405.93,0.156471,616268,429832
1409.2,0.161968,617795,425477
1412.46,0.166299,618872,421990
1415.72,0.170081,619795,418955
1418.98,0.173974,620495,415685
1422.23,0.177098,621087,413099
1426.56,0.180743,621375,409837
1429.8,0.183297,621616,407592
1433.04,0.186167,622129,405241
1436.27,0.188519,621526,402662
1439.5,0.190433,621113,400625
1442.72,0.192769,620921,398352
1445.94,0.195200,620270,395713
1450.23,0.198490,618860,391834
1453.44,0.201478,617697,388416
1456.64,0.204009,616264,385263
1459.85,0.206606,614413,381816
1463.04,0.209738,612307,377773
1466.24,0.213047,610032,373513
1469.43,0.216603,607345,368835
1473.67,0.222830,603789,361456
1476.85,0.228409,601175,355297
1480.02,0.234244,597737,348551
1483.19,0.240551,594479,341653
1486.36,0.246138,591232,335444
1489.52,0.251372,587853,329531
1492.68,0.254267,583875,325127
1496.89,0.256259,578062,320417
1500.03,0.256669,574159,317953
1503.18,0.257102,570285,315493
1506.32,0.256198,565444,313467
1509.45,0.254742,560571,311809
1512.58,0.252915,555821,310470
1515.71,0.251074,550344,308717
1519.87,0.248194,543983,307179
1522.99,0.245450,538764,306160
1526.1,0.242422,533692,305400
1529.21,0.239981,527902,303789
1532.32,0.237458,521886,302077
1535.42,0.234444,515888,300685
1538.51,0.231352,509987,299369
1541.6,0.228264,503936,297928
1545.72,0.224241,494694,295186
1548.8,0.221477,488378,293278
1551.88,0.219264,481832,290825
1554.95,0.217822,474989,287648
1558.02,0.215603,467818,284757
1561.08,0.214749,460730,280994
1564.15,0.214273,454170,277297
1568.22,0.213301,444181,271806
1571.27,0.212352,436947,267964
1574.32,0.212067,429598,263630
1577.36,0.210849,422039,259719
1580.4,0.209478,414375,255809
1583.43,0.207885,406354,251779
1586.46,0.205708,398475,248138
1590.49,0.204574,388982,242860
1593.51,0.202492,380708,238836
1596.53,0.200024,372727,235162
1599.54,0.198127,365060,231333
1602.55,0.197214,357543,227046
1605.55,0.195372,349495,222879
1608.55,0.192427,341154,219040
1612.54,0.190924,330877,213178
1615.53,0.188522,322904,209195
1618.51,0.188381,315116,204216
1621.49,0.187483,307217,199509
1624.47,0.186165,299481,195076
1627.44,0.184600,292112,190963
1630.41,0.183165,284245,186435
1634.36,0.181952,274079,180270
1637.32,0.182120,266916,175491
1640.27,0.181306,259612,171009
1643.22,0.180191,251804,166292
1646.16,0.180385,244348,161296
1649.1,0.178628,236703,156883
1652.04,0.176597,228171,151937
1655.95,0.173965,215408,144310
1658.88,0.170990,204937,138239
1661.8,0.164649,193395,132372
1664.72,0.157483,179728,125064
1667.63,0.144582,163642,117304
1670.54,0.130411,146312,108360
1673.44,0.116303,128451,98273
1677.31,0.095250,105080,84386
1680.21,0.081729,88906,73655
1683.1,0.077106,75033,62827
1685.99,0.080375,63520,52788
1688.87,0.082343,53714,44437
1691.75,0.087342,45653,37336
1694.62,0.089778,39137,31828
1697.49,0.095960,33776,27080
1701.31,0.107520,28175,21996