File: samples/wool/wool-000811/Column 1_050540_20150331_115512.csv
Method:,Column 1,,
Host Date-Time:,31/3/15 @ 11:55:12,,
Header Version:,1,,
System Temp (C):,32.28,,
Detector Temp (C):,30.55,,
Humidity (%):,3.02,,
Lamp PD:,3825,,
Shift Vector Coefficients:,-10.5391,0.0761263,-0.000134223,,
Pixel to Wavelength Coefficients:,1775.68,-0.916766,-0.000235065,,
Serial Number:,5510004,,
Scan Config Name:,Column 1,,
Scan Config Type:,Slew,,
Section 1,,
Start wavelength (nm):,900,,
End wavelength (nm):,1700,,
Pattern Pixel Width (nm):,   7.03,,,,
Exposure (ms):,  0.635,,,,
Digital Resolution:,228,,
Num Repeats:,6,,
PGA Gain:,64,,
Total Measurement Time in sec:,  2.680,,
Wavelength (nm),Absorbance (AU),Reference Signal (unitless),Sample Signal (unitless)
901.51,0.044405,108485,97941
905.376,0.050809,121306,107913
909.237,0.049893,131909,117593
913.095,0.051958,143299,127141
916.948,0.051893,156982,139302
922.079,0.052583,179937,159418
925.923,0.051481,200504,178091
929.762,0.052500,222660,197307
933.597,0.053462,244426,216115
937.427,0.052868,263972,233717
941.254,0.054310,281845,248714
945.076,0.053631,297271,262737
950.165,0.053406,315605,279086
953.978,0.053047,328029,290312
957.786,0.053883,340470,300743
961.59,0.054848,352317,310517
965.389,0.054748,363056,320056
969.185,0.054502,373162,329151
972.976,0.055547,382632,336693
976.763,0.055859,391202,343987
981.806,0.057224,400190,350786
985.583,0.057628,406088,355625
989.355,0.058090,410162,358811
993.124,0.058282,412868,361018
996.888,0.058816,414263,361793
1000.65,0.060375,415476,361552
1004.4,0.061237,415479,360838
1009.41,0.062406,414358,358897
1013.15,0.062877,412923,357266
1016.89,0.063291,411526,355718
1020.63,0.063293,409066,353590
1024.36,0.063385,406777,351537
1028.09,0.063240,404427,349623
1031.82,0.062753,401911,347838
1036.78,0.062451,398410,345048
1040.49,0.061458,396204,343923
1044.2,0.060930,394236,342631
1047.91,0.060554,392042,341019
1051.61,0.059759,389823,339710
1055.31,0.059034,388234,338891
1059,0.058180,387599,339002
1063.92,0.056957,386688,339159
1067.61,0.055891,386598,339914
1071.29,0.055201,387377,341140
1074.96,0.055046,388536,342283
1078.63,0.054511,389855,343868
1082.3,0.053295,391215,346035
1085.96,0.052442,393215,348488
1090.84,0.052025,396270,351533
1094.49,0.051219,398760,354399
1098.14,0.051029,400987,356534
1101.79,0.050562,403477,359134
1105.43,0.050831,406116,361259
1109.06,0.050188,407701,363207
1112.7,0.049912,409859,365361
1117.53,0.050411,412494,367288
1121.15,0.051071,414909,368877
1124.77,0.051483,416559,369993
1128.38,0.053076,418532,370384
1131.99,0.055114,419956,369905
1135.6,0.056676,421946,370323
1139.2,0.058369,423881,370574
1143.99,0.061338,426786,370572
1147.58,0.063044,428617,370702
1151.17,0.063700,431169,372347
1154.75,0.065653,433579,372748
1158.33,0.067773,436264,373230
1161.91,0.069927,439132,373825
1165.48,0.072636,442389,374256
1169.04,0.075797,446101,374659
1173.79,0.079873,451929,376008
1177.34,0.083057,456026,376645
1180.9,0.085357,461306,378994
1184.44,0.087473,467657,382344
1187.99,0.088845,473969,386282
1191.52,0.087641,479856,392166
1195.06,0.086964,487372,398930
1199.76,0.086012,497347,407988
1203.29,0.084119,504311,415508
1206.81,0.083075,511507,422451
1210.33,0.082228,519078,429541
1213.84,0.081153,527163,437313
1217.35,0.080002,534208,444333
1220.85,0.078932,540472,450652
1225.51,0.077177,549929,460394
1229.01,0.076644,556888,466793
1232.5,0.076033,562180,471892
1235.98,0.075177,567975,477697
1239.46,0.074118,574815,484630
1242.94,0.072563,582782,493109
1246.41,0.071716,591476,501443
1251.03,0.071289,604016,512577
1254.5,0.071639,612289,519180
1257.96,0.071965,619125,524582
1261.41,0.072766,624551,528204
1264.86,0.072969,629900,532479
1268.31,0.073745,634345,535279
1271.75,0.074250,638574,538222
1276.33,0.074923,642499,540691
1279.76,0.074761,645905,543760
1283.19,0.074001,648307,546739
1286.61,0.073812,650446,548781
1290.03,0.073420,652132,550701
1293.44,0.072890,653907,552874
1296.85,0.072641,655963,554930
1301.39,0.072844,657349,555843
1304.8,0.072453,657558,556521
1308.19,0.072900,658515,556757
1311.58,0.073095,658804,556751
1314.97,0.073734,659011,556107
1318.36,0.073897,658272,555275
1321.73,0.074607,658022,554158
1326.23,0.075563,657870,552812
1329.6,0.076956,656482,549879
1332.97,0.078297,654926,546884
1336.33,0.079243,653727,544695
1339.69,0.081164,652497,541271
1343.04,0.082912,649913,536962
1346.39,0.085404,647671,532047
1349.73,0.088056,645338,526904
1354.18,0.091271,641175,519644
1357.52,0.094050,638376,514075
1360.85,0.096465,635805,509165
1364.17,0.098998,633413,504300
1367.49,0.101354,631026,499681
1370.81,0.104473,628050,493766
1374.12,0.107285,625034,488223
1378.54,0.110929,620272,480455
1381.84,0.114831,616892,473563
1385.14,0.119813,613613,465674
1388.43,0.125007,611526,458572
1391.72,0.130547,610663,452121
1395.01,0.136484,610634,445961
1398.29,0.142950,611700,440138
1402.66,0.151392,614051,433324
1405.93,0.158645,616268,427686
1409.2,0.164215,617795,423282
1412.46,0.170539,618872,417890
1415.72,0.176133,619795,413157
1418.98,0.180638,620495,409355
1422.23,0.184885,621087,405758
1426.56,0.190258,621375,400955
1429.8,0.192999,621616,398587
1433.04,0.195601,622129,396533
1436.27,0.198328,621526,393669
1439.5,0.200345,621113,391585
1442.72,0.203200,620921,388899
1445.94,0.206020,620270,385976
1450.23,0.209968,618860,381614
1453.44,0.212302,617697,378855
1456.64,0.215763,616264,374976
1459.85,0.218568,614413,371443
1463.04,0.220639,612307,368409
1466.24,0.224301,610032,363958
1469.43,0.227227,607345,359922
1473.67,0.232675,603789,353354
1476.85,0.237331,601175,348073
1480.02,0.242856,597737,341707
1483.19,0.248689,594479,335311
1486.36,0.254681,591232,328910
1489.52,0.259519,587853,323407
1492.68,0.263378,583875,318377
1496.89,0.266610,578062,312870
1500.03,0.267169,574159,310358
1503.18,0.267689,570285,307895
1506.32,0.267300,565444,305555
1509.45,0.265453,560571,304213
1512.58,0.264755,555821,302120
1515.71,0.261805,550344,301182
1519.87,0.259007,543983,299625
1522.99,0.256547,538764,298436
1526.1,0.253885,533692,297444
1529.21,0.250233,527902,296702
1532.32,0.247603,521886,295102
1535.42,0.243923,515888,294193
1538.51,0.240736,509987,292970
1541.6,0.237046,503936,291964
1545.72,0.232115,494694,289882
1548.8,0.229492,488378,287915
1551.88,0.225961,481832,286375
1554.95,0.224192,474989,283460
1558.02,0.222218,467818,280452
1561.08,0.221153,460730,276881
1564.15,0.219953,454170,273694
1568.22,0.218011,444181,268874
1571.27,0.218064,436947,264463
1574.32,0.216998,429598,260654
1577.36,0.215303,422039,257069
1580.4,0.213767,414375,253295
1583.43,0.211380,406354,249761
1586.46,0.209745,398475,245842
1590.49,0.206599,388982,241730
1593.51,0.205175,380708,237365
1596.53,0.202479,372727,233836
1599.54,0.200859,365060,229882
1602.55,0.197683,357543,226801
1605.55,0.196433,349495,222335
1608.55,0.194243,341154,218126
1612.54,0.190364,330877,213453
1615.53,0.188572,322904,209171
1618.51,0.187739,315116,204518
1621.49,0.186776,307217,199834
1624.47,0.185289,299481,195470
1627.44,0.182628,292112,191832
1630.41,0.181276,284245,187248
1634.36,0.178495,274079,181711
1637.32,0.178315,266916,177035
1640.27,0.176814,259612,172787
1643.22,0.176789,251804,167600
1646.16,0.176394,244348,162785
1649.1,0.175844,236703,157892
1652.04,0.173549,228171,153007
1655.95,0.172172,215408,144907
1658.88,0.169319,204937,138772
1661.8,0.168230,193395,131285
1664.72,0.167445,179728,122228
1667.63,0.161797,163642,112745
1670.54,0.155379,146312,102306
1673.44,0.151207,128451,90684
1677.31,0.145892,105080,75098
1680.21,0.144867,88906,63689
1683.1,0.147898,75033,53377
1685.99,0.155312,63520,44422
1688.87,0.159872,53714,37172
1691.75,0.168668,45653,30960
1694.62,0.171198,39137,26387
1697.49,0.172334,33776,22713
1701.31,0.177744,28175,18712