File: samples/wool/wool-000811/Column 1_050587_20150331_121739.csv
Method:,Column 1,,
Host Date-Time:,31/3/15 @ 12:17:39,,
Header Version:,1,,
System Temp (C):,33.82,,
Detector Temp (C):,34.57,,
Humidity (%):,1.86,,
Lamp PD:,3819,,
Shift Vector Coefficients:,-10.5391,0.0761263,-0.000134223,,
Pixel to Wavelength Coefficients:,1775.68,-0.916766,-0.000235065,,
Serial Number:,5510004,,
Scan Config Name:,Column 1,,
Scan Config Type:,Slew,,
Section 1,,
Start wavelength (nm):,900,,
End wavelength (nm):,1700,,
Pattern Pixel Width (nm):,   7.03,,,,
Exposure (ms):,  0.635,,,,
Digital Resolution:,228,,
Num Repeats:,6,,
PGA Gain:,64,,
Total Measurement Time in sec:,  2.737,,
Wavelength (nm),Absorbance (AU),Reference Signal (unitless),Sample Signal (unitless)
901.51,0.070987,108485,92126
905.376,0.075725,121306,101896
909.237,0.078546,131909,110085
913.095,0.078759,143299,119532
916.948,0.080556,156982,130405
922.079,0.082022,179937,148970
925.923,0.082966,200504,165637
929.762,0.083186,222660,183847
933.597,0.084746,244426,201095
937.427,0.081894,263972,218607
941.254,0.081837,281845,233439
945.076,0.080908,297271,246743
950.165,0.080566,315605,262167
953.978,0.079400,328029,273220
957.786,0.079861,340470,283281
961.59,0.080110,352317,292970
965.389,0.079301,363056,302463
969.185,0.079518,373162,310727
972.976,0.079797,382632,318408
976.763,0.080781,391202,324803
981.806,0.081273,400190,331889
985.583,0.081110,406088,336907
989.355,0.081848,410162,339709
993.124,0.082862,412868,341153
996.888,0.082882,414263,342290
1000.65,0.083420,415476,342867
1004.4,0.085336,415479,341360
1009.41,0.086014,414358,339908
1013.15,0.086457,412923,338386
1016.89,0.087128,411526,336720
1020.63,0.086567,409066,335140
1024.36,0.086907,406777,333004
1028.09,0.086872,404427,331107
1031.82,0.086896,401911,329029
1036.78,0.086065,398410,326787
1040.49,0.085966,396204,325052
1044.2,0.085744,394236,323603
1047.91,0.085872,392042,321707
1051.61,0.085320,389823,320293
1055.31,0.085145,388234,319116
1059,0.084687,387599,318930
1063.92,0.083868,386688,318781
1067.61,0.083717,386598,318818
1071.29,0.082738,387377,320181
1074.96,0.081972,388536,321706
1078.63,0.081459,389855,323180
1082.3,0.081241,391215,324470
1085.96,0.079506,393215,327434
1090.84,0.079280,396270,330150
1094.49,0.078785,398760,332603
1098.14,0.078139,400987,334959
1101.79,0.077719,403477,337365
1105.43,0.077408,406116,339815
1109.06,0.076209,407701,342084
1112.7,0.076545,409859,343629
1117.53,0.075582,412494,346606
1121.15,0.076448,414909,347940
1124.77,0.076636,416559,349173
1128.38,0.077431,418532,350185
1131.99,0.078412,419956,350584
1135.6,0.080310,421946,350709
1139.2,0.081447,423881,351396
1143.99,0.083203,426786,352377
1147.58,0.083925,428617,353301
1151.17,0.085463,431169,354148
1154.75,0.086394,433579,355365
1158.33,0.087724,436264,356472
1161.91,0.089297,439132,357518
1165.48,0.091839,442389,358068
1169.04,0.093975,446101,359301
1173.79,0.097278,451929,361237
1177.34,0.098835,456026,363207
1180.9,0.101356,461306,365286
1184.44,0.103016,467657,368902
1187.99,0.103529,473969,373440
1191.52,0.103558,479856,378053
1195.06,0.103897,487372,383675
1199.76,0.103007,497347,392331
1203.29,0.102029,504311,398721
1206.81,0.102137,511507,404310
1210.33,0.101585,519078,410816
1213.84,0.100327,527163,418425
1217.35,0.100378,534208,423967
1220.85,0.099353,540472,429952
1225.51,0.099020,549929,437811
1229.01,0.098489,556888,443894
1232.5,0.097925,562180,448694
1235.98,0.097101,567975,454180
1239.46,0.096080,574815,460732
1242.94,0.095181,582782,468085
1246.41,0.094857,591476,475423
1251.03,0.094775,604016,485594
1254.5,0.094750,612289,492274
1257.96,0.095259,619125,497186
1261.41,0.095395,624551,501387
1264.86,0.095762,629900,505254
1268.31,0.096711,634345,507709
1271.75,0.097283,638574,510421
1276.33,0.097198,642499,513659
1279.76,0.097171,645905,516413
1283.19,0.097020,648307,518514
1286.61,0.096250,650446,521148
1290.03,0.096120,652132,522656
1293.44,0.095692,653907,524595
1296.85,0.095389,655963,526612
1301.39,0.095306,657349,527825
1304.8,0.094789,657558,528622
1308.19,0.095754,658515,528216
1311.58,0.095559,658804,528685
1314.97,0.096114,659011,528176
1318.36,0.096601,658272,526993
1321.73,0.097312,658022,525930
1326.23,0.098068,657870,524895
1329.6,0.098706,656482,523018
1332.97,0.100046,654926,520171
1336.33,0.100350,653727,518856
1339.69,0.102552,652497,515260
1343.04,0.104268,649913,511196
1346.39,0.106526,647671,506791
1349.73,0.108043,645338,503204
1354.18,0.111182,641175,496357
1357.52,0.113134,638376,491974
1360.85,0.114984,635805,487910
1364.17,0.117096,633413,483717
1367.49,0.119086,631026,479691
1370.81,0.121845,628050,474405
1374.12,0.123462,625034,470372
1378.54,0.126611,620272,463416
1381.84,0.130173,616892,457126
1385.14,0.133589,613613,451134
1388.43,0.137008,611526,446074
1391.72,0.141686,610663,440672
1395.01,0.146248,610634,436047
1398.29,0.151425,611700,431632
1402.66,0.158798,614051,425997
1405.93,0.164491,616268,421967
1409.2,0.169364,617795,418293
1412.46,0.173866,618872,414701
1415.72,0.178360,619795,411044
1418.98,0.182185,620495,407900
1422.23,0.186164,621087,404565
1426.56,0.189881,621375,401303
1429.8,0.192603,621616,398951
1433.04,0.194695,622129,397361
1436.27,0.197289,621526,394612
1439.5,0.199636,621113,392224
1442.72,0.201335,620921,390572
1445.94,0.204005,620270,387771
1450.23,0.207354,618860,383918
1453.44,0.210453,617697,380472
1456.64,0.212687,616264,377642
1459.85,0.215456,614413,374114
1463.04,0.217238,612307,371305
1466.24,0.220690,610032,366997
1469.43,0.224643,607345,362070
1473.67,0.230196,603789,355377
1476.85,0.234935,601175,349998
1480.02,0.240624,597737,343468
1483.19,0.246191,594479,337245
1486.36,0.251288,591232,331490
1489.52,0.255927,587853,326093
1492.68,0.259116,583875,321517
1496.89,0.260801,578062,317083
1500.03,0.261534,574159,314411
1503.18,0.261329,570285,312437
1506.32,0.261022,565444,310004
1509.45,0.259537,560571,308385
1512.58,0.258240,555821,306687
1515.71,0.255407,550344,305652
1519.87,0.253276,543983,303605
1522.99,0.249757,538764,303139
1526.1,0.248358,533692,301254
1529.21,0.244998,527902,300300
1532.32,0.241947,521886,298971
1535.42,0.238823,515888,297668
1538.51,0.236137,509987,296089
1541.6,0.233635,503936,294266
1545.72,0.229960,494694,291324
1548.8,0.226379,488378,289986
1551.88,0.224708,481832,287202
1554.95,0.222067,474989,284850
1558.02,0.221460,467818,280942
1561.08,0.220079,460730,277567
1564.15,0.219267,454170,274127
1568.22,0.217177,444181,269391
1571.27,0.217529,436947,264789
1574.32,0.215999,429598,261254
1577.36,0.215382,422039,257022
1580.4,0.213918,414375,253207
1583.43,0.211843,406354,249495
1586.46,0.210569,398475,245376
1590.49,0.208232,388982,240823
1593.51,0.206772,380708,236494
1596.53,0.204199,372727,232912
1599.54,0.202982,365060,228761
1602.55,0.201466,357543,224834
1605.55,0.199552,349495,220744
1608.55,0.197563,341154,216465
1612.54,0.195386,330877,210999
1615.53,0.193332,322904,206891
1618.51,0.192429,315116,202321
1621.49,0.191153,307217,197830
1624.47,0.190841,299481,192987
1627.44,0.189230,292112,188938
1630.41,0.188799,284245,184032
1634.36,0.187105,274079,178144
1637.32,0.187406,266916,173368
1640.27,0.184346,259612,169816
1643.22,0.185433,251804,164297
1646.16,0.183669,244348,160081
1649.1,0.183416,236703,155163
1652.04,0.181591,228171,150200
1655.95,0.178960,215408,142660
1658.88,0.174105,204937,137251
1661.8,0.171501,193395,130300
1664.72,0.161509,179728,123910
1667.63,0.151226,163642,115523
1670.54,0.135876,146312,107005
1673.44,0.119831,128451,97478
1677.31,0.101794,105080,83124
1680.21,0.093297,88906,71719
1683.1,0.086292,75033,61512
1685.99,0.088614,63520,51796
1688.87,0.089616,53714,43699
1691.75,0.094247,45653,36747
1694.62,0.097251,39137,31285
1697.49,0.109661,33776,26239
1701.31,0.110870,28175,21827