File: samples/wool/wool-000811/Column 1_050584_20150331_121605.csv
Method:,Column 1,,
Host Date-Time:,31/3/15 @ 12:16:5,,
Header Version:,1,,
System Temp (C):,33.78,,
Detector Temp (C):,34.51,,
Humidity (%):,1.86,,
Lamp PD:,3819,,
Shift Vector Coefficients:,-10.5391,0.0761263,-0.000134223,,
Pixel to Wavelength Coefficients:,1775.68,-0.916766,-0.000235065,,
Serial Number:,5510004,,
Scan Config Name:,Column 1,,
Scan Config Type:,Slew,,
Section 1,,
Start wavelength (nm):,900,,
End wavelength (nm):,1700,,
Pattern Pixel Width (nm):,   7.03,,,,
Exposure (ms):,  0.635,,,,
Digital Resolution:,228,,
Num Repeats:,6,,
PGA Gain:,64,,
Total Measurement Time in sec:,  2.682,,
Wavelength (nm),Absorbance (AU),Reference Signal (unitless),Sample Signal (unitless)
901.51,0.068196,108485,92720
905.376,0.075678,121306,101907
909.237,0.077050,131909,110465
913.095,0.077409,143299,119904
916.948,0.078784,156982,130938
922.079,0.080415,179937,149522
925.923,0.081312,200504,166269
929.762,0.083595,222660,183674
933.597,0.083414,244426,201713
937.427,0.081818,263972,218645
941.254,0.081127,281845,233821
945.076,0.079679,297271,247442
950.165,0.079581,315605,262762
953.978,0.079766,328029,272990
957.786,0.078499,340470,284171
961.59,0.079423,352317,293434
965.389,0.079333,363056,302441
969.185,0.079151,373162,310990
972.976,0.079616,382632,318541
976.763,0.080228,391202,325217
981.806,0.080450,400190,332519
985.583,0.081666,406088,336476
989.355,0.081393,410162,340065
993.124,0.082267,412868,341621
996.888,0.082432,414263,342645
1000.65,0.083209,415476,343034
1004.4,0.084607,415479,341934
1009.41,0.086023,414358,339901
1013.15,0.085999,412923,338743
1016.89,0.086350,411526,337324
1020.63,0.086405,409066,335265
1024.36,0.086599,406777,333240
1028.09,0.086620,404427,331299
1031.82,0.086307,401911,329475
1036.78,0.085821,398410,326971
1040.49,0.085911,396204,325093
1044.2,0.085591,394236,323717
1047.91,0.085150,392042,322242
1051.61,0.085374,389823,320253
1055.31,0.084468,388234,319614
1059,0.084399,387599,319142
1063.92,0.083413,386688,319115
1067.61,0.083167,386598,319222
1071.29,0.082383,387377,320443
1074.96,0.082125,388536,321593
1078.63,0.081570,389855,323097
1082.3,0.080290,391215,325181
1085.96,0.079693,393215,327293
1090.84,0.079465,396270,330009
1094.49,0.078721,398760,332652
1098.14,0.078399,400987,334758
1101.79,0.077436,403477,337585
1105.43,0.077362,406116,339851
1109.06,0.076623,407701,341758
1112.7,0.076397,409859,343746
1117.53,0.075744,412494,346476
1121.15,0.076684,414909,347751
1124.77,0.076658,416559,349155
1128.38,0.076934,418532,350586
1131.99,0.078352,419956,350632
1135.6,0.080207,421946,350792
1139.2,0.081733,423881,351165
1143.99,0.083100,426786,352460
1147.58,0.084218,428617,353062
1151.17,0.084982,431169,354540
1154.75,0.086634,433579,355168
1158.33,0.088013,436264,356235
1161.91,0.089272,439132,357539
1165.48,0.091819,442389,358084
1169.04,0.093785,446101,359458
1173.79,0.096830,451929,361610
1177.34,0.099468,456026,362678
1180.9,0.101323,461306,365314
1184.44,0.103312,467657,368651
1187.99,0.103965,473969,373065
1191.52,0.103879,479856,377774
1195.06,0.104135,487372,383465
1199.76,0.103422,497347,391956
1203.29,0.102615,504311,398184
1206.81,0.102238,511507,404216
1210.33,0.101561,519078,410839
1213.84,0.100349,527163,418404
1217.35,0.099964,534208,424372
1220.85,0.099935,540472,429376
1225.51,0.098962,549929,437869
1229.01,0.098781,556888,443595
1232.5,0.097817,562180,448806
1235.98,0.097528,567975,453734
1239.46,0.096333,574815,460463
1242.94,0.095610,582782,467623
1246.41,0.094876,591476,475402
1251.03,0.094917,604016,485435
1254.5,0.094934,612289,492065
1257.96,0.095080,619125,497391
1261.41,0.095630,624551,501116
1264.86,0.097488,629900,503250
1268.31,0.096720,634345,507698
1271.75,0.097573,638574,510080
1276.33,0.097361,642499,513466
1279.76,0.097674,645905,515816
1283.19,0.096818,648307,518756
1286.61,0.097133,650446,520090
1290.03,0.096331,652132,522402
1293.44,0.095747,653907,524528
1296.85,0.095720,655963,526210
1301.39,0.095235,657349,527911
1304.8,0.095317,657558,527979
1308.19,0.095804,658515,528155
1311.58,0.095458,658804,528808
1314.97,0.096580,659011,527610
1318.36,0.096899,658272,526631
1321.73,0.097300,658022,525945
1326.23,0.098128,657870,524822
1329.6,0.099270,656482,522339
1332.97,0.100410,654926,519735
1336.33,0.101207,653727,517833
1339.69,0.103397,652497,514258
1343.04,0.104259,649913,511206
1346.39,0.106121,647671,507263
1349.73,0.108347,645338,502852
1354.18,0.111168,641175,496374
1357.52,0.113238,638376,491857
1360.85,0.115386,635805,487459
1364.17,0.117770,633413,482966
1367.49,0.119709,631026,479003
1370.81,0.121637,628050,474632
1374.12,0.124359,625034,469402
1378.54,0.127282,620272,462701
1381.84,0.130298,616892,456995
1385.14,0.134274,613613,450423
1388.43,0.138046,611526,445009
1391.72,0.143118,610663,439222
1395.01,0.147356,610634,434936
1398.29,0.152511,611700,430554
1402.66,0.160246,614051,424579
1405.93,0.165470,616268,421017
1409.2,0.170690,617795,417018
1412.46,0.175702,618872,412951
1415.72,0.180387,619795,409130
1418.98,0.184060,620495,406142
1422.23,0.187788,621087,403055
1426.56,0.192014,621375,399337
1429.8,0.194777,621616,396959
1433.04,0.197308,622129,394978
1436.27,0.199429,621526,392672
1439.5,0.201178,621113,390834
1442.72,0.203749,620921,388407
1445.94,0.206306,620270,385722
1450.23,0.209712,618860,381839
1453.44,0.212637,617697,378563
1456.64,0.214946,616264,375682
1459.85,0.217592,614413,372279
1463.04,0.220085,612307,368879
1466.24,0.223343,610032,364762
1469.43,0.226203,607345,360772
1473.67,0.231547,603789,354273
1476.85,0.237027,601175,348316
1480.02,0.242031,597737,342357
1483.19,0.247398,594479,336309
1486.36,0.252589,591232,330498
1489.52,0.256715,587853,325502
1492.68,0.259562,583875,321187
1496.89,0.261848,578062,316320
1500.03,0.262577,574159,313657
1503.18,0.262294,570285,311744
1506.32,0.261989,565444,309315
1509.45,0.259811,560571,308191
1512.58,0.258672,555821,306382
1515.71,0.256329,550344,305004
1519.87,0.253600,543983,303379
1522.99,0.250738,538764,302455
1526.1,0.248081,533692,301446
1529.21,0.245551,527902,299918
1532.32,0.242759,521886,298412
1535.42,0.240740,515888,296357
1538.51,0.237640,509987,295066
1541.6,0.234884,503936,293421
1545.72,0.230418,494694,291017
1548.8,0.227295,488378,289375
1551.88,0.225136,481832,286919
1554.95,0.223070,474989,284193
1558.02,0.221347,467818,281015
1561.08,0.220174,460730,277506
1564.15,0.219577,454170,273931
1568.22,0.218286,444181,268704
1571.27,0.218501,436947,264197
1574.32,0.216596,429598,260895
1577.36,0.216374,422039,256436
1580.4,0.214354,414375,252953
1583.43,0.212674,406354,249018
1586.46,0.211400,398475,244907
1590.49,0.209161,388982,240308
1593.51,0.207691,380708,235994
1596.53,0.205229,372727,232360
1599.54,0.202914,365060,228797
1602.55,0.200594,357543,225286
1605.55,0.199047,349495,221001
1608.55,0.196909,341154,216791
1612.54,0.195528,330877,210930
1615.53,0.193989,322904,206578
1618.51,0.192881,315116,202111
1621.49,0.190611,307217,198077
1624.47,0.190216,299481,193265
1627.44,0.189987,292112,188609
1630.41,0.187162,284245,184727
1634.36,0.186033,274079,178584
1637.32,0.186522,266916,173721
1640.27,0.186826,259612,168849
1643.22,0.184398,251804,164689
1646.16,0.183360,244348,160195
1649.1,0.181929,236703,155695
1652.04,0.180534,228171,150566
1655.95,0.178391,215408,142847
1658.88,0.173523,204937,137435
1661.8,0.169446,193395,130918
1664.72,0.161481,179728,123918
1667.63,0.148169,163642,116339
1670.54,0.135308,146312,107145
1673.44,0.119070,128451,97649
1677.31,0.100958,105080,83284
1680.21,0.092208,88906,71899
1683.1,0.082567,75033,62042
1685.99,0.084293,63520,52314
1688.87,0.083919,53714,44276
1691.75,0.091867,45653,36949
1694.62,0.096641,39137,31329
1697.49,0.102650,33776,26666
1701.31,0.099771,28175,22392