File: samples/wool/wool-000811/Column 1_050625_20150331_123534.csv
Method:,Column 1,,
Host Date-Time:,31/3/15 @ 12:35:34,,
Header Version:,1,,
System Temp (C):,34.14,,
Detector Temp (C):,35.05,,
Humidity (%):,1.56,,
Lamp PD:,3818,,
Shift Vector Coefficients:,-10.5391,0.0761263,-0.000134223,,
Pixel to Wavelength Coefficients:,1775.68,-0.916766,-0.000235065,,
Serial Number:,5510004,,
Scan Config Name:,Column 1,,
Scan Config Type:,Slew,,
Section 1,,
Start wavelength (nm):,900,,
End wavelength (nm):,1700,,
Pattern Pixel Width (nm):,   7.03,,,,
Exposure (ms):,  0.635,,,,
Digital Resolution:,228,,
Num Repeats:,6,,
PGA Gain:,64,,
Total Measurement Time in sec:,  2.670,,
Wavelength (nm),Absorbance (AU),Reference Signal (unitless),Sample Signal (unitless)
901.51,0.070140,108485,92306
905.376,0.074533,121306,102176
909.237,0.075974,131909,110739
913.095,0.078149,143299,119700
916.948,0.080016,156982,130567
922.079,0.078989,179937,150014
925.923,0.081727,200504,166110
929.762,0.083420,222660,183748
933.597,0.082222,244426,202267
937.427,0.081626,263972,218742
941.254,0.081329,281845,233712
945.076,0.079846,297271,247347
950.165,0.078589,315605,263363
953.978,0.077539,328029,274393
957.786,0.077702,340470,284693
961.59,0.077692,352317,294606
965.389,0.077470,363056,303741
969.185,0.077090,373162,312469
972.976,0.077820,382632,319861
976.763,0.077987,391202,326899
981.806,0.078932,400190,333683
985.583,0.079529,406088,338136
989.355,0.079675,410162,341413
993.124,0.080556,412868,342969
996.888,0.080966,414263,343803
1000.65,0.081923,415476,344051
1004.4,0.082300,415479,343755
1009.41,0.083920,414358,341551
1013.15,0.084020,412923,340290
1016.89,0.085055,411526,338331
1020.63,0.084954,409066,336387
1024.36,0.084942,406777,334514
1028.09,0.084744,404427,332733
1031.82,0.084095,401911,331158
1036.78,0.084013,398410,328335
1040.49,0.083371,396204,327000
1044.2,0.083431,394236,325331
1047.91,0.083666,392042,323345
1051.61,0.083149,389823,321898
1055.31,0.082336,388234,321187
1059,0.082137,387599,320808
1063.92,0.081512,386688,320515
1067.61,0.080634,386598,321089
1071.29,0.080074,387377,322151
1074.96,0.079789,388536,323327
1078.63,0.078861,389855,325119
1082.3,0.078603,391215,326447
1085.96,0.077176,393215,329196
1090.84,0.076725,396270,332098
1094.49,0.076375,398760,334454
1098.14,0.075607,400987,336917
1101.79,0.074673,403477,339739
1105.43,0.074380,406116,342192
1109.06,0.073989,407701,343837
1112.7,0.073107,409859,346360
1117.53,0.073401,412494,348351
1121.15,0.073800,414909,350068
1124.77,0.073393,416559,351790
1128.38,0.074711,418532,352385
1131.99,0.075071,419956,353291
1135.6,0.076887,421946,353484
1139.2,0.078589,423881,353716
1143.99,0.080351,426786,354698
1147.58,0.081092,428617,355613
1151.17,0.081865,431169,357094
1154.75,0.082347,433579,358692
1158.33,0.084293,436264,359299
1161.91,0.085669,439132,360517
1165.48,0.087620,442389,361563
1169.04,0.090237,446101,362407
1173.79,0.093728,451929,364202
1177.34,0.095791,456026,365762
1180.9,0.097797,461306,368292
1184.44,0.099673,467657,371753
1187.99,0.100777,473969,375814
1191.52,0.100709,479856,380541
1195.06,0.100552,487372,386642
1199.76,0.099988,497347,395068
1203.29,0.099147,504311,401376
1206.81,0.098919,511507,407317
1210.33,0.098488,519078,413756
1213.84,0.097799,527163,420868
1217.35,0.096914,534208,427362
1220.85,0.096129,540472,433156
1225.51,0.095273,549929,441605
1229.01,0.095401,556888,447061
1232.5,0.094324,562180,452430
1235.98,0.093886,567975,457555
1239.46,0.092730,574815,464299
1242.94,0.091636,582782,471922
1246.41,0.091247,591476,479391
1251.03,0.091373,604016,489413
1254.5,0.091235,612289,496274
1257.96,0.091435,619125,501584
1261.41,0.092318,624551,504952
1264.86,0.092547,629900,509008
1268.31,0.093048,634345,512009
1271.75,0.093964,638574,514336
1276.33,0.094216,642499,517198
1279.76,0.093669,645905,520594
1283.19,0.093023,648307,523309
1286.61,0.093447,650446,524523
1290.03,0.092795,652132,526672
1293.44,0.092029,653907,529038
1296.85,0.092112,655963,530600
1301.39,0.091915,657349,531962
1304.8,0.091462,657558,532687
1308.19,0.091605,658515,533286
1311.58,0.091932,658804,533119
1314.97,0.092202,659011,532955
1318.36,0.092262,658272,532284
1321.73,0.092928,658022,531267
1326.23,0.093795,657870,530084
1329.6,0.094055,656482,528650
1332.97,0.094975,654926,526280
1336.33,0.095913,653727,524183
1339.69,0.097309,652497,521518
1343.04,0.098799,649913,517674
1346.39,0.100855,647671,513451
1349.73,0.102395,645338,509791
1354.18,0.105713,641175,502648
1357.52,0.107218,638376,498722
1360.85,0.109604,635805,493992
1364.17,0.111760,633413,489696
1367.49,0.113758,631026,485612
1370.81,0.116151,628050,480666
1374.12,0.117923,625034,476410
1378.54,0.120428,620272,470061
1381.84,0.123510,616892,464194
1385.14,0.126107,613613,458973
1388.43,0.130243,611526,453077
1391.72,0.133542,610663,449014
1395.01,0.137114,610634,445315
1398.29,0.141824,611700,441280
1402.66,0.147284,614051,437442
1405.93,0.152373,616268,433907
1409.2,0.156581,617795,430788
1412.46,0.160927,618872,427242
1415.72,0.164759,619795,424120
1418.98,0.167825,620495,421612
1422.23,0.171004,621087,418937
1426.56,0.175262,621375,415042
1429.8,0.177645,621616,412931
1433.04,0.180429,622129,410631
1436.27,0.181936,621526,408812
1439.5,0.183979,621113,406623
1442.72,0.186685,620921,403972
1445.94,0.188910,620270,401486
1450.23,0.192720,618860,397075
1453.44,0.195114,617697,394150
1456.64,0.198609,616264,390084
1459.85,0.201449,614413,386377
1463.04,0.204249,612307,382578
1466.24,0.208037,610032,377847
1469.43,0.211744,607345,372985
1473.67,0.217835,603789,365637
1476.85,0.223804,601175,359085
1480.02,0.230265,597737,351759
1483.19,0.236504,594479,344852
1486.36,0.242520,591232,338250
1489.52,0.248205,587853,331943
1492.68,0.251256,583875,327389
1496.89,0.253468,578062,322483
1500.03,0.254667,574159,319422
1503.18,0.254240,570285,317579
1506.32,0.253254,565444,315599
1509.45,0.252827,560571,313187
1512.58,0.250118,555821,312476
1515.71,0.248476,550344,310569
1519.87,0.245412,543983,309153
1522.99,0.242552,538764,308210
1526.1,0.239937,533692,307152
1529.21,0.237387,527902,305609
1532.32,0.234047,521886,304459
1535.42,0.231602,515888,302659
1538.51,0.228119,509987,301606
1541.6,0.225567,503936,299784
1545.72,0.221491,494694,297061
1548.8,0.217845,488378,295741
1551.88,0.216040,481832,292992
1554.95,0.214333,474989,289968
1558.02,0.212675,467818,286683
1561.08,0.211574,460730,283056
1564.15,0.211121,454170,279317
1568.22,0.210276,444181,273706
1571.27,0.209390,436947,269798
1574.32,0.208766,429598,265642
1577.36,0.207780,422039,261561
1580.4,0.206574,414375,257525
1583.43,0.204721,406354,253620
1586.46,0.204151,398475,249029
1590.49,0.201448,388982,244614
1593.51,0.199766,380708,240340
1596.53,0.198172,372727,236167
1599.54,0.194878,365060,233070
1602.55,0.193982,357543,228742
1605.55,0.191909,349495,224663
1608.55,0.189989,341154,220273
1612.54,0.187992,330877,214622
1615.53,0.186286,322904,210275
1618.51,0.185251,315116,205693
1621.49,0.184619,307217,200829
1624.47,0.182865,299481,196564
1627.44,0.182391,292112,191937
1630.41,0.181002,284245,187366
1634.36,0.180627,274079,180821
1637.32,0.180108,266916,176306
1640.27,0.180393,259612,171369
1643.22,0.177730,251804,167237
1646.16,0.178159,244348,162125
1649.1,0.176650,236703,157599
1652.04,0.175355,228171,152372
1655.95,0.171960,215408,144978
1658.88,0.167760,204937,139271
1661.8,0.162088,193395,133155
1664.72,0.155070,179728,125761
1667.63,0.142153,163642,117962
1670.54,0.128061,146312,108948
1673.44,0.110640,128451,99563
1677.31,0.090408,105080,85332
1680.21,0.078036,88906,74284
1683.1,0.075808,75033,63015
1685.99,0.076770,63520,53228
1688.87,0.071656,53714,45544
1691.75,0.083197,45653,37694
1694.62,0.082378,39137,32375
1697.49,0.084438,33776,27808
1701.31,0.095659,28175,22605