File: samples/wool/wool-000811/Column 1_050551_20150331_120008.csv
Method:,Column 1,,
Host Date-Time:,31/3/15 @ 12:0:8,,
Header Version:,1,,
System Temp (C):,33.2,,
Detector Temp (C):,32.43,,
Humidity (%):,3.91,,
Lamp PD:,3820,,
Shift Vector Coefficients:,-10.5391,0.0761263,-0.000134223,,
Pixel to Wavelength Coefficients:,1775.68,-0.916766,-0.000235065,,
Serial Number:,5510004,,
Scan Config Name:,Column 1,,
Scan Config Type:,Slew,,
Section 1,,
Start wavelength (nm):,900,,
End wavelength (nm):,1700,,
Pattern Pixel Width (nm):,   7.03,,,,
Exposure (ms):,  0.635,,,,
Digital Resolution:,228,,
Num Repeats:,6,,
PGA Gain:,64,,
Total Measurement Time in sec:,  2.733,,
Wavelength (nm),Absorbance (AU),Reference Signal (unitless),Sample Signal (unitless)
901.51,0.047511,108485,97243
905.376,0.052397,121306,107519
909.237,0.054997,131909,116219
913.095,0.053758,143299,126615
916.948,0.055295,156982,138215
922.079,0.056777,179937,157886
925.923,0.056781,200504,175931
929.762,0.056555,222660,195473
933.597,0.057091,244426,214317
937.427,0.056302,263972,231876
941.254,0.057138,281845,247100
945.076,0.056725,297271,260872
950.165,0.056912,315605,276842
953.978,0.056582,328029,287959
957.786,0.056820,340470,298716
961.59,0.057324,352317,308752
965.389,0.057298,363056,318182
969.185,0.057910,373162,326578
972.976,0.058423,382632,334471
976.763,0.059275,391202,341292
981.806,0.059488,400190,348962
985.583,0.060592,406088,353206
989.355,0.060985,410162,356427
993.124,0.061248,412868,358561
996.888,0.062004,414263,359147
1000.65,0.063142,415476,359256
1004.4,0.064820,415479,357873
1009.41,0.065933,414358,355994
1013.15,0.066524,412923,354279
1016.89,0.067186,411526,352542
1020.63,0.066856,409066,350701
1024.36,0.066862,406777,348734
1028.09,0.066125,404427,347308
1031.82,0.065609,401911,345558
1036.78,0.065625,398410,342535
1040.49,0.064547,396204,341485
1044.2,0.065165,394236,339306
1047.91,0.064205,392042,338164
1051.61,0.064004,389823,336406
1055.31,0.063540,388234,335393
1059,0.062451,387599,335685
1063.92,0.061931,386688,335297
1067.61,0.061374,386598,335649
1071.29,0.060540,387377,336972
1074.96,0.059834,388536,338530
1078.63,0.059760,389855,339737
1082.3,0.058387,391215,342002
1085.96,0.058602,393215,343580
1090.84,0.057692,396270,346976
1094.49,0.057354,398760,349428
1098.14,0.057362,400987,351373
1101.79,0.056487,403477,354268
1105.43,0.057244,406116,355964
1109.06,0.056239,407701,358181
1112.7,0.057131,409859,359338
1117.53,0.056498,412494,362176
1121.15,0.056814,414909,364031
1124.77,0.057221,416559,365137
1128.38,0.059577,418532,364881
1131.99,0.060143,419956,365646
1135.6,0.062050,421946,365769
1139.2,0.063996,423881,365804
1143.99,0.066504,426786,366190
1147.58,0.068181,428617,366343
1151.17,0.069144,431169,367708
1154.75,0.070067,433579,368979
1158.33,0.072148,436264,369489
1161.91,0.074931,439132,369542
1165.48,0.076440,442389,370992
1169.04,0.079123,446101,371801
1173.79,0.082706,451929,373563
1177.34,0.085344,456026,374667
1180.9,0.087132,461306,377448
1184.44,0.089150,467657,380871
1187.99,0.090059,473969,385204
1191.52,0.090138,479856,389918
1195.06,0.089907,487372,396236
1199.76,0.089880,497347,404371
1203.29,0.088917,504311,410943
1206.81,0.088123,511507,417569
1210.33,0.087218,519078,424634
1213.84,0.086665,527163,431797
1217.35,0.085929,534208,438310
1220.85,0.084637,540472,444771
1225.51,0.084403,549929,452797
1229.01,0.083951,556888,459004
1232.5,0.083158,562180,464213
1235.98,0.082346,567975,469876
1239.46,0.081641,574815,476307
1242.94,0.080634,582782,484030
1246.41,0.079693,591476,492316
1251.03,0.079780,604016,502653
1254.5,0.079854,612289,509451
1257.96,0.080389,619125,514505
1261.41,0.081195,624551,518052
1264.86,0.081310,629900,522350
1268.31,0.082055,634345,525135
1271.75,0.082863,638574,527653
1276.33,0.083014,642499,530711
1279.76,0.083239,645905,533249
1283.19,0.082369,648307,536305
1286.61,0.081952,650446,538591
1290.03,0.082394,652132,539438
1293.44,0.081158,653907,542448
1296.85,0.081419,655963,543827
1301.39,0.081133,657349,545334
1304.8,0.081278,657558,545326
1308.19,0.081391,658515,545977
1311.58,0.081385,658804,546224
1314.97,0.082055,659011,545554
1318.36,0.082851,658272,543944
1321.73,0.083222,658022,543273
1326.23,0.084612,657870,541412
1329.6,0.085590,656482,539055
1332.97,0.086798,654926,536283
1336.33,0.087845,653727,534012
1339.69,0.090276,652497,530032
1343.04,0.092111,649913,525708
1346.39,0.094588,647671,520915
1349.73,0.096807,645338,516393
1354.18,0.100569,641175,508637
1357.52,0.103171,638376,503391
1360.85,0.105503,635805,498679
1364.17,0.107792,633413,494191
1367.49,0.109911,631026,489933
1370.81,0.112290,628050,484958
1374.12,0.114658,625034,480005
1378.54,0.118585,620272,472060
1381.84,0.122434,616892,465345
1385.14,0.126443,613613,458618
1388.43,0.131214,611526,452065
1391.72,0.136905,610663,445550
1395.01,0.142034,610634,440298
1398.29,0.148511,611700,434538
1402.66,0.156813,614051,427948
1405.93,0.163107,616268,423314
1409.2,0.169843,617795,417832
1412.46,0.175783,618872,412874
1415.72,0.181123,619795,408437
1418.98,0.186541,620495,403829
1422.23,0.190648,621087,400410
1426.56,0.196413,621375,395313
1429.8,0.200228,621616,392007
1433.04,0.203363,622129,389509
1436.27,0.206504,621526,386327
1439.5,0.209091,621113,383778
1442.72,0.212029,620921,381072
1445.94,0.215133,620270,377962
1450.23,0.218941,618860,373810
1453.44,0.221960,617697,370523
1456.64,0.225223,616264,366897
1459.85,0.227880,614413,363564
1463.04,0.231275,612307,359496
1466.24,0.234999,610032,355102
1469.43,0.238209,607345,350935
1473.67,0.244799,603789,343626
1476.85,0.250130,601175,337964
1480.02,0.256120,597737,331429
1483.19,0.261492,594479,325570
1486.36,0.266685,591232,319943
1489.52,0.271184,587853,314836
1492.68,0.274388,583875,310407
1496.89,0.276489,578062,305834
1500.03,0.275756,574159,304282
1503.18,0.275835,570285,302174
1506.32,0.275032,565444,300163
1509.45,0.273018,560571,298960
1512.58,0.270634,555821,298058
1515.71,0.268695,550344,296442
1519.87,0.265509,543983,295173
1522.99,0.263056,538764,293997
1526.1,0.260582,533692,292893
1529.21,0.256312,527902,292578
1532.32,0.254153,521886,290685
1535.42,0.250934,515888,289482
1538.51,0.247629,509987,288357
1541.6,0.244730,503936,286844
1545.72,0.239734,494694,284841
1548.8,0.236861,488378,283071
1551.88,0.234163,481832,281017
1554.95,0.232153,474989,278311
1558.02,0.230107,467818,275404
1561.08,0.228785,460730,272058
1564.15,0.228387,454170,268430
1568.22,0.226882,444181,263438
1571.27,0.227151,436947,258987
1574.32,0.225180,429598,255789
1577.36,0.223494,422039,252266
1580.4,0.221968,414375,248557
1583.43,0.220168,406354,244758
1586.46,0.219589,398475,240332
1590.49,0.216510,388982,236276
1593.51,0.214608,380708,232265
1596.53,0.211825,372727,228858
1599.54,0.210203,365060,224989
1602.55,0.208429,357543,221258
1605.55,0.206197,349495,217392
1608.55,0.203793,341154,213382
1612.54,0.200977,330877,208300
1615.53,0.198503,322904,204442
1618.51,0.197997,315116,199744
1621.49,0.196787,307217,195280
1624.47,0.195109,299481,191100
1627.44,0.194177,292112,186798
1630.41,0.193309,284245,182131
1634.36,0.191185,274079,176478
1637.32,0.189664,266916,172469
1640.27,0.190621,259612,167380
1643.22,0.188553,251804,163121
1646.16,0.188863,244348,158178
1649.1,0.186570,236703,154040
1652.04,0.184672,228171,149138
1655.95,0.184742,215408,140773
1658.88,0.180833,204937,135141
1661.8,0.177569,193395,128492
1664.72,0.172685,179728,120762
1667.63,0.163821,163642,112221
1670.54,0.155120,146312,102367
1673.44,0.143908,128451,92221
1677.31,0.134821,105080,77037
1680.21,0.125835,88906,66542
1683.1,0.126584,75033,56062
1685.99,0.131691,63520,46905
1688.87,0.136525,53714,39225
1691.75,0.134347,45653,33506
1694.62,0.139361,39137,28394
1697.49,0.150829,33776,23866
1701.31,0.150357,28175,19930