File: samples/wool/wool-000811/Column 1_050556_20150331_120231.csv
Method:,Column 1,,
Host Date-Time:,31/3/15 @ 12:2:31,,
Header Version:,1,,
System Temp (C):,33.49,,
Detector Temp (C):,32.66,,
Humidity (%):,2.44,,
Lamp PD:,3820,,
Shift Vector Coefficients:,-10.5391,0.0761263,-0.000134223,,
Pixel to Wavelength Coefficients:,1775.68,-0.916766,-0.000235065,,
Serial Number:,5510004,,
Scan Config Name:,Column 1,,
Scan Config Type:,Slew,,
Section 1,,
Start wavelength (nm):,900,,
End wavelength (nm):,1700,,
Pattern Pixel Width (nm):,   7.03,,,,
Exposure (ms):,  0.635,,,,
Digital Resolution:,228,,
Num Repeats:,6,,
PGA Gain:,64,,
Total Measurement Time in sec:,  2.676,,
Wavelength (nm),Absorbance (AU),Reference Signal (unitless),Sample Signal (unitless)
901.51,0.034701,108485,100154
905.376,0.039100,121306,110862
909.237,0.041495,131909,119889
913.095,0.041946,143299,130106
916.948,0.042901,156982,142216
922.079,0.045171,179937,162162
925.923,0.045718,200504,180470
929.762,0.047678,222660,199510
933.597,0.046794,244426,219459
937.427,0.045830,263972,237535
941.254,0.046324,281845,253330
945.076,0.045775,297271,267533
950.165,0.045601,315605,284147
953.978,0.045146,328029,295642
957.786,0.044880,340470,307043
961.59,0.045733,352317,317103
965.389,0.046128,363056,326472
969.185,0.045963,373162,335687
972.976,0.046728,382632,343600
976.763,0.048283,391202,350040
981.806,0.048209,400190,358144
985.583,0.049071,406088,362701
989.355,0.050034,410162,365529
993.124,0.050786,412868,367304
996.888,0.050538,414263,368755
1000.65,0.051457,415476,369053
1004.4,0.052234,415479,368396
1009.41,0.053903,414358,365993
1013.15,0.054475,412923,364245
1016.89,0.055292,411526,362331
1020.63,0.055138,409066,360293
1024.36,0.055200,406777,358225
1028.09,0.054391,404427,356820
1031.82,0.054746,401911,354310
1036.78,0.053915,398410,351897
1040.49,0.053530,396204,350259
1044.2,0.053223,394236,348765
1047.91,0.052752,392042,347201
1051.61,0.052426,389823,345495
1055.31,0.052362,388234,344137
1059,0.051326,387599,344395
1063.92,0.050644,386688,344125
1067.61,0.049668,386598,344819
1071.29,0.049035,387377,346018
1074.96,0.048188,388536,347731
1078.63,0.048511,389855,348652
1082.3,0.047171,391215,350949
1085.96,0.045677,393215,353959
1090.84,0.045704,396270,356687
1094.49,0.045992,398760,358690
1098.14,0.045745,400987,360899
1101.79,0.045157,403477,363632
1105.43,0.044761,406116,366344
1109.06,0.044493,407701,368001
1112.7,0.044490,409859,369951
1117.53,0.044223,412494,372559
1121.15,0.044922,414909,374137
1124.77,0.045482,416559,375141
1128.38,0.046706,418532,375857
1131.99,0.048418,419956,375652
1135.6,0.050495,421946,375631
1139.2,0.052009,423881,376041
1143.99,0.054155,426786,376752
1147.58,0.055470,428617,377224
1151.17,0.057014,431169,378123
1154.75,0.058213,433579,379189
1158.33,0.059445,436264,380456
1161.91,0.061733,439132,380945
1165.48,0.064744,442389,381119
1169.04,0.066835,446101,382471
1173.79,0.070905,451929,383853
1177.34,0.073175,456026,385314
1180.9,0.075312,461306,387862
1184.44,0.076981,467657,391694
1187.99,0.078266,473969,395807
1191.52,0.077577,479856,401360
1195.06,0.076840,487372,408339
1199.76,0.076377,497347,417141
1203.29,0.075649,504311,423691
1206.81,0.075150,511507,430231
1210.33,0.073961,519078,437796
1213.84,0.073267,527163,445326
1217.35,0.072728,534208,451838
1220.85,0.071844,540472,458067
1225.51,0.070881,549929,467117
1229.01,0.070456,556888,473491
1232.5,0.069743,562180,478776
1235.98,0.069295,567975,484211
1239.46,0.067891,574815,491628
1242.94,0.066865,582782,499621
1246.41,0.066475,591476,507530
1251.03,0.065953,604016,518914
1254.5,0.066292,612289,525611
1257.96,0.066830,619125,530821
1261.41,0.067418,624551,534749
1264.86,0.067834,629900,538812
1268.31,0.068701,634345,541533
1271.75,0.069425,638574,544235
1276.33,0.069589,642499,547373
1279.76,0.070037,645905,549708
1283.19,0.068906,648307,553190
1286.61,0.068748,650446,555217
1290.03,0.068177,652132,557389
1293.44,0.067743,653907,559465
1296.85,0.067641,655963,561356
1301.39,0.067660,657349,562518
1304.8,0.067679,657558,562672
1308.19,0.067869,658515,563244
1311.58,0.068050,658804,563257
1314.97,0.068580,659011,562746
1318.36,0.069288,658272,561199
1321.73,0.069267,658022,561013
1326.23,0.070919,657870,558755
1329.6,0.071736,656482,556528
1332.97,0.072232,654926,554575
1336.33,0.074120,653727,551158
1339.69,0.075722,652497,548096
1343.04,0.077702,649913,543442
1346.39,0.079873,647671,538867
1349.73,0.082083,645338,534200
1354.18,0.085051,641175,527140
1357.52,0.087499,638376,521888
1360.85,0.089892,635805,516930
1364.17,0.091697,633413,512849
1367.49,0.094375,631026,507776
1370.81,0.097101,628050,502219
1374.12,0.099366,625034,497207
1378.54,0.102840,620272,489488
1381.84,0.106589,616892,482636
1385.14,0.110927,613613,475300
1388.43,0.115385,611526,468846
1391.72,0.120539,610663,462661
1395.01,0.125640,610634,457237
1398.29,0.131465,611700,451932
1402.66,0.139264,614051,445595
1405.93,0.145315,616268,441016
1409.2,0.151268,617795,436090
1412.46,0.156501,618872,431618
1415.72,0.161802,619795,427018
1418.98,0.166009,620495,423379
1422.23,0.169626,621087,420268
1426.56,0.173913,621375,416333
1429.8,0.177342,621616,413219
1433.04,0.179973,622129,411062
1436.27,0.182602,621526,408185
1439.5,0.184924,621113,405739
1442.72,0.187435,620921,403275
1445.94,0.189544,620270,400901
1450.23,0.193100,618860,396728
1453.44,0.196580,617697,392822
1456.64,0.199132,616264,389614
1459.85,0.201773,614413,386089
1463.04,0.204621,612307,382251
1466.24,0.207827,610032,378029
1469.43,0.211341,607345,373331
1473.67,0.216660,603789,366628
1476.85,0.221643,601175,360876
1480.02,0.227518,597737,353991
1483.19,0.233896,594479,346929
1486.36,0.239877,591232,340315
1489.52,0.244455,587853,334822
1492.68,0.248157,583875,329733
1496.89,0.250282,578062,324857
1500.03,0.250702,574159,322352
1503.18,0.250317,570285,320461
1506.32,0.249807,565444,318114
1509.45,0.249268,560571,315764
1512.58,0.247524,555821,314348
1515.71,0.244836,550344,313183
1519.87,0.241928,543983,311643
1522.99,0.239373,538764,310474
1526.1,0.236256,533692,309767
1529.21,0.233255,527902,308531
1532.32,0.229629,521886,307572
1535.42,0.227028,515888,305863
1538.51,0.223979,509987,304495
1541.6,0.221448,503936,302641
1545.72,0.216731,494694,300335
1548.8,0.213036,488378,299034
1551.88,0.211504,481832,296068
1554.95,0.208556,474989,293851
1558.02,0.207393,467818,290191
1561.08,0.206252,460730,286546
1564.15,0.204699,454170,283478
1568.22,0.203723,444181,277867
1571.27,0.202439,436947,274151
1574.32,0.201969,429598,269832
1577.36,0.200789,422039,265805
1580.4,0.199630,414375,261676
1583.43,0.197043,406354,258144
1586.46,0.196315,398475,253563
1590.49,0.192387,388982,249771
1593.51,0.191332,380708,245053
1596.53,0.188610,372727,241424
1599.54,0.187336,365060,237153
1602.55,0.183556,357543,234300
1605.55,0.182626,349495,229517
1608.55,0.180166,341154,225312
1612.54,0.178390,330877,219420
1615.53,0.175777,322904,215425
1618.51,0.174559,315116,210820
1621.49,0.174072,307217,205766
1624.47,0.171965,299481,201560
1627.44,0.170396,292112,197312
1630.41,0.168746,284245,192729
1634.36,0.168998,274079,185728
1637.32,0.167474,266916,181510
1640.27,0.166187,259612,177067
1643.22,0.165448,251804,172034
1646.16,0.164484,244348,167311
1649.1,0.164089,236703,162224
1652.04,0.162513,228171,156945
1655.95,0.159752,215408,149111
1658.88,0.158977,204937,142116
1661.8,0.153494,193395,135816
1664.72,0.149821,179728,127290
1667.63,0.139788,163642,118606
1670.54,0.131298,146312,108139
1673.44,0.118416,128451,97796
1677.31,0.106928,105080,82147
1680.21,0.099887,88906,70639
1683.1,0.102095,75033,59314
1685.99,0.108542,63520,49473
1688.87,0.106404,53714,42042
1691.75,0.110086,45653,35431
1694.62,0.115394,39137,30005
1697.49,0.121659,33776,25524
1701.31,0.132344,28175,20774