File: samples/wool/wool-000811/Column 1_050629_20150331_123714.csv
Method:,Column 1,,
Host Date-Time:,31/3/15 @ 12:37:14,,
Header Version:,1,,
System Temp (C):,34.14,,
Detector Temp (C):,35.06,,
Humidity (%):,1.56,,
Lamp PD:,3818,,
Shift Vector Coefficients:,-10.5391,0.0761263,-0.000134223,,
Pixel to Wavelength Coefficients:,1775.68,-0.916766,-0.000235065,,
Serial Number:,5510004,,
Scan Config Name:,Column 1,,
Scan Config Type:,Slew,,
Section 1,,
Start wavelength (nm):,900,,
End wavelength (nm):,1700,,
Pattern Pixel Width (nm):,   7.03,,,,
Exposure (ms):,  0.635,,,,
Digital Resolution:,228,,
Num Repeats:,6,,
PGA Gain:,64,,
Total Measurement Time in sec:,  2.724,,
Wavelength (nm),Absorbance (AU),Reference Signal (unitless),Sample Signal (unitless)
901.51,0.067200,108485,92933
905.376,0.073180,121306,102495
909.237,0.075135,131909,110953
913.095,0.076306,143299,120209
916.948,0.077387,156982,131360
922.079,0.079768,179937,149745
925.923,0.080683,200504,166510
929.762,0.082284,222660,184229
933.597,0.080801,244426,202930
937.427,0.081503,263972,218804
941.254,0.079211,281845,234855
945.076,0.078568,297271,248076
950.165,0.077371,315605,264103
953.978,0.076286,328029,275186
957.786,0.076511,340470,285475
961.59,0.077474,352317,294754
965.389,0.076607,363056,304345
969.185,0.077388,373162,312255
972.976,0.076911,382632,320531
976.763,0.077803,391202,327038
981.806,0.078264,400190,334197
985.583,0.078714,406088,338771
989.355,0.078637,410162,342230
993.124,0.079858,412868,343521
996.888,0.080358,414263,344285
1000.65,0.081436,415476,344437
1004.4,0.081718,415479,344216
1009.41,0.083205,414358,342114
1013.15,0.084042,412923,340273
1016.89,0.084358,411526,338875
1020.63,0.083710,409066,337352
1024.36,0.083694,406777,335477
1028.09,0.083618,404427,333597
1031.82,0.083984,401911,331242
1036.78,0.083730,398410,328549
1040.49,0.083423,396204,326961
1044.2,0.083531,394236,325256
1047.91,0.082467,392042,324239
1051.61,0.082563,389823,322333
1055.31,0.082311,388234,321205
1059,0.081861,387599,321012
1063.92,0.080715,386688,321104
1067.61,0.079783,386598,321719
1071.29,0.079589,387377,322511
1074.96,0.079057,388536,323873
1078.63,0.079227,389855,324845
1082.3,0.077951,391215,326937
1085.96,0.077049,393215,329292
1090.84,0.076095,396270,332580
1094.49,0.075735,398760,334947
1098.14,0.074541,400987,337745
1101.79,0.074083,403477,340201
1105.43,0.073655,406116,342764
1109.06,0.073488,407701,344234
1112.7,0.072753,409859,346642
1117.53,0.072470,412494,349098
1121.15,0.073235,414909,350524
1124.77,0.073184,416559,351959
1128.38,0.073922,418532,353026
1131.99,0.074934,419956,353403
1135.6,0.076315,421946,353950
1139.2,0.077570,423881,354547
1143.99,0.080212,426786,354812
1147.58,0.080213,428617,356333
1151.17,0.081622,431169,357294
1154.75,0.082115,433579,358883
1158.33,0.083303,436264,360119
1161.91,0.085148,439132,360950
1165.48,0.087313,442389,361819
1169.04,0.089565,446101,362968
1173.79,0.092811,451929,364972
1177.34,0.095192,456026,366267
1180.9,0.097318,461306,368698
1184.44,0.099141,467657,372209
1187.99,0.100403,473969,376138
1191.52,0.100500,479856,380725
1195.06,0.100468,487372,386716
1199.76,0.099292,497347,395701
1203.29,0.098399,504311,402068
1206.81,0.098520,511507,407691
1210.33,0.097543,519078,414658
1213.84,0.097230,527163,421420
1217.35,0.096674,534208,427599
1220.85,0.095785,540472,433499
1225.51,0.094654,549929,442235
1229.01,0.094854,556888,447625
1232.5,0.093653,562180,453130
1235.98,0.093567,567975,457891
1239.46,0.092175,574815,464893
1242.94,0.091919,582782,471614
1246.41,0.090807,591476,479877
1251.03,0.090957,604016,489882
1254.5,0.090561,612289,497045
1257.96,0.091249,619125,501798
1261.41,0.091900,624551,505438
1264.86,0.092097,629900,509536
1268.31,0.092616,634345,512518
1271.75,0.094618,638574,513563
1276.33,0.093368,642499,518209
1279.76,0.093178,645905,521184
1283.19,0.093020,648307,523312
1286.61,0.092718,650446,525404
1290.03,0.092552,652132,526967
1293.44,0.092103,653907,528948
1296.85,0.092205,655963,530486
1301.39,0.091202,657349,532836
1304.8,0.091009,657558,533243
1308.19,0.091230,658515,533747
1311.58,0.091514,658804,533633
1314.97,0.091881,659011,533349
1318.36,0.092114,658272,532465
1321.73,0.092381,658022,531936
1326.23,0.093199,657870,530812
1329.6,0.093972,656482,528750
1332.97,0.094856,654926,526425
1336.33,0.095610,653727,524549
1339.69,0.096911,652497,521996
1343.04,0.098439,649913,518103
1346.39,0.100664,647671,513677
1349.73,0.102009,645338,510244
1354.18,0.105115,641175,503340
1357.52,0.107023,638376,498946
1360.85,0.109238,635805,494408
1364.17,0.111151,633413,490384
1367.49,0.113196,631026,486241
1370.81,0.115416,628050,481480
1374.12,0.117130,625034,477280
1378.54,0.119795,620272,470747
1381.84,0.122849,616892,464901
1385.14,0.125586,613613,459524
1388.43,0.128861,611526,454521
1391.72,0.132751,610663,449832
1395.01,0.136778,610634,445659
1398.29,0.141305,611700,441808
1402.66,0.146620,614051,438111
1405.93,0.151289,616268,434991
1409.2,0.155922,617795,431442
1412.46,0.160099,618872,428057
1415.72,0.163828,619795,425030
1418.98,0.166739,620495,422668
1422.23,0.170288,621087,419628
1426.56,0.174077,621375,416176
1429.8,0.176695,621616,413835
1433.04,0.178987,622129,411996
1436.27,0.180805,621526,409878
1439.5,0.182667,621113,407853
1442.72,0.185792,620921,404804
1445.94,0.187522,620270,402772
1450.23,0.191743,618860,397969
1453.44,0.193816,617697,395330
1456.64,0.197400,616264,391171
1459.85,0.200355,614413,387352
1463.04,0.202996,612307,383684
1466.24,0.206935,610032,378807
1469.43,0.210567,607345,373997
1473.67,0.216894,603789,366430
1476.85,0.223377,601175,359438
1480.02,0.229145,597737,352667
1483.19,0.236451,594479,344894
1486.36,0.241927,591232,338712
1489.52,0.247366,587853,332585
1492.68,0.251432,583875,327256
1496.89,0.252962,578062,322859
1500.03,0.252945,574159,320691
1503.18,0.252790,570285,318641
1506.32,0.252481,565444,316161
1509.45,0.250648,560571,314762
1512.58,0.249210,555821,313130
1515.71,0.247105,550344,311551
1519.87,0.244275,543983,309963
1522.99,0.241668,538764,308838
1526.1,0.239073,533692,307764
1529.21,0.236031,527902,306565
1532.32,0.233159,521886,305082
1535.42,0.230151,515888,303672
1538.51,0.227407,509987,302101
1541.6,0.223995,503936,300871
1545.72,0.219740,494694,298261
1548.8,0.217776,488378,295788
1551.88,0.215325,481832,293475
1554.95,0.213191,474989,290732
1558.02,0.212065,467818,287086
1561.08,0.210962,460730,283455
1564.15,0.209470,454170,280381
1568.22,0.209179,444181,274398
1571.27,0.208706,436947,270223
1574.32,0.207944,429598,266145
1577.36,0.206678,422039,262225
1580.4,0.205409,414375,258217
1583.43,0.204103,406354,253981
1586.46,0.202239,398475,250128
1590.49,0.200062,388982,245396
1593.51,0.198584,380708,240995
1596.53,0.197128,372727,236735
1599.54,0.195824,365060,232563
1602.55,0.192977,357543,229272
1605.55,0.190878,349495,225197
1608.55,0.188421,341154,221070
1612.54,0.186941,330877,215142
1615.53,0.185079,322904,210860
1618.51,0.184791,315116,205911
1621.49,0.182724,307217,201707
1624.47,0.182987,299481,196509
1627.44,0.181502,292112,192330
1630.41,0.180916,284245,187403
1634.36,0.179090,274079,181462
1637.32,0.178566,266916,176933
1640.27,0.177775,259612,172405
1643.22,0.176454,251804,167729
1646.16,0.177022,244348,162550
1649.1,0.175113,236703,158158
1652.04,0.174049,228171,152831
1655.95,0.170948,215408,145316
1658.88,0.167956,204937,139208
1661.8,0.161413,193395,133362
1664.72,0.153653,179728,126172
1667.63,0.141064,163642,118258
1670.54,0.125370,146312,109625
1673.44,0.109859,128451,99742
1677.31,0.088240,105080,85759
1680.21,0.077084,88906,74447
1683.1,0.068726,75033,64051
1685.99,0.069513,63520,54125
1688.87,0.068133,53714,45915
1691.75,0.076055,45653,38319
1694.62,0.075827,39137,32867
1697.49,0.085017,33776,27771
1701.31,0.080797,28175,23392