File: samples/wool/wool-000811/Column 1_050616_20150331_123114.csv
Method:,Column 1,,
Host Date-Time:,31/3/15 @ 12:31:14,,
Header Version:,1,,
System Temp (C):,34.12,,
Detector Temp (C):,34.95,,
Humidity (%):,1.66,,
Lamp PD:,3818,,
Shift Vector Coefficients:,-10.5391,0.0761263,-0.000134223,,
Pixel to Wavelength Coefficients:,1775.68,-0.916766,-0.000235065,,
Serial Number:,5510004,,
Scan Config Name:,Column 1,,
Scan Config Type:,Slew,,
Section 1,,
Start wavelength (nm):,900,,
End wavelength (nm):,1700,,
Pattern Pixel Width (nm):,   7.03,,,,
Exposure (ms):,  0.635,,,,
Digital Resolution:,228,,
Num Repeats:,6,,
PGA Gain:,64,,
Total Measurement Time in sec:,  2.680,,
Wavelength (nm),Absorbance (AU),Reference Signal (unitless),Sample Signal (unitless)
901.51,0.068656,108485,92622
905.376,0.074950,121306,102078
909.237,0.076107,131909,110705
913.095,0.077812,143299,119793
916.948,0.078516,156982,131019
922.079,0.079919,179937,149693
925.923,0.082214,200504,165924
929.762,0.081759,222660,184452
933.597,0.081705,244426,202508
937.427,0.080767,263972,219175
941.254,0.079903,281845,234481
945.076,0.079235,297271,247695
950.165,0.077764,315605,263864
953.978,0.077030,328029,274715
957.786,0.077737,340470,284670
961.59,0.077159,352317,294968
965.389,0.077540,363056,303692
969.185,0.077597,373162,312105
972.976,0.077827,382632,319856
976.763,0.078025,391202,326871
981.806,0.078596,400190,333941
985.583,0.079772,406088,337947
989.355,0.079758,410162,341348
993.124,0.080040,412868,343377
996.888,0.080585,414263,344105
1000.65,0.081420,415476,344450
1004.4,0.082159,415479,343867
1009.41,0.083573,414358,341824
1013.15,0.084298,412923,340072
1016.89,0.085278,411526,338158
1020.63,0.084027,409066,337106
1024.36,0.084258,406777,335041
1028.09,0.084178,404427,333167
1031.82,0.083718,401911,331445
1036.78,0.084451,398410,328004
1040.49,0.083572,396204,326849
1044.2,0.083568,394236,325228
1047.91,0.083372,392042,323564
1051.61,0.082642,389823,322274
1055.31,0.082494,388234,321070
1059,0.082170,387599,320784
1063.92,0.081262,386688,320700
1067.61,0.080751,386598,321003
1071.29,0.080571,387377,321783
1074.96,0.079613,388536,323458
1078.63,0.079227,389855,324845
1082.3,0.078030,391215,326878
1085.96,0.077472,393215,328971
1090.84,0.076679,396270,332133
1094.49,0.076314,398760,334501
1098.14,0.075212,400987,337224
1101.79,0.074640,403477,339765
1105.43,0.074996,406116,341707
1109.06,0.074114,407701,343738
1112.7,0.073920,409859,345712
1117.53,0.073311,412494,348423
1121.15,0.073467,414909,350337
1124.77,0.073583,416559,351636
1128.38,0.074406,418532,352633
1131.99,0.075494,419956,352947
1135.6,0.076769,421946,353580
1139.2,0.078156,423881,354069
1143.99,0.080503,426786,354574
1147.58,0.080594,428617,356021
1151.17,0.082564,431169,356520
1154.75,0.082791,433579,358325
1158.33,0.084261,436264,359326
1161.91,0.086232,439132,360050
1165.48,0.088592,442389,360755
1169.04,0.090576,446101,362124
1173.79,0.093567,451929,364337
1177.34,0.095760,456026,365788
1180.9,0.098206,461306,367945
1184.44,0.100358,467657,371167
1187.99,0.100706,473969,375875
1191.52,0.100942,479856,380337
1195.06,0.100750,487372,386465
1199.76,0.100085,497347,394979
1203.29,0.099046,504311,401469
1206.81,0.098734,511507,407491
1210.33,0.098342,519078,413895
1213.84,0.098283,527163,420399
1217.35,0.097131,534208,427149
1220.85,0.096730,540472,432557
1225.51,0.096191,549929,440672
1229.01,0.095326,556888,447138
1232.5,0.094581,562180,452162
1235.98,0.094317,567975,457101
1239.46,0.093292,574815,463699
1242.94,0.092430,582782,471060
1246.41,0.091440,591476,479178
1251.03,0.091411,604016,489370
1254.5,0.091157,612289,496363
1257.96,0.091930,619125,501012
1261.41,0.092402,624551,504854
1264.86,0.092738,629900,508784
1268.31,0.093344,634345,511660
1271.75,0.093882,638574,514433
1276.33,0.094653,642499,516677
1279.76,0.094225,645905,519929
1283.19,0.093967,648307,522172
1286.61,0.093281,650446,524723
1290.03,0.093105,652132,526296
1293.44,0.092873,653907,528011
1296.85,0.092283,655963,530391
1301.39,0.092064,657349,531780
1304.8,0.091834,657558,532231
1308.19,0.091885,658515,532943
1311.58,0.092547,658804,532365
1314.97,0.092346,659011,532779
1318.36,0.093028,658272,531346
1321.73,0.093041,658022,531128
1326.23,0.094193,657870,529599
1329.6,0.094974,656482,527532
1332.97,0.095704,654926,525398
1336.33,0.096578,653727,523381
1339.69,0.097933,652497,520770
1343.04,0.099129,649913,517281
1346.39,0.101281,647671,512948
1349.73,0.103030,645338,509046
1354.18,0.106012,641175,502302
1357.52,0.107675,638376,498197
1360.85,0.110250,635805,493258
1364.17,0.111998,633413,489428
1367.49,0.114413,631026,484880
1370.81,0.116443,628050,480343
1374.12,0.118493,625034,475785
1378.54,0.121338,620272,469077
1381.84,0.123938,616892,463736
1385.14,0.127099,613613,457926
1388.43,0.130907,611526,452385
1391.72,0.134494,610663,448031
1395.01,0.138648,610634,443745
1398.29,0.142861,611700,440228
1402.66,0.149093,614051,435624
1405.93,0.154014,616268,432271
1409.2,0.158337,617795,429049
1412.46,0.162780,618872,425423
1415.72,0.165971,619795,422938
1418.98,0.169869,620495,419633
1422.23,0.172857,621087,417153
1426.56,0.176732,621375,413639
1429.8,0.179263,621616,411395
1433.04,0.181621,622129,409505
1436.27,0.183638,621526,407213
1439.5,0.185927,621113,404803
1442.72,0.188340,620921,402436
1445.94,0.191123,620270,399446
1450.23,0.194381,618860,395559
1453.44,0.196971,617697,392468
1456.64,0.200121,616264,388728
1459.85,0.202879,614413,385107
1463.04,0.206262,612307,380809
1466.24,0.209080,610032,376940
1469.43,0.213640,607345,371360
1473.67,0.218853,603789,364781
1476.85,0.225515,601175,357673
1480.02,0.231251,597737,350961
1483.19,0.237730,594479,343880
1486.36,0.243847,591232,337218
1489.52,0.249009,587853,331329
1492.68,0.252435,583875,326501
1496.89,0.253740,578062,322281
1500.03,0.253989,574159,319921
1503.18,0.255216,570285,316866
1506.32,0.254369,565444,314790
1509.45,0.252559,560571,313380
1512.58,0.250647,555821,312096
1515.71,0.248472,550344,310572
1519.87,0.245916,543983,308794
1522.99,0.243133,538764,307798
1526.1,0.240736,533692,306588
1529.21,0.237936,527902,305223
1532.32,0.234939,521886,303834
1535.42,0.231790,515888,302528
1538.51,0.229124,509987,300909
1541.6,0.226825,503936,298917
1545.72,0.222151,494694,296610
1548.8,0.219120,488378,294874
1551.88,0.216722,481832,292532
1554.95,0.215098,474989,289458
1558.02,0.213136,467818,286379
1561.08,0.212476,460730,282469
1564.15,0.212036,454170,278729
1568.22,0.211025,444181,273234
1571.27,0.209999,436947,269420
1574.32,0.209127,429598,265421
1577.36,0.208817,422039,260937
1580.4,0.207222,414375,257141
1583.43,0.205364,406354,253245
1586.46,0.203818,398475,249220
1590.49,0.201827,388982,244401
1593.51,0.200169,380708,240117
1596.53,0.198363,372727,236063
1599.54,0.196715,365060,232086
1602.55,0.194395,357543,228525
1605.55,0.193280,349495,223955
1608.55,0.191540,341154,219488
1612.54,0.188476,330877,214383
1615.53,0.186966,322904,209946
1618.51,0.186498,315116,205103
1621.49,0.184855,307217,200720
1624.47,0.183356,299481,196342
1627.44,0.184216,292112,191132
1630.41,0.181327,284245,187226
1634.36,0.180363,274079,180931
1637.32,0.179842,266916,176414
1640.27,0.180674,259612,171258
1643.22,0.177754,251804,167228
1646.16,0.177912,244348,162217
1649.1,0.175910,236703,157868
1652.04,0.174828,228171,152557
1655.95,0.171837,215408,145019
1658.88,0.167532,204937,139344
1661.8,0.163486,193395,132727
1664.72,0.157529,179728,125051
1667.63,0.144223,163642,117401
1670.54,0.127965,146312,108972
1673.44,0.112090,128451,99231
1677.31,0.090612,105080,85292
1680.21,0.078474,88906,74209
1683.1,0.072615,75033,63480
1685.99,0.073600,63520,53618
1688.87,0.076306,53714,45059
1691.75,0.078100,45653,38139
1694.62,0.090584,39137,31769
1697.49,0.090224,33776,27440
1701.31,0.103218,28175,22215