File: samples/wool/wool-000811/Column 1_050561_20150331_120459.csv
Method:,Column 1,,
Host Date-Time:,31/3/15 @ 12:4:59,,
Header Version:,1,,
System Temp (C):,33.7,,
Detector Temp (C):,33.27,,
Humidity (%):,2.05,,
Lamp PD:,3819,,
Shift Vector Coefficients:,-10.5391,0.0761263,-0.000134223,,
Pixel to Wavelength Coefficients:,1775.68,-0.916766,-0.000235065,,
Serial Number:,5510004,,
Scan Config Name:,Column 1,,
Scan Config Type:,Slew,,
Section 1,,
Start wavelength (nm):,900,,
End wavelength (nm):,1700,,
Pattern Pixel Width (nm):,   7.03,,,,
Exposure (ms):,  0.635,,,,
Digital Resolution:,228,,
Num Repeats:,6,,
PGA Gain:,64,,
Total Measurement Time in sec:,  2.662,,
Wavelength (nm),Absorbance (AU),Reference Signal (unitless),Sample Signal (unitless)
901.51,0.033809,108485,100360
905.376,0.039386,121306,110789
909.237,0.042907,131909,119500
913.095,0.042196,143299,130031
916.948,0.042987,156982,142188
922.079,0.044588,179937,162380
925.923,0.046564,200504,180119
929.762,0.047262,222660,199701
933.597,0.047598,244426,219053
937.427,0.047180,263972,236798
941.254,0.046720,281845,253099
945.076,0.045994,297271,267398
950.165,0.046159,315605,283782
953.978,0.045427,328029,295451
957.786,0.045732,340470,306441
961.59,0.046865,352317,316278
965.389,0.046149,363056,326456
969.185,0.046648,373162,335158
972.976,0.047020,382632,343369
976.763,0.047419,391202,350737
981.806,0.048409,400190,357979
985.583,0.048611,406088,363086
989.355,0.049277,410162,366166
993.124,0.050242,412868,367764
996.888,0.050525,414263,368766
1000.65,0.051143,415476,369320
1004.4,0.052449,415479,368214
1009.41,0.053911,414358,365986
1013.15,0.054517,412923,364210
1016.89,0.054552,411526,362949
1020.63,0.054585,409066,360752
1024.36,0.054908,406777,358466
1028.09,0.054470,404427,356755
1031.82,0.054477,401911,354530
1036.78,0.054076,398410,351766
1040.49,0.053140,396204,350573
1044.2,0.053261,394236,348735
1047.91,0.052653,392042,347280
1051.61,0.052549,389823,345397
1055.31,0.051361,388234,344931
1059,0.050933,387599,344707
1063.92,0.049941,386688,344683
1067.61,0.049020,386598,345334
1071.29,0.049375,387377,345747
1074.96,0.048803,388536,347239
1078.63,0.048024,389855,349043
1082.3,0.047154,391215,350963
1085.96,0.046614,393215,353196
1090.84,0.045697,396270,356693
1094.49,0.045154,398760,359383
1098.14,0.045411,400987,361176
1101.79,0.045085,403477,363692
1105.43,0.044411,406116,366639
1109.06,0.044129,407701,368309
1112.7,0.044656,409859,369810
1117.53,0.044114,412494,372652
1121.15,0.045164,414909,373929
1124.77,0.045622,416559,375020
1128.38,0.047146,418532,375476
1131.99,0.048108,419956,375920
1135.6,0.050136,421946,375942
1139.2,0.051680,423881,376326
1143.99,0.053739,426786,377113
1147.58,0.055026,428617,377610
1151.17,0.056267,431169,378774
1154.75,0.058061,433579,379321
1158.33,0.059669,436264,380260
1161.91,0.062077,439132,380643
1165.48,0.064042,442389,381735
1169.04,0.066659,446101,382626
1173.79,0.070533,451929,384182
1177.34,0.072487,456026,385925
1180.9,0.074789,461306,388329
1184.44,0.076886,467657,391779
1187.99,0.077746,473969,396282
1191.52,0.077505,479856,401426
1195.06,0.077055,487372,408137
1199.76,0.075877,497347,417621
1203.29,0.075361,504311,423972
1206.81,0.074652,511507,430725
1210.33,0.073516,519078,438245
1213.84,0.072957,527163,445644
1217.35,0.072355,534208,452226
1220.85,0.071482,540472,458449
1225.51,0.070440,549929,467592
1229.01,0.070272,556888,473692
1232.5,0.069413,562180,479140
1235.98,0.068888,567975,484664
1239.46,0.067345,574815,492247
1242.94,0.066587,582782,499941
1246.41,0.066043,591476,508036
1251.03,0.065876,604016,519006
1254.5,0.066214,612289,525705
1257.96,0.066430,619125,531311
1261.41,0.066907,624551,535379
1264.86,0.067511,629900,539213
1268.31,0.068307,634345,542024
1271.75,0.068949,638574,544831
1276.33,0.069549,642499,547424
1279.76,0.069120,645905,550869
1283.19,0.069120,648307,552918
1286.61,0.068548,650446,555474
1290.03,0.068089,652132,557502
1293.44,0.067722,653907,559492
1296.85,0.067334,655963,561753
1301.39,0.067195,657349,563120
1304.8,0.066969,657558,563592
1308.19,0.067272,658515,564019
1311.58,0.067619,658804,563816
1314.97,0.068322,659011,563081
1318.36,0.068648,658272,562027
1321.73,0.068906,658022,561480
1326.23,0.069931,657870,560027
1329.6,0.070636,656482,557939
1332.97,0.071770,654926,555165
1336.33,0.073320,653727,552175
1339.69,0.074771,652497,549298
1343.04,0.076998,649913,544324
1346.39,0.079010,647671,539939
1349.73,0.081050,645338,535473
1354.18,0.084254,641175,528108
1357.52,0.086677,638376,522877
1360.85,0.088673,635805,518383
1364.17,0.090682,633413,514050
1367.49,0.093475,631026,508830
1370.81,0.095771,628050,503759
1374.12,0.098682,625034,497991
1378.54,0.102077,620272,490349
1381.84,0.105441,616892,483914
1385.14,0.109201,613613,477192
1388.43,0.113810,611526,470549
1391.72,0.118867,610663,464445
1395.01,0.123966,610634,459002
1398.29,0.129491,611700,453991
1402.66,0.137190,614051,447728
1405.93,0.142672,616268,443708
1409.2,0.148259,617795,439122
1412.46,0.153590,618872,434521
1415.72,0.158215,619795,430559
1418.98,0.162299,620495,427011
1422.23,0.166068,621087,423725
1426.56,0.170877,621375,419254
1429.8,0.173316,621616,417067
1433.04,0.176678,622129,414193
1436.27,0.178490,621526,412068
1439.5,0.180575,621113,409822
1442.72,0.183448,620921,406994
1445.94,0.185547,620270,404607
1450.23,0.189438,618860,400087
1453.44,0.192691,617697,396355
1456.64,0.195935,616264,392493
1459.85,0.198424,614413,389078
1463.04,0.201324,612307,385164
1466.24,0.204134,610032,381258
1469.43,0.207380,607345,376752
1473.67,0.214123,603789,368776
1476.85,0.219091,601175,363003
1480.02,0.225243,597737,355850
1483.19,0.231596,594479,348771
1486.36,0.237600,591232,342104
1489.52,0.242355,587853,336445
1492.68,0.246218,583875,331209
1496.89,0.248685,578062,326054
1500.03,0.249394,574159,323324
1503.18,0.248872,570285,321529
1506.32,0.248914,565444,318769
1509.45,0.247087,560571,317354
1512.58,0.245058,555821,316138
1515.71,0.242797,550344,314657
1519.87,0.240194,543983,312890
1522.99,0.237141,538764,312074
1526.1,0.234673,533692,310898
1529.21,0.231288,527902,309931
1532.32,0.228856,521886,308120
1535.42,0.225335,515888,307058
1538.51,0.222525,509987,305516
1541.6,0.219220,503936,304197
1545.72,0.214868,494694,301626
1548.8,0.212206,488378,299606
1551.88,0.209077,481832,297727
1554.95,0.206722,474989,295095
1558.02,0.205306,467818,291589
1561.08,0.203453,460730,288399
1564.15,0.202848,454170,284689
1568.22,0.201645,444181,279200
1571.27,0.201211,436947,274927
1574.32,0.200107,429598,270991
1577.36,0.198298,422039,267334
1580.4,0.196791,414375,263392
1583.43,0.195539,406354,259039
1586.46,0.193791,398475,255041
1590.49,0.191712,388982,250160
1593.51,0.189240,380708,246236
1596.53,0.185847,372727,242965
1599.54,0.185297,365060,238269
1602.55,0.183258,357543,234461
1605.55,0.180435,349495,230678
1608.55,0.177911,341154,226485
1612.54,0.175685,330877,220791
1615.53,0.174071,322904,216273
1618.51,0.173012,315116,211572
1621.49,0.170955,307217,207248
1624.47,0.170863,299481,202072
1627.44,0.169409,292112,197761
1630.41,0.167969,284245,193074
1634.36,0.166499,274079,186800
1637.32,0.165381,266916,182387
1640.27,0.165325,259612,177419
1643.22,0.164042,251804,172592
1646.16,0.162180,244348,168201
1649.1,0.162083,236703,162975
1652.04,0.159741,228171,157950
1655.95,0.158205,215408,149643
1658.88,0.154578,204937,143563
1661.8,0.152606,193395,136094
1664.72,0.144990,179728,128714
1667.63,0.135717,163642,119723
1670.54,0.125149,146312,109681
1673.44,0.112686,128451,99095
1677.31,0.100177,105080,83434
1680.21,0.092716,88906,71815
1683.1,0.088153,75033,61249
1685.99,0.095110,63520,51027
1688.87,0.101341,53714,42535
1691.75,0.100737,45653,36202
1694.62,0.116902,39137,29901
1697.49,0.117932,33776,25744
1701.31,0.116699,28175,21536