File: samples/wool/wool-000811/Column 1_050588_20150331_121742.csv
Method:,Column 1,,
Host Date-Time:,31/3/15 @ 12:17:42,,
Header Version:,1,,
System Temp (C):,33.84,,
Detector Temp (C):,34.61,,
Humidity (%):,1.86,,
Lamp PD:,3819,,
Shift Vector Coefficients:,-10.5391,0.0761263,-0.000134223,,
Pixel to Wavelength Coefficients:,1775.68,-0.916766,-0.000235065,,
Serial Number:,5510004,,
Scan Config Name:,Column 1,,
Scan Config Type:,Slew,,
Section 1,,
Start wavelength (nm):,900,,
End wavelength (nm):,1700,,
Pattern Pixel Width (nm):,   7.03,,,,
Exposure (ms):,  0.635,,,,
Digital Resolution:,228,,
Num Repeats:,6,,
PGA Gain:,64,,
Total Measurement Time in sec:,  2.721,,
Wavelength (nm),Absorbance (AU),Reference Signal (unitless),Sample Signal (unitless)
901.51,0.068909,108485,92568
905.376,0.075044,121306,102056
909.237,0.076782,131909,110533
913.095,0.078570,143299,119584
916.948,0.079887,156982,130606
922.079,0.080561,179937,149472
925.923,0.081455,200504,166214
929.762,0.082916,222660,183961
933.597,0.082553,244426,202113
937.427,0.081554,263972,218778
941.254,0.080980,281845,233900
945.076,0.080642,297271,246894
950.165,0.078879,315605,263187
953.978,0.078720,328029,273648
957.786,0.078351,340470,284268
961.59,0.078738,352317,293897
965.389,0.079000,363056,302673
969.185,0.079205,373162,310951
972.976,0.079115,382632,318909
976.763,0.079735,391202,325586
981.806,0.080652,400190,332364
985.583,0.081206,406088,336833
989.355,0.082002,410162,339589
993.124,0.082394,412868,341521
996.888,0.082340,414263,342717
1000.65,0.083556,415476,342760
1004.4,0.083916,415479,342478
1009.41,0.085662,414358,340184
1013.15,0.085748,412923,338939
1016.89,0.086418,411526,337271
1020.63,0.086440,409066,335238
1024.36,0.086446,406777,333358
1028.09,0.085325,404427,332288
1031.82,0.085837,401911,329832
1036.78,0.085713,398410,327052
1040.49,0.085428,396204,325455
1044.2,0.085761,394236,323590
1047.91,0.084847,392042,322467
1051.61,0.085076,389823,320473
1055.31,0.084451,388234,319626
1059,0.083848,387599,319547
1063.92,0.083759,386688,318861
1067.61,0.082616,386598,319627
1071.29,0.082643,387377,320251
1074.96,0.082133,388536,321587
1078.63,0.080911,389855,323588
1082.3,0.080448,391215,325063
1085.96,0.079196,393215,327668
1090.84,0.078613,396270,330657
1094.49,0.077627,398760,333491
1098.14,0.077386,400987,335540
1101.79,0.077247,403477,337732
1105.43,0.076932,406116,340187
1109.06,0.076157,407701,342125
1112.7,0.075468,409859,344482
1117.53,0.075919,412494,346337
1121.15,0.075745,414909,348504
1124.77,0.076207,416559,349518
1128.38,0.076911,418532,350605
1131.99,0.078164,419956,350784
1135.6,0.080170,421946,350822
1139.2,0.081131,423881,351652
1143.99,0.082900,426786,352623
1147.58,0.084451,428617,352873
1151.17,0.084360,431169,355048
1154.75,0.086321,433579,355424
1158.33,0.087581,436264,356589
1161.91,0.088428,439132,358234
1165.48,0.090939,442389,358811
1169.04,0.092979,446101,360126
1173.79,0.096795,451929,361639
1177.34,0.098703,456026,363318
1180.9,0.100792,461306,365761
1184.44,0.103107,467657,368825
1187.99,0.103443,473969,373514
1191.52,0.103393,479856,378197
1195.06,0.103609,487372,383930
1199.76,0.103073,497347,392271
1203.29,0.101943,504311,398800
1206.81,0.102223,511507,404230
1210.33,0.100485,519078,411858
1213.84,0.100060,527163,418683
1217.35,0.099826,534208,424507
1220.85,0.098938,540472,430363
1225.51,0.098670,549929,438164
1229.01,0.097330,556888,445080
1232.5,0.097345,562180,449294
1235.98,0.096812,567975,454483
1239.46,0.098095,574815,458599
1242.94,0.094858,582782,468434
1246.41,0.094140,591476,476209
1251.03,0.094328,604016,486094
1254.5,0.094350,612289,492727
1257.96,0.094604,619125,497937
1261.41,0.095254,624551,501550
1264.86,0.095673,629900,505357
1268.31,0.096301,634345,508188
1271.75,0.097042,638574,510704
1276.33,0.097487,642499,513317
1279.76,0.096948,645905,516679
1283.19,0.096474,648307,519166
1286.61,0.095838,650446,521643
1290.03,0.095640,652132,523233
1293.44,0.095111,653907,525297
1296.85,0.095383,655963,526619
1301.39,0.094941,657349,528269
1304.8,0.094864,657558,528530
1308.19,0.095214,658515,528873
1311.58,0.095015,658804,529348
1314.97,0.095879,659011,528462
1318.36,0.096200,658272,527479
1321.73,0.096615,658022,526775
1326.23,0.097586,657870,525478
1329.6,0.098835,656482,522863
1332.97,0.099617,654926,520685
1336.33,0.100845,653727,518265
1339.69,0.102151,652497,515736
1343.04,0.103794,649913,511754
1346.39,0.105736,647671,507713
1349.73,0.107708,645338,503592
1354.18,0.110758,641175,496842
1357.52,0.112408,638376,492798
1360.85,0.114646,635805,488290
1364.17,0.116688,633413,484171
1367.49,0.118425,631026,480421
1370.81,0.121171,628050,475142
1374.12,0.123838,625034,469965
1378.54,0.126133,620272,463927
1381.84,0.129538,616892,457795
1385.14,0.132725,613613,452032
1388.43,0.136643,611526,446449
1391.72,0.141397,610663,440966
1395.01,0.146042,610634,436254
1398.29,0.151221,611700,431835
1402.66,0.158046,614051,426735
1405.93,0.163357,616268,423070
1409.2,0.168143,617795,419470
1412.46,0.173833,618872,414732
1415.72,0.177715,619795,411655
1418.98,0.181542,620495,408504
1422.23,0.185097,621087,405560
1426.56,0.189642,621375,401524
1429.8,0.192161,621616,399357
1433.04,0.194866,622129,397205
1436.27,0.196855,621526,395007
1439.5,0.198735,621113,393039
1442.72,0.201488,620921,390435
1445.94,0.203921,620270,387846
1450.23,0.206862,618860,384353
1453.44,0.209552,617697,381262
1456.64,0.212304,616264,377975
1459.85,0.215085,614413,374434
1463.04,0.217472,612307,371105
1466.24,0.220978,610032,366754
1469.43,0.224473,607345,362212
1473.67,0.229006,603789,356352
1476.85,0.234751,601175,350147
1480.02,0.240069,597737,343907
1483.19,0.245995,594479,337397
1486.36,0.251012,591232,331700
1489.52,0.255041,587853,326759
1492.68,0.258587,583875,321909
1496.89,0.260573,578062,317250
1500.03,0.261090,574159,314733
1503.18,0.261100,570285,312602
1506.32,0.260808,565444,310157
1509.45,0.258015,560571,309468
1512.58,0.257471,555821,307230
1515.71,0.255760,550344,305404
1519.87,0.252078,543983,304444
1522.99,0.249950,538764,303004
1526.1,0.247084,533692,302139
1529.21,0.244460,527902,300672
1532.32,0.241108,521886,299549
1535.42,0.238622,515888,297806
1538.51,0.235592,509987,296461
1541.6,0.233042,503936,294668
1545.72,0.228496,494694,292308
1548.8,0.225860,488378,290333
1551.88,0.223354,481832,288099
1554.95,0.221959,474989,284921
1558.02,0.219886,467818,281962
1561.08,0.218910,460730,278315
1564.15,0.217818,454170,275043
1568.22,0.217359,444181,269278
1571.27,0.216616,436947,265346
1574.32,0.215322,429598,261662
1577.36,0.215078,422039,257202
1580.4,0.213279,414375,253580
1583.43,0.211597,406354,249636
1586.46,0.209671,398475,245884
1590.49,0.207478,388982,241241
1593.51,0.206146,380708,236835
1596.53,0.203824,372727,233113
1599.54,0.202330,365060,229105
1602.55,0.200041,357543,225573
1605.55,0.198473,349495,221293
1608.55,0.196393,341154,217049
1612.54,0.194243,330877,211555
1615.53,0.191468,322904,207781
1618.51,0.191589,315116,202713
1621.49,0.190059,307217,198329
1624.47,0.189101,299481,193762
1627.44,0.188789,292112,189130
1630.41,0.187068,284245,184767
1634.36,0.186644,274079,178333
1637.32,0.185718,266916,174043
1640.27,0.184433,259612,169782
1643.22,0.183426,251804,165058
1646.16,0.183154,244348,160271
1649.1,0.182110,236703,155630
1652.04,0.181547,228171,150215
1655.95,0.177307,215408,143204
1658.88,0.174745,204937,137049
1661.8,0.168621,193395,131167
1664.72,0.161611,179728,123881
1667.63,0.148606,163642,116222
1670.54,0.134510,146312,107342
1673.44,0.117782,128451,97939
1677.31,0.099896,105080,83488
1680.21,0.088617,88906,72496
1683.1,0.084559,75033,61758
1685.99,0.086164,63520,52089
1688.87,0.086862,53714,43977
1691.75,0.091961,45653,36941
1694.62,0.094180,39137,31507
1697.49,0.092016,33776,27327
1701.31,0.103374,28175,22207