File: samples/wool/wool-000811/Column 1_050535_20150331_115255.csv
Method:,Column 1,,
Host Date-Time:,31/3/15 @ 11:52:55,,
Header Version:,1,,
System Temp (C):,31.36,,
Detector Temp (C):,30.14,,
Humidity (%):,3.8,,
Lamp PD:,3827,,
Shift Vector Coefficients:,-10.5391,0.0761263,-0.000134223,,
Pixel to Wavelength Coefficients:,1775.68,-0.916766,-0.000235065,,
Serial Number:,5510004,,
Scan Config Name:,Column 1,,
Scan Config Type:,Slew,,
Section 1,,
Start wavelength (nm):,900,,
End wavelength (nm):,1700,,
Pattern Pixel Width (nm):,   7.03,,,,
Exposure (ms):,  0.635,,,,
Digital Resolution:,228,,
Num Repeats:,6,,
PGA Gain:,64,,
Total Measurement Time in sec:,  2.686,,
Wavelength (nm),Absorbance (AU),Reference Signal (unitless),Sample Signal (unitless)
901.51,0.042330,108485,98410
905.376,0.048937,121306,108379
909.237,0.047238,131909,118314
913.095,0.049359,143299,127904
916.948,0.048687,156982,140334
922.079,0.048419,179937,160954
925.923,0.048722,200504,179226
929.762,0.050006,222660,198443
933.597,0.050664,244426,217512
937.427,0.050536,263972,234975
941.254,0.051360,281845,250409
945.076,0.051397,297271,264092
950.165,0.052053,315605,279957
953.978,0.051625,328029,291264
957.786,0.052083,340470,301992
961.59,0.052641,352317,312099
965.389,0.053062,363056,321301
969.185,0.053095,373162,330219
972.976,0.053913,382632,337962
976.763,0.055269,391202,344455
981.806,0.055389,400190,352271
985.583,0.056175,406088,356817
989.355,0.056573,410162,360066
993.124,0.057350,412868,361794
996.888,0.057962,414263,362505
1000.65,0.059013,415476,362688
1004.4,0.060210,415479,361692
1009.41,0.061141,414358,359944
1013.15,0.062286,412923,357753
1016.89,0.062054,411526,356733
1020.63,0.062308,409066,354393
1024.36,0.062357,406777,352370
1028.09,0.061984,404427,350636
1031.82,0.061461,401911,348874
1036.78,0.060485,398410,346613
1040.49,0.060131,396204,344975
1044.2,0.059755,394236,343559
1047.91,0.059220,392042,342068
1051.61,0.058523,389823,340678
1055.31,0.057731,388234,339909
1059,0.057253,387599,339727
1063.92,0.056209,386688,339744
1067.61,0.054608,386598,340919
1071.29,0.054964,387377,341326
1074.96,0.054088,388536,343039
1078.63,0.053304,389855,344825
1082.3,0.052201,391215,346908
1085.96,0.051450,393215,349285
1090.84,0.050932,396270,352419
1094.49,0.050525,398760,354966
1098.14,0.050136,400987,357268
1101.79,0.049901,403477,359681
1105.43,0.049587,406116,362296
1109.06,0.048988,407701,364212
1112.7,0.049232,409859,365934
1117.53,0.049240,412494,368280
1121.15,0.050541,414909,369328
1124.77,0.050258,416559,371038
1128.38,0.052007,418532,371297
1131.99,0.053388,419956,371378
1135.6,0.055963,421946,370932
1139.2,0.058105,423881,370799
1143.99,0.060513,426786,371276
1147.58,0.061554,428617,371976
1151.17,0.063540,431169,372484
1154.75,0.064609,433579,373645
1158.33,0.067338,436264,373604
1161.91,0.069590,439132,374115
1165.48,0.072540,442389,374338
1169.04,0.075086,446101,375273
1173.79,0.079090,451929,376687
1177.34,0.082265,456026,377333
1180.9,0.084583,461306,379670
1184.44,0.086552,467657,383156
1187.99,0.087637,473969,387358
1191.52,0.087069,479856,392683
1195.06,0.086192,487372,399640
1199.76,0.084539,497347,409374
1203.29,0.083423,504311,416174
1206.81,0.082782,511507,422736
1210.33,0.080839,519078,430917
1213.84,0.079991,527163,438484
1217.35,0.079489,534208,444858
1220.85,0.077721,540472,451910
1225.51,0.076967,549929,460617
1229.01,0.075904,556888,467589
1232.5,0.074957,562180,473062
1235.98,0.073905,567975,479098
1239.46,0.073046,574815,485828
1242.94,0.071850,582782,493920
1246.41,0.071537,591476,501649
1251.03,0.070600,604016,513391
1254.5,0.071106,612289,519817
1257.96,0.071241,619125,525457
1261.41,0.072272,624551,528805
1264.86,0.072658,629900,532860
1268.31,0.073022,634345,536171
1271.75,0.073922,638574,538628
1276.33,0.074325,642499,541437
1279.76,0.074132,645905,544549
1283.19,0.073643,648307,547189
1286.61,0.073176,650446,549585
1290.03,0.072686,652132,551632
1293.44,0.072271,653907,553662
1296.85,0.072295,655963,555373
1301.39,0.071981,657349,556948
1304.8,0.072048,657558,557040
1308.19,0.072469,658515,557310
1311.58,0.072492,658804,557525
1314.97,0.073377,659011,556565
1318.36,0.074045,658272,555086
1321.73,0.074080,658022,554830
1326.23,0.075614,657870,552746
1329.6,0.076208,656482,550827
1332.97,0.077584,654926,547782
1336.33,0.079218,653727,544726
1339.69,0.081195,652497,541232
1343.04,0.082747,649913,537166
1346.39,0.085647,647671,531750
1349.73,0.088126,645338,526819
1354.18,0.091317,641175,519588
1357.52,0.093645,638376,514555
1360.85,0.096416,635805,509223
1364.17,0.098924,633413,504386
1367.49,0.101652,631026,499339
1370.81,0.104125,628050,494162
1374.12,0.106920,625034,488634
1378.54,0.110865,620272,480526
1381.84,0.115567,616892,472762
1385.14,0.119962,613613,465514
1388.43,0.125126,611526,458447
1391.72,0.131488,610663,451142
1395.01,0.137332,610634,445091
1398.29,0.143395,611700,439687
1402.66,0.152638,614051,432082
1405.93,0.159260,616268,427080
1409.2,0.166003,617795,421543
1412.46,0.172580,618872,415931
1415.72,0.178279,619795,411120
1418.98,0.182948,620495,407184
1422.23,0.187497,621087,403325
1426.56,0.192578,621375,398819
1429.8,0.195330,621616,396453
1433.04,0.198765,622129,393655
1436.27,0.201228,621526,391049
1439.5,0.203473,621113,388774
1442.72,0.206109,620921,386302
1445.94,0.208587,620270,383702
1450.23,0.212200,618860,379658
1453.44,0.215117,617697,376408
1456.64,0.218498,616264,372622
1459.85,0.220849,614413,369497
1463.04,0.223152,612307,366283
1466.24,0.226591,610032,362044
1469.43,0.229499,607345,358044
1473.67,0.234475,603789,351893
1476.85,0.239075,601175,346678
1480.02,0.244074,597737,340750
1483.19,0.249766,594479,334480
1486.36,0.255416,591232,328354
1489.52,0.260812,587853,322446
1492.68,0.263864,583875,318021
1496.89,0.267377,578062,312318
1500.03,0.267962,574159,309792
1503.18,0.267977,570285,307691
1506.32,0.267256,565444,305586
1509.45,0.266503,560571,303478
1512.58,0.265646,555821,301501
1515.71,0.262339,550344,300812
1519.87,0.260180,543983,298817
1522.99,0.257575,538764,297731
1526.1,0.254515,533692,297013
1529.21,0.251232,527902,296020
1532.32,0.248588,521886,294434
1535.42,0.244958,515888,293493
1538.51,0.241714,509987,292311
1541.6,0.238372,503936,291074
1545.72,0.234027,494694,288609
1548.8,0.230442,488378,287286
1551.88,0.227560,481832,285322
1554.95,0.225594,474989,282546
1558.02,0.222858,467818,280039
1561.08,0.221306,460730,276784
1564.15,0.220859,454170,273124
1568.22,0.219783,444181,267779
1571.27,0.218121,436947,264428
1574.32,0.217476,429598,260367
1577.36,0.215411,422039,257005
1580.4,0.213107,414375,253680
1583.43,0.212588,406354,249067
1586.46,0.210495,398475,245418
1590.49,0.207579,388982,241185
1593.51,0.205591,380708,237138
1596.53,0.203741,372727,233158
1599.54,0.200512,365060,230066
1602.55,0.198337,357543,226460
1605.55,0.196248,349495,222430
1608.55,0.193897,341154,218300
1612.54,0.191195,330877,213045
1615.53,0.189066,322904,208933
1618.51,0.187522,315116,204620
1621.49,0.185697,307217,200331
1624.47,0.184597,299481,195782
1627.44,0.182794,292112,191759
1630.41,0.181535,284245,187136
1634.36,0.179267,274079,181388
1637.32,0.178836,266916,176823
1640.27,0.178486,259612,172123
1643.22,0.175808,251804,167979
1646.16,0.175526,244348,163111
1649.1,0.175396,236703,158055
1652.04,0.172888,228171,153240
1655.95,0.173752,215408,144381
1658.88,0.171899,204937,137950
1661.8,0.171734,193395,130230
1664.72,0.169279,179728,121713
1667.63,0.166040,163642,111649
1670.54,0.162565,146312,100627
1673.44,0.158076,128451,89261
1677.31,0.156173,105080,73341
1680.21,0.156119,88906,62060
1683.1,0.160085,75033,51900
1685.99,0.168524,63520,43091
1688.87,0.170672,53714,36259
1691.75,0.172105,45653,30716
1694.62,0.178902,39137,25923
1697.49,0.175327,33776,22557
1701.31,0.181731,28175,18541