File: samples/wool/wool-000811/Column 1_050593_20150331_122010.csv
Method:,Column 1,,
Host Date-Time:,31/3/15 @ 12:20:10,,
Header Version:,1,,
System Temp (C):,33.91,,
Detector Temp (C):,34.61,,
Humidity (%):,1.76,,
Lamp PD:,3819,,
Shift Vector Coefficients:,-10.5391,0.0761263,-0.000134223,,
Pixel to Wavelength Coefficients:,1775.68,-0.916766,-0.000235065,,
Serial Number:,5510004,,
Scan Config Name:,Column 1,,
Scan Config Type:,Slew,,
Section 1,,
Start wavelength (nm):,900,,
End wavelength (nm):,1700,,
Pattern Pixel Width (nm):,   7.03,,,,
Exposure (ms):,  0.635,,,,
Digital Resolution:,228,,
Num Repeats:,6,,
PGA Gain:,64,,
Total Measurement Time in sec:,  2.731,,
Wavelength (nm),Absorbance (AU),Reference Signal (unitless),Sample Signal (unitless)
901.51,0.069970,108485,92342
905.376,0.076019,121306,101827
909.237,0.077179,131909,110432
913.095,0.079384,143299,119360
916.948,0.078423,156982,131047
922.079,0.082092,179937,148946
925.923,0.081840,200504,166067
929.762,0.082369,222660,184193
933.597,0.083185,244426,201819
937.427,0.082021,263972,218543
941.254,0.081110,281845,233830
945.076,0.079614,297271,247479
950.165,0.078959,315605,263139
953.978,0.078618,328029,273712
957.786,0.078589,340470,284112
961.59,0.078703,352317,293921
965.389,0.079149,363056,302569
969.185,0.079090,373162,311034
972.976,0.079301,382632,318772
976.763,0.079783,391202,325550
981.806,0.079740,400190,333063
985.583,0.080506,406088,337376
989.355,0.081381,410162,340075
993.124,0.081634,412868,342119
996.888,0.082280,414263,342765
1000.65,0.082875,415476,343298
1004.4,0.083996,415479,342415
1009.41,0.085200,414358,340546
1013.15,0.085601,412923,339053
1016.89,0.086148,411526,337481
1020.63,0.086068,409066,335525
1024.36,0.086098,406777,333625
1028.09,0.086195,404427,331623
1031.82,0.085784,401911,329872
1036.78,0.085571,398410,327159
1040.49,0.085399,396204,325477
1044.2,0.084903,394236,324230
1047.91,0.084657,392042,322608
1051.61,0.084350,389823,321009
1055.31,0.084411,388234,319656
1059,0.083977,387599,319452
1063.92,0.083241,386688,319242
1067.61,0.081696,386598,320305
1071.29,0.082001,387377,320725
1074.96,0.081449,388536,322094
1078.63,0.081005,389855,323518
1082.3,0.079998,391215,325400
1085.96,0.079155,393215,327699
1090.84,0.078649,396270,330630
1094.49,0.078121,398760,333112
1098.14,0.077189,400987,335692
1101.79,0.076423,403477,338373
1105.43,0.076421,406116,340588
1109.06,0.075585,407701,342576
1112.7,0.075497,409859,344459
1117.53,0.074772,412494,347253
1121.15,0.075890,414909,348388
1124.77,0.075941,416559,349732
1128.38,0.076605,418532,350852
1131.99,0.077581,419956,351255
1135.6,0.079425,421946,351424
1139.2,0.080356,423881,352280
1143.99,0.082151,426786,353231
1147.58,0.083614,428617,353554
1151.17,0.084453,431169,354972
1154.75,0.085307,433579,356255
1158.33,0.086958,436264,357101
1161.91,0.088534,439132,358147
1165.48,0.090899,442389,358844
1169.04,0.092415,446101,360594
1173.79,0.096581,451929,361817
1177.34,0.097947,456026,363951
1180.9,0.100557,461306,365959
1184.44,0.102087,467657,369692
1187.99,0.103001,473969,373894
1191.52,0.102537,479856,378943
1195.06,0.103079,487372,384398
1199.76,0.102205,497347,393056
1203.29,0.101683,504311,399039
1206.81,0.101393,511507,405003
1210.33,0.100452,519078,411889
1213.84,0.099955,527163,418784
1217.35,0.099727,534208,424603
1220.85,0.098761,540472,430539
1225.51,0.098003,549929,438837
1229.01,0.097441,556888,444966
1232.5,0.096437,562180,450234
1235.98,0.096588,567975,454717
1239.46,0.095558,574815,461286
1242.94,0.094195,582782,469149
1246.41,0.093656,591476,476740
1251.03,0.093746,604016,486746
1254.5,0.093895,612289,493244
1257.96,0.094033,619125,498592
1261.41,0.094997,624551,501847
1264.86,0.095024,629900,506113
1268.31,0.095629,634345,508975
1271.75,0.096386,638574,511476
1276.33,0.096671,642499,514282
1279.76,0.096653,645905,517030
1283.19,0.095684,648307,520112
1286.61,0.095723,650446,521781
1290.03,0.095134,652132,523843
1293.44,0.095023,653907,525404
1296.85,0.094468,655963,527729
1301.39,0.093656,657349,529834
1304.8,0.094218,657558,529317
1308.19,0.094954,658515,529190
1311.58,0.094825,658804,529580
1314.97,0.095189,659011,529302
1318.36,0.095829,658272,527930
1321.73,0.096173,658022,527312
1326.23,0.096538,657870,526747
1329.6,0.097655,656482,524285
1332.97,0.098587,654926,521921
1336.33,0.099538,653727,519827
1339.69,0.101214,652497,516850
1343.04,0.102994,649913,512698
1346.39,0.104442,647671,509228
1349.73,0.106756,645338,504698
1354.18,0.109419,641175,498376
1357.52,0.110986,638376,494414
1360.85,0.113457,635805,489629
1364.17,0.115426,633413,485580
1367.49,0.117636,631026,481295
1370.81,0.119838,628050,476602
1374.12,0.122041,625034,471914
1378.54,0.125669,620272,464422
1381.84,0.127778,616892,459654
1385.14,0.131681,613613,453120
1388.43,0.135412,611526,447716
1391.72,0.139771,610663,442620
1395.01,0.143845,610634,438466
1398.29,0.149006,611700,434043
1402.66,0.156082,614051,428669
1405.93,0.161292,616268,425087
1409.2,0.165468,617795,422062
1412.46,0.170573,618872,417857
1415.72,0.174351,619795,414856
1418.98,0.178732,620495,411156
1422.23,0.182388,621087,408098
1426.56,0.186022,621375,404885
1429.8,0.188598,621616,402647
1433.04,0.191287,622129,400492
1436.27,0.193539,621526,398034
1439.5,0.195633,621113,395856
1442.72,0.197849,620921,393720
1445.94,0.200417,620270,390988
1450.23,0.203061,618860,387732
1453.44,0.205973,617697,384417
1456.64,0.208732,616264,381096
1459.85,0.212271,614413,376868
1463.04,0.214481,612307,373670
1466.24,0.217636,610032,369587
1469.43,0.221435,607345,364754
1473.67,0.226649,603789,358291
1476.85,0.231752,601175,352573
1480.02,0.237665,597737,345816
1483.19,0.243283,594479,339511
1486.36,0.249956,591232,332508
1489.52,0.253755,587853,327728
1492.68,0.256804,583875,323233
1496.89,0.258684,578062,318633
1500.03,0.259925,574159,315578
1503.18,0.259045,570285,314085
1506.32,0.258598,565444,311739
1509.45,0.257457,560571,309866
1512.58,0.255605,555821,308553
1515.71,0.253544,550344,306966
1519.87,0.250813,543983,305332
1522.99,0.248000,538764,304368
1526.1,0.245854,533692,302996
1529.21,0.241885,527902,302460
1532.32,0.239579,521886,300605
1535.42,0.237147,515888,298819
1538.51,0.234272,509987,297363
1541.6,0.231371,503936,295804
1545.72,0.227085,494694,293259
1548.8,0.224378,488378,291325
1551.88,0.222267,481832,288821
1554.95,0.220383,474989,285957
1558.02,0.218995,467818,282541
1561.08,0.216976,460730,279557
1564.15,0.216788,454170,275696
1568.22,0.215725,444181,270293
1571.27,0.215046,436947,266307
1574.32,0.214199,429598,262339
1577.36,0.212098,422039,258973
1580.4,0.212117,414375,254259
1583.43,0.210553,406354,250237
1586.46,0.208967,398475,246283
1590.49,0.207140,388982,241429
1593.51,0.204797,380708,237572
1596.53,0.202675,372727,233731
1599.54,0.200839,365060,229893
1602.55,0.199956,357543,225617
1605.55,0.197074,349495,222007
1608.55,0.194917,341154,217788
1612.54,0.193386,330877,211973
1615.53,0.191430,322904,207799
1618.51,0.190164,315116,203379
1621.49,0.189009,307217,198809
1624.47,0.188444,299481,194055
1627.44,0.187070,292112,189880
1630.41,0.186012,284245,185217
1634.36,0.184019,274079,179414
1637.32,0.183682,266916,174861
1640.27,0.184269,259612,169846
1643.22,0.183050,251804,165201
1646.16,0.182104,244348,160659
1649.1,0.181232,236703,155945
1652.04,0.179565,228171,150902
1655.95,0.175430,215408,143824
1658.88,0.171650,204937,138029
1661.8,0.166734,193395,131738
1664.72,0.160914,179728,124080
1667.63,0.147789,163642,116441
1670.54,0.133968,146312,107476
1673.44,0.118141,128451,97858
1677.31,0.098629,105080,83732
1680.21,0.087719,88906,72646
1683.1,0.083057,75033,61972
1685.99,0.081059,63520,52705
1688.87,0.083870,53714,44281
1691.75,0.091761,45653,36958
1694.62,0.093932,39137,31525
1697.49,0.092971,33776,27267
1701.31,0.106869,28175,22029