File: samples/wool/wool-000811/Column 1_050613_20150331_122943.csv
Method:,Column 1,,
Host Date-Time:,31/3/15 @ 12:29:43,,
Header Version:,1,,
System Temp (C):,34.08,,
Detector Temp (C):,34.92,,
Humidity (%):,1.66,,
Lamp PD:,3818,,
Shift Vector Coefficients:,-10.5391,0.0761263,-0.000134223,,
Pixel to Wavelength Coefficients:,1775.68,-0.916766,-0.000235065,,
Serial Number:,5510004,,
Scan Config Name:,Column 1,,
Scan Config Type:,Slew,,
Section 1,,
Start wavelength (nm):,900,,
End wavelength (nm):,1700,,
Pattern Pixel Width (nm):,   7.03,,,,
Exposure (ms):,  0.635,,,,
Digital Resolution:,228,,
Num Repeats:,6,,
PGA Gain:,64,,
Total Measurement Time in sec:,  2.668,,
Wavelength (nm),Absorbance (AU),Reference Signal (unitless),Sample Signal (unitless)
901.51,0.068693,108485,92614
905.376,0.075099,121306,102043
909.237,0.076307,131909,110654
913.095,0.077232,143299,119953
916.948,0.078363,156982,131065
922.079,0.080552,179937,149475
925.923,0.081858,200504,166060
929.762,0.082527,222660,184126
933.597,0.082828,244426,201985
937.427,0.080547,263972,219286
941.254,0.080646,281845,234080
945.076,0.078465,297271,248135
950.165,0.077900,315605,263781
953.978,0.077856,328029,274193
957.786,0.077603,340470,284758
961.59,0.077865,352317,294489
965.389,0.077738,363056,303554
969.185,0.077879,373162,311902
972.976,0.078086,382632,319665
976.763,0.078701,391202,326362
981.806,0.079190,400190,333485
985.583,0.079655,406088,338038
989.355,0.079817,410162,341302
993.124,0.079969,412868,343433
996.888,0.080560,414263,344125
1000.65,0.081628,415476,344285
1004.4,0.082855,415479,343316
1009.41,0.084013,414358,341478
1013.15,0.083585,412923,340631
1016.89,0.084600,411526,338686
1020.63,0.084695,409066,336588
1024.36,0.084570,406777,334801
1028.09,0.084402,404427,332995
1031.82,0.084809,401911,330614
1036.78,0.083957,398410,328377
1040.49,0.083677,396204,326770
1044.2,0.084365,394236,324632
1047.91,0.083920,392042,323156
1051.61,0.083210,389823,321853
1055.31,0.083114,388234,320612
1059,0.082713,387599,320383
1063.92,0.081556,386688,320483
1067.61,0.080880,386598,320907
1071.29,0.079818,387377,322341
1074.96,0.079856,388536,323277
1078.63,0.079514,389855,324630
1082.3,0.077904,391215,326973
1085.96,0.077281,393215,329116
1090.84,0.076871,396270,331986
1094.49,0.076588,398760,334290
1098.14,0.075597,400987,336925
1101.79,0.075035,403477,339456
1105.43,0.074390,406116,342184
1109.06,0.074394,407701,343517
1112.7,0.073410,409859,346118
1117.53,0.073497,412494,348274
1121.15,0.073777,414909,350087
1124.77,0.073922,416559,351362
1128.38,0.075283,418532,351921
1131.99,0.075626,419956,352840
1135.6,0.077636,421946,352875
1139.2,0.078279,423881,353969
1143.99,0.081051,426786,354127
1147.58,0.081442,428617,355326
1151.17,0.082184,431169,356832
1154.75,0.083319,433579,357890
1158.33,0.084493,436264,359134
1161.91,0.086864,439132,359527
1165.48,0.088942,442389,360464
1169.04,0.090612,446101,362094
1173.79,0.094271,451929,363747
1177.34,0.096252,456026,365374
1180.9,0.098370,461306,367806
1184.44,0.100689,467657,370884
1187.99,0.101417,473969,375261
1191.52,0.100914,479856,380362
1195.06,0.101217,487372,386050
1199.76,0.100103,497347,394963
1203.29,0.099528,504311,401024
1206.81,0.099113,511507,407135
1210.33,0.098514,519078,413732
1213.84,0.098135,527163,420543
1217.35,0.097294,534208,426989
1220.85,0.096689,540472,432598
1225.51,0.096069,549929,440796
1229.01,0.096012,556888,446433
1232.5,0.094547,562180,452198
1235.98,0.094033,567975,457400
1239.46,0.093214,574815,463782
1242.94,0.091790,582782,471755
1246.41,0.091891,591476,478681
1251.03,0.091728,604016,489013
1254.5,0.091797,612289,495632
1257.96,0.092338,619125,500542
1261.41,0.092428,624551,504824
1264.86,0.093138,629900,508316
1268.31,0.093499,634345,511477
1271.75,0.094771,638574,513382
1276.33,0.094880,642499,516407
1279.76,0.094166,645905,519999
1283.19,0.093727,648307,522461
1286.61,0.093445,650446,524525
1290.03,0.092756,652132,526720
1293.44,0.092947,653907,527921
1296.85,0.092554,655963,530060
1301.39,0.092190,657349,531626
1304.8,0.092218,657558,531761
1308.19,0.092218,658515,532534
1311.58,0.092248,658804,532731
1314.97,0.092741,659011,532294
1318.36,0.093293,658272,531022
1321.73,0.093550,658022,530506
1326.23,0.094566,657870,529144
1329.6,0.095198,656482,527260
1332.97,0.095596,654926,525529
1336.33,0.096725,653727,523205
1339.69,0.097848,652497,520872
1343.04,0.099777,649913,516509
1346.39,0.101731,647671,512417
1349.73,0.103998,645338,507913
1354.18,0.106719,641175,501484
1357.52,0.108540,638376,497206
1360.85,0.110192,635805,493324
1364.17,0.112513,633413,488848
1367.49,0.114800,631026,484448
1370.81,0.116793,628050,479956
1374.12,0.119051,625034,475174
1378.54,0.121599,620272,468795
1381.84,0.124762,616892,462857
1385.14,0.127299,613613,457715
1388.43,0.131189,611526,452091
1391.72,0.135519,610663,446974
1395.01,0.138770,610634,443620
1398.29,0.143399,611700,439683
1402.66,0.149443,614051,435273
1405.93,0.154589,616268,431699
1409.2,0.158920,617795,428474
1412.46,0.163694,618872,424528
1415.72,0.167000,619795,421937
1418.98,0.170490,620495,419033
1422.23,0.174032,621087,416026
1426.56,0.177327,621375,413073
1429.8,0.180097,621616,410606
1433.04,0.182524,622129,408655
1436.27,0.184830,621526,406097
1439.5,0.186942,621113,403858
1442.72,0.189539,620921,401326
1445.94,0.191786,620270,398836
1450.23,0.195499,618860,394542
1453.44,0.198087,617697,391461
1456.64,0.201039,616264,387907
1459.85,0.203749,614413,384336
1463.04,0.206179,612307,380882
1466.24,0.209854,610032,376269
1469.43,0.214124,607345,370947
1473.67,0.219895,603789,363907
1476.85,0.226686,601175,356710
1480.02,0.232561,597737,349904
1483.19,0.238804,594479,343030
1486.36,0.244426,591232,336769
1489.52,0.249409,587853,331024
1492.68,0.252249,583875,326641
1496.89,0.254980,578062,321362
1500.03,0.255277,574159,318974
1503.18,0.255257,570285,316836
1506.32,0.254151,565444,314948
1509.45,0.252925,560571,313116
1512.58,0.251848,555821,311234
1515.71,0.248963,550344,310221
1519.87,0.245973,543983,308754
1522.99,0.243736,538764,307371
1526.1,0.240578,533692,306699
1529.21,0.238043,527902,305148
1532.32,0.235029,521886,303771
1535.42,0.232474,515888,302052
1538.51,0.229673,509987,300529
1541.6,0.227316,503936,298579
1545.72,0.221994,494694,296717
1548.8,0.219898,488378,294346
1551.88,0.216823,481832,292464
1554.95,0.215439,474989,289231
1558.02,0.214611,467818,285408
1561.08,0.213308,460730,281928
1564.15,0.212616,454170,278357
1568.22,0.211054,444181,273216
1571.27,0.211100,436947,268738
1574.32,0.210061,429598,264851
1577.36,0.208326,422039,261232
1580.4,0.207662,414375,256881
1583.43,0.205908,406354,252928
1586.46,0.204886,398475,248608
1590.49,0.202442,388982,244055
1593.51,0.201083,380708,239612
1596.53,0.198860,372727,235793
1599.54,0.197067,365060,231898
1602.55,0.194742,357543,228342
1605.55,0.193950,349495,223610
1608.55,0.190988,341154,219767
1612.54,0.189401,330877,213927
1615.53,0.187719,322904,209582
1618.51,0.187329,315116,204711
1621.49,0.185054,307217,200628
1624.47,0.185287,299481,195471
1627.44,0.183846,292112,191295
1630.41,0.182653,284245,186655
1634.36,0.181326,274079,180530
1637.32,0.180763,266916,176040
1640.27,0.179916,259612,171557
1643.22,0.179781,251804,166449
1646.16,0.178156,244348,162126
1649.1,0.177790,236703,157186
1652.04,0.175446,228171,152340
1655.95,0.172571,215408,144774
1658.88,0.169143,204937,138828
1661.8,0.164164,193395,132520
1664.72,0.156159,179728,125446
1667.63,0.143277,163642,117657
1670.54,0.129386,146312,108616
1673.44,0.113230,128451,98971
1677.31,0.091147,105080,85187
1680.21,0.080539,88906,73857
1683.1,0.075175,75033,63107
1685.99,0.074540,63520,53502
1688.87,0.083145,53714,44355
1691.75,0.084235,45653,37604
1694.62,0.093960,39137,31523
1697.49,0.088329,33776,27560
1701.31,0.104137,28175,22168