File: samples/wool/wool-000811/Column 1_050613_20150331_122946.csv
Method:,Column 1,,
Host Date-Time:,31/3/15 @ 12:29:46,,
Header Version:,1,,
System Temp (C):,34.07,,
Detector Temp (C):,34.95,,
Humidity (%):,1.66,,
Lamp PD:,3818,,
Shift Vector Coefficients:,-10.5391,0.0761263,-0.000134223,,
Pixel to Wavelength Coefficients:,1775.68,-0.916766,-0.000235065,,
Serial Number:,5510004,,
Scan Config Name:,Column 1,,
Scan Config Type:,Slew,,
Section 1,,
Start wavelength (nm):,900,,
End wavelength (nm):,1700,,
Pattern Pixel Width (nm):,   7.03,,,,
Exposure (ms):,  0.635,,,,
Digital Resolution:,228,,
Num Repeats:,6,,
PGA Gain:,64,,
Total Measurement Time in sec:,  2.675,,
Wavelength (nm),Absorbance (AU),Reference Signal (unitless),Sample Signal (unitless)
901.51,0.069007,108485,92547
905.376,0.075414,121306,101969
909.237,0.077290,131909,110404
913.095,0.078283,143299,119663
916.948,0.079275,156982,130790
922.079,0.080991,179937,149324
925.923,0.081790,200504,166086
929.762,0.082815,222660,184004
933.597,0.081851,244426,202440
937.427,0.080594,263972,219262
941.254,0.079847,281845,234511
945.076,0.078636,297271,248037
950.165,0.078437,315605,263455
953.978,0.077447,328029,274451
957.786,0.077217,340470,285011
961.59,0.077416,352317,294793
965.389,0.077477,363056,303736
969.185,0.077409,373162,312240
972.976,0.077558,382632,320054
976.763,0.078333,391202,326639
981.806,0.078404,400190,334089
985.583,0.079761,406088,337955
989.355,0.079782,410162,341329
993.124,0.080196,412868,343254
996.888,0.080383,414263,344265
1000.65,0.080878,415476,344880
1004.4,0.082093,415479,343919
1009.41,0.083807,414358,341640
1013.15,0.084454,412923,339950
1016.89,0.084486,411526,338775
1020.63,0.084533,409066,336713
1024.36,0.084868,406777,334571
1028.09,0.084316,404427,333061
1031.82,0.084408,401911,330919
1036.78,0.083985,398410,328356
1040.49,0.083269,396204,327077
1044.2,0.083671,394236,325151
1047.91,0.083394,392042,323548
1051.61,0.083234,389823,321835
1055.31,0.082598,388234,320993
1059,0.081937,387599,320956
1063.92,0.081348,386688,320636
1067.61,0.080538,386598,321160
1071.29,0.080113,387377,322122
1074.96,0.079124,388536,323823
1078.63,0.079271,389855,324812
1082.3,0.078407,391215,326594
1085.96,0.077577,393215,328892
1090.84,0.076517,396270,332257
1094.49,0.075700,398760,334974
1098.14,0.075989,400987,336621
1101.79,0.074643,403477,339763
1105.43,0.074722,406116,341923
1109.06,0.073549,407701,344186
1112.7,0.073546,409859,346010
1117.53,0.072973,412494,348694
1121.15,0.073364,414909,350420
1124.77,0.073836,416559,351431
1128.38,0.075133,418532,352043
1131.99,0.075464,419956,352972
1135.6,0.077285,421946,353160
1139.2,0.078905,423881,353459
1143.99,0.080000,426786,354985
1147.58,0.081390,428617,355369
1151.17,0.082152,431169,356858
1154.75,0.083433,433579,357796
1158.33,0.084435,436264,359182
1161.91,0.085734,439132,360463
1165.48,0.088458,442389,360866
1169.04,0.090504,446101,362184
1173.79,0.093381,451929,364493
1177.34,0.095707,456026,365833
1180.9,0.098243,461306,367914
1184.44,0.099361,467657,372020
1187.99,0.101000,473969,375621
1191.52,0.100905,479856,380370
1195.06,0.100182,487372,386971
1199.76,0.100154,497347,394917
1203.29,0.099557,504311,400997
1206.81,0.098999,511507,407242
1210.33,0.098572,519078,413676
1213.84,0.097963,527163,420709
1217.35,0.097342,534208,426942
1220.85,0.096175,540472,433110
1225.51,0.095459,549929,441416
1229.01,0.095248,556888,447219
1232.5,0.094847,562180,451885
1235.98,0.094143,567975,457284
1239.46,0.093231,574815,463764
1242.94,0.091841,582782,471699
1246.41,0.091813,591476,478767
1251.03,0.091127,604016,489690
1254.5,0.091440,612289,496040
1257.96,0.092097,619125,500820
1261.41,0.092977,624551,504186
1264.86,0.093058,629900,508409
1268.31,0.093519,634345,511454
1271.75,0.094257,638574,513990
1276.33,0.094331,642499,517061
1279.76,0.094329,645905,519804
1283.19,0.093346,648307,522919
1286.61,0.093111,650446,524929
1290.03,0.093332,652132,526021
1293.44,0.092923,653907,527950
1296.85,0.092426,655963,530217
1301.39,0.092324,657349,531462
1304.8,0.092230,657558,531746
1308.19,0.092511,658515,532175
1311.58,0.092291,658804,532679
1314.97,0.092876,659011,532129
1318.36,0.093376,658272,530920
1321.73,0.093580,658022,530469
1326.23,0.094011,657870,529821
1329.6,0.094903,656482,527618
1332.97,0.095877,654926,525189
1336.33,0.096612,653727,523341
1339.69,0.098150,652497,520509
1343.04,0.099766,649913,516522
1346.39,0.101425,647671,512778
1349.73,0.103440,645338,508566
1354.18,0.106572,641175,501654
1357.52,0.108169,638376,497631
1360.85,0.110493,635805,492982
1364.17,0.112219,633413,489179
1367.49,0.114473,631026,484813
1370.81,0.116255,628050,480551
1374.12,0.119114,625034,475105
1378.54,0.121332,620272,469084
1381.84,0.124230,616892,463425
1385.14,0.127648,613613,457348
1388.43,0.130642,611526,452661
1391.72,0.135082,610663,447424
1395.01,0.138666,610634,443726
1398.29,0.143824,611700,439253
1402.66,0.149815,614051,434900
1405.93,0.154451,616268,431836
1409.2,0.158774,617795,428618
1412.46,0.162824,618872,425380
1415.72,0.166253,619795,422664
1418.98,0.170527,620495,418997
1422.23,0.173959,621087,416096
1426.56,0.177408,621375,412996
1429.8,0.180686,621616,410049
1433.04,0.182513,622129,408665
1436.27,0.184834,621526,406093
1439.5,0.186780,621113,404009
1442.72,0.189451,620921,401407
1445.94,0.191678,620270,398936
1450.23,0.195213,618860,394802
1453.44,0.198696,617697,390912
1456.64,0.200807,616264,388114
1459.85,0.203431,614413,384618
1463.04,0.206966,612307,380192
1466.24,0.209996,610032,376146
1469.43,0.213933,607345,371110
1473.67,0.219832,603789,363960
1476.85,0.225752,601175,357478
1480.02,0.231843,597737,350483
1483.19,0.238788,594479,343043
1486.36,0.244431,591232,336765
1489.52,0.249426,587853,331011
1492.68,0.252721,583875,326286
1496.89,0.254031,578062,322065
1500.03,0.255318,574159,318944
1503.18,0.255408,570285,316726
1506.32,0.254151,565444,314948
1509.45,0.252710,560571,313271
1512.58,0.251980,555821,311139
1515.71,0.248673,550344,310428
1519.87,0.246705,543983,308234
1522.99,0.243371,538764,307629
1526.1,0.240584,533692,306695
1529.21,0.237888,527902,305257
1532.32,0.235234,521886,303628
1535.42,0.231817,515888,302509
1538.51,0.229094,509987,300930
1541.6,0.226222,503936,299332
1545.72,0.222669,494694,296256
1548.8,0.219254,488378,294783
1551.88,0.217926,481832,291722
1554.95,0.215547,474989,289159
1558.02,0.213371,467818,286224
1561.08,0.213253,460730,281964
1564.15,0.212782,454170,278251
1568.22,0.210685,444181,273448
1571.27,0.210471,436947,269127
1574.32,0.209639,429598,265108
1577.36,0.208236,422039,261286
1580.4,0.207594,414375,256921
1583.43,0.205942,406354,252908
1586.46,0.203806,398475,249227
1590.49,0.201855,388982,244385
1593.51,0.200205,380708,240097
1596.53,0.198674,372727,235894
1599.54,0.197270,365060,231790
1602.55,0.194431,357543,228506
1605.55,0.192875,349495,224164
1608.55,0.190749,341154,219888
1612.54,0.188606,330877,214319
1615.53,0.186711,322904,210069
1618.51,0.186852,315116,204936
1621.49,0.185249,307217,200538
1624.47,0.184767,299481,195705
1627.44,0.183837,292112,191299
1630.41,0.183065,284245,186478
1634.36,0.181593,274079,180419
1637.32,0.180359,266916,176204
1640.27,0.179458,259612,171738
1643.22,0.179216,251804,166666
1646.16,0.178309,244348,162069
1649.1,0.178514,236703,156924
1652.04,0.175432,228171,152345
1655.95,0.173367,215408,144509
1658.88,0.168552,204937,139017
1661.8,0.162362,193395,133071
1664.72,0.157407,179728,125086
1667.63,0.142650,163642,117827
1670.54,0.130058,146312,108448
1673.44,0.111460,128451,99375
1677.31,0.091305,105080,85156
1680.21,0.080592,88906,73848
1683.1,0.071133,75033,63697
1685.99,0.074549,63520,53501
1688.87,0.075584,53714,45134
1691.75,0.080784,45653,37904
1694.62,0.089710,39137,31833
1697.49,0.090842,33776,27401
1701.31,0.095544,28175,22611