File: samples/wool/wool-000811/Column 1_050561_20150331_120519.csv
Method:,Column 1,,
Host Date-Time:,31/3/15 @ 12:5:19,,
Header Version:,1,,
System Temp (C):,33.76,,
Detector Temp (C):,33.32,,
Humidity (%):,2.05,,
Lamp PD:,3819,,
Shift Vector Coefficients:,-10.5391,0.0761263,-0.000134223,,
Pixel to Wavelength Coefficients:,1775.68,-0.916766,-0.000235065,,
Serial Number:,5510004,,
Scan Config Name:,Column 1,,
Scan Config Type:,Slew,,
Section 1,,
Start wavelength (nm):,900,,
End wavelength (nm):,1700,,
Pattern Pixel Width (nm):,   7.03,,,,
Exposure (ms):,  0.635,,,,
Digital Resolution:,228,,
Num Repeats:,6,,
PGA Gain:,64,,
Total Measurement Time in sec:,  2.682,,
Wavelength (nm),Absorbance (AU),Reference Signal (unitless),Sample Signal (unitless)
901.51,0.032379,108485,100691
905.376,0.039158,121306,110847
909.237,0.040496,131909,120165
913.095,0.042410,143299,129967
916.948,0.042785,156982,142254
922.079,0.043130,179937,162926
925.923,0.046108,200504,180308
929.762,0.046382,222660,200106
933.597,0.047457,244426,219124
937.427,0.047149,263972,236815
941.254,0.046553,281845,253196
945.076,0.045070,297271,267968
950.165,0.045634,315605,284125
953.978,0.045021,328029,295727
957.786,0.045799,340470,306394
961.59,0.045817,352317,317042
965.389,0.045838,363056,326690
969.185,0.046543,373162,335239
972.976,0.046387,382632,343870
976.763,0.046735,391202,351290
981.806,0.047221,400190,358959
985.583,0.048812,406088,362918
989.355,0.048923,410162,366465
993.124,0.049277,412868,368582
996.888,0.050481,414263,368804
1000.65,0.050452,415476,369908
1004.4,0.051611,415479,368925
1009.41,0.053605,414358,366244
1013.15,0.053607,412923,364974
1016.89,0.053981,411526,363426
1020.63,0.054620,409066,360723
1024.36,0.054214,406777,359040
1028.09,0.054044,404427,357105
1031.82,0.053519,401911,355313
1036.78,0.053272,398410,352418
1040.49,0.052821,396204,350831
1044.2,0.052322,394236,349490
1047.91,0.052354,392042,347519
1051.61,0.051990,389823,345842
1055.31,0.051140,388234,345107
1059,0.050345,387599,345174
1063.92,0.049422,386688,345095
1067.61,0.048413,386598,345817
1071.29,0.048411,387377,346516
1074.96,0.047438,388536,348332
1078.63,0.047283,389855,349639
1082.3,0.046377,391215,351592
1085.96,0.045535,393215,354075
1090.84,0.045546,396270,356817
1094.49,0.045076,398760,359448
1098.14,0.044773,400987,361707
1101.79,0.044332,403477,364323
1105.43,0.044256,406116,366770
1109.06,0.044015,407701,368406
1112.7,0.043434,409859,370852
1117.53,0.043566,412494,373123
1121.15,0.044013,414909,374921
1124.77,0.044815,416559,375718
1128.38,0.046607,418532,375943
1131.99,0.047209,419956,376699
1135.6,0.049573,421946,376430
1139.2,0.051416,423881,376555
1143.99,0.053992,426786,376893
1147.58,0.054932,428617,377692
1151.17,0.055896,431169,379098
1154.75,0.057594,433579,379729
1158.33,0.059196,436264,380674
1161.91,0.061004,439132,381585
1165.48,0.063324,442389,382367
1169.04,0.066437,446101,382821
1173.79,0.069998,451929,384656
1177.34,0.072266,456026,386121
1180.9,0.074537,461306,388555
1184.44,0.076141,467657,392452
1187.99,0.077466,473969,396537
1191.52,0.076851,479856,402031
1195.06,0.076461,487372,408695
1199.76,0.075731,497347,417762
1203.29,0.074812,504311,424509
1206.81,0.073913,511507,431458
1210.33,0.073473,519078,438288
1213.84,0.072744,527163,445862
1217.35,0.071691,534208,452918
1220.85,0.071069,540472,458885
1225.51,0.069725,549929,468362
1229.01,0.069290,556888,474764
1232.5,0.069031,562180,479562
1235.98,0.068279,567975,485345
1239.46,0.067369,574815,492220
1242.94,0.066578,582782,499952
1246.41,0.065507,591476,508663
1251.03,0.065480,604016,519479
1254.5,0.065642,612289,526398
1257.96,0.066367,619125,531387
1261.41,0.066640,624551,535708
1264.86,0.067099,629900,539725
1268.31,0.068147,634345,542224
1271.75,0.068636,638574,545224
1276.33,0.068993,642499,548125
1279.76,0.069075,645905,550927
1283.19,0.068509,648307,553696
1286.61,0.068347,650446,555731
1290.03,0.067783,652132,557895
1293.44,0.067208,653907,560155
1296.85,0.066968,655963,562226
1301.39,0.066568,657349,563934
1304.8,0.067002,657558,563550
1308.19,0.066900,658515,564502
1311.58,0.067018,658804,564597
1314.97,0.068059,659011,563422
1318.36,0.068328,658272,562442
1321.73,0.068230,658022,562355
1326.23,0.069349,657870,560778
1329.6,0.070484,656482,558135
1332.97,0.071596,654926,555388
1336.33,0.072722,653727,552935
1339.69,0.074693,652497,549396
1343.04,0.076199,649913,545326
1346.39,0.078347,647671,540764
1349.73,0.080706,645338,535897
1354.18,0.083754,641175,528716
1357.52,0.086264,638376,523374
1360.85,0.087993,635805,519195
1364.17,0.090715,633413,514010
1367.49,0.093105,631026,509263
1370.81,0.095274,628050,504336
1374.12,0.098121,625034,498635
1378.54,0.101277,620272,491253
1381.84,0.104519,616892,484942
1385.14,0.108800,613613,477633
1388.43,0.113247,611526,471159
1391.72,0.118349,610663,465000
1395.01,0.123145,610634,459871
1398.29,0.128480,611700,455049
1402.66,0.136099,614051,448854
1405.93,0.142036,616268,444359
1409.2,0.147618,617795,439771
1412.46,0.152876,618872,435236
1415.72,0.157531,619795,431238
1418.98,0.161953,620495,427352
1422.23,0.165346,621087,424430
1426.56,0.169964,621375,420136
1429.8,0.172596,621616,417759
1433.04,0.175177,622129,415627
1436.27,0.177780,621526,412743
1439.5,0.179728,621113,410622
1442.72,0.182355,620921,408020
1445.94,0.184680,620270,405416
1450.23,0.188613,618860,400848
1453.44,0.191741,617697,397223
1456.64,0.194757,616264,393559
1459.85,0.197338,614413,390052
1463.04,0.199702,612307,386605
1466.24,0.203594,610032,381732
1469.43,0.206624,607345,377408
1473.67,0.212919,603789,369799
1476.85,0.218501,601175,363496
1480.02,0.224283,597737,356638
1483.19,0.231226,594479,349068
1486.36,0.236796,591232,342738
1489.52,0.242187,587853,336575
1492.68,0.244950,583875,332177
1496.89,0.247619,578062,326855
1500.03,0.248915,574159,323681
1503.18,0.248685,570285,321667
1506.32,0.247352,565444,319917
1509.45,0.246525,560571,317765
1512.58,0.244932,555821,316230
1515.71,0.242492,550344,314878
1519.87,0.239189,543983,313615
1522.99,0.236763,538764,312346
1526.1,0.233474,533692,311757
1529.21,0.231269,527902,309945
1532.32,0.227655,521886,308973
1535.42,0.225175,515888,307171
1538.51,0.221421,509987,306294
1541.6,0.218331,503936,304821
1545.72,0.213950,494694,302264
1548.8,0.210389,488378,300862
1551.88,0.207788,481832,298612
1554.95,0.205509,474989,295920
1558.02,0.204031,467818,292446
1561.08,0.202854,460730,288797
1564.15,0.201524,454170,285558
1568.22,0.201060,444181,279576
1571.27,0.200474,436947,275394
1574.32,0.198806,429598,271804
1577.36,0.198021,422039,267505
1580.4,0.196351,414375,263659
1583.43,0.194888,406354,259428
1586.46,0.193247,398475,255361
1590.49,0.190578,388982,250814
1593.51,0.188154,380708,246853
1596.53,0.185879,372727,242947
1599.54,0.183821,365060,239080
1602.55,0.182159,357543,235055
1605.55,0.179436,349495,231209
1608.55,0.177202,341154,226855
1612.54,0.175498,330877,220886
1615.53,0.173347,322904,216634
1618.51,0.170968,315116,212570
1621.49,0.170289,307217,207566
1624.47,0.169338,299481,202783
1627.44,0.168137,292112,198341
1630.41,0.167926,284245,193093
1634.36,0.164752,274079,187553
1637.32,0.164294,266916,182844
1640.27,0.164872,259612,177604
1643.22,0.162487,251804,173211
1646.16,0.161809,244348,168345
1649.1,0.160511,236703,163566
1652.04,0.159691,228171,157968
1655.95,0.157310,215408,149952
1658.88,0.153572,204937,143896
1661.8,0.149398,193395,137103
1664.72,0.143619,179728,129121
1667.63,0.134236,163642,120132
1670.54,0.122819,146312,110271
1673.44,0.112721,128451,99087
1677.31,0.096084,105080,84224
1680.21,0.089312,88906,72380
1683.1,0.085897,75033,61568
1685.99,0.089437,63520,51698
1688.87,0.090402,53714,43620
1691.75,0.103107,45653,36005
1694.62,0.105152,39137,30721
1697.49,0.109926,33776,26223
1701.31,0.118052,28175,21469