File: samples/wool/wool-000811/Column 1_050551_20150331_120028.csv
Method:,Column 1,,
Host Date-Time:,31/3/15 @ 12:0:28,,
Header Version:,1,,
System Temp (C):,33.34,,
Detector Temp (C):,32.47,,
Humidity (%):,3.57,,
Lamp PD:,3821,,
Shift Vector Coefficients:,-10.5391,0.0761263,-0.000134223,,
Pixel to Wavelength Coefficients:,1775.68,-0.916766,-0.000235065,,
Serial Number:,5510004,,
Scan Config Name:,Column 1,,
Scan Config Type:,Slew,,
Section 1,,
Start wavelength (nm):,900,,
End wavelength (nm):,1700,,
Pattern Pixel Width (nm):,   7.03,,,,
Exposure (ms):,  0.635,,,,
Digital Resolution:,228,,
Num Repeats:,6,,
PGA Gain:,64,,
Total Measurement Time in sec:,  2.714,,
Wavelength (nm),Absorbance (AU),Reference Signal (unitless),Sample Signal (unitless)
901.51,0.031177,108485,100970
905.376,0.037817,121306,111190
909.237,0.039868,131909,120339
913.095,0.040230,143299,130621
916.948,0.040675,156982,142947
922.079,0.042733,179937,163075
925.923,0.043337,200504,181462
929.762,0.045099,222660,200698
933.597,0.045600,244426,220063
937.427,0.044715,263972,238146
941.254,0.044642,281845,254313
945.076,0.044614,297271,268249
950.165,0.044688,315605,284745
953.978,0.043860,328029,296519
957.786,0.044819,340470,307086
961.59,0.045881,352317,316995
965.389,0.045321,363056,327079
969.185,0.046196,373162,335507
972.976,0.046836,382632,343515
976.763,0.047041,391202,351043
981.806,0.047198,400190,358978
985.583,0.048404,406088,363259
989.355,0.048719,410162,366637
993.124,0.048937,412868,368871
996.888,0.049932,414263,369270
1000.65,0.050884,415476,369540
1004.4,0.051990,415479,368603
1009.41,0.053222,414358,366567
1013.15,0.053543,412923,365028
1016.89,0.053930,411526,363469
1020.63,0.053774,409066,361426
1024.36,0.053923,406777,359280
1028.09,0.053488,404427,357563
1031.82,0.053785,401911,355095
1036.78,0.053169,398410,352502
1040.49,0.052904,396204,350764
1044.2,0.052494,394236,349351
1047.91,0.052452,392042,347441
1051.61,0.051293,389823,346397
1055.31,0.050603,388234,345534
1059,0.049917,387599,345514
1063.92,0.049319,386688,345177
1067.61,0.048688,386598,345598
1071.29,0.048469,387377,346469
1074.96,0.048243,388536,347687
1078.63,0.047183,389855,349720
1082.3,0.046304,391215,351651
1085.96,0.045703,393215,353938
1090.84,0.045064,396270,357213
1094.49,0.044967,398760,359538
1098.14,0.044764,400987,361715
1101.79,0.044581,403477,364114
1105.43,0.044411,406116,366639
1109.06,0.044081,407701,368350
1112.7,0.043344,409859,370929
1117.53,0.043440,412494,373231
1121.15,0.044684,414909,374342
1124.77,0.045260,416559,375333
1128.38,0.046418,418532,376106
1131.99,0.047772,419956,376211
1135.6,0.049671,421946,376345
1139.2,0.051431,423881,376542
1143.99,0.054198,426786,376714
1147.58,0.054683,428617,377908
1151.17,0.056346,431169,378705
1154.75,0.057774,433579,379572
1158.33,0.059234,436264,380641
1161.91,0.061324,439132,381304
1165.48,0.063949,442389,381817
1169.04,0.067312,446101,382051
1173.79,0.070894,451929,383863
1177.34,0.072831,456026,385619
1180.9,0.074998,461306,388142
1184.44,0.076915,467657,391753
1187.99,0.077350,473969,396643
1191.52,0.077584,479856,401353
1195.06,0.077137,487372,408060
1199.76,0.076194,497347,417316
1203.29,0.075523,504311,423814
1206.81,0.074523,511507,430852
1210.33,0.073702,519078,438057
1213.84,0.073291,527163,445301
1217.35,0.072099,534208,452492
1220.85,0.071807,540472,458106
1225.51,0.070501,549929,467526
1229.01,0.070001,556888,473988
1232.5,0.069253,562180,479317
1235.98,0.068802,567975,484761
1239.46,0.067386,574815,492201
1242.94,0.067098,582782,499353
1246.41,0.066118,591476,507948
1251.03,0.065934,604016,518937
1254.5,0.065826,612289,526175
1257.96,0.066600,619125,531102
1261.41,0.066941,624551,535336
1264.86,0.067654,629900,539036
1268.31,0.068286,634345,542050
1271.75,0.069101,638574,544641
1276.33,0.069647,642499,547300
1279.76,0.069093,645905,550904
1283.19,0.068864,648307,553244
1286.61,0.068487,650446,555552
1290.03,0.068138,652132,557439
1293.44,0.067913,653907,559246
1296.85,0.067664,655963,561326
1301.39,0.067158,657349,563168
1304.8,0.067641,657558,562721
1308.19,0.067678,658515,563492
1311.58,0.067635,658804,563795
1314.97,0.068698,659011,562594
1318.36,0.069069,658272,561483
1321.73,0.069420,658022,560816
1326.23,0.070653,657870,559097
1329.6,0.071634,656482,556658
1332.97,0.072908,654926,553713
1336.33,0.074167,653727,551099
1339.69,0.075896,652497,547876
1343.04,0.077670,649913,543482
1346.39,0.080103,647671,538582
1349.73,0.082353,645338,533868
1354.18,0.085495,641175,526601
1357.52,0.087741,638376,521598
1360.85,0.089639,635805,517231
1364.17,0.091980,633413,512516
1367.49,0.094684,631026,507415
1370.81,0.097226,628050,502075
1374.12,0.099545,625034,497003
1378.54,0.103071,620272,489228
1381.84,0.107073,616892,482099
1385.14,0.111313,613613,474877
1388.43,0.116098,611526,468077
1391.72,0.121036,610663,462132
1395.01,0.126854,610634,455960
1398.29,0.132642,611700,450709
1402.66,0.141294,614051,443517
1405.93,0.147233,616268,439073
1409.2,0.153633,617795,433722
1412.46,0.159383,618872,428764
1415.72,0.164484,619795,424389
1418.98,0.169328,620495,420156
1422.23,0.173106,621087,416914
1426.56,0.178049,621375,412387
1429.8,0.181153,621616,409609
1433.04,0.183916,622129,407347
1436.27,0.186557,621526,404485
1439.5,0.189135,621113,401824
1442.72,0.191366,620921,399641
1445.94,0.194132,620270,396688
1450.23,0.197673,618860,392572
1453.44,0.200351,617697,389426
1456.64,0.203585,616264,385640
1459.85,0.205661,614413,382648
1463.04,0.208638,612307,378731
1466.24,0.211493,610032,374852
1469.43,0.214732,607345,370428
1473.67,0.220065,603789,363764
1476.85,0.224993,601175,358103
1480.02,0.229346,597737,352504
1483.19,0.236144,594479,345138
1486.36,0.242022,591232,338638
1489.52,0.246489,587853,333257
1492.68,0.249238,583875,328914
1496.89,0.251817,578062,323711
1500.03,0.252185,574159,321253
1503.18,0.252422,570285,318911
1506.32,0.251706,565444,316726
1509.45,0.249926,560571,315286
1512.58,0.247951,555821,314039
1515.71,0.246548,550344,311951
1519.87,0.243520,543983,310503
1522.99,0.240561,538764,309626
1526.1,0.237788,533692,308676
1529.21,0.234768,527902,307458
1532.32,0.232029,521886,305877
1535.42,0.228743,515888,304658
1538.51,0.225675,509987,303308
1541.6,0.222862,503936,301657
1545.72,0.218433,494694,299160
1548.8,0.215224,488378,297531
1551.88,0.212701,481832,295253
1554.95,0.210718,474989,292392
1558.02,0.208421,467818,289505
1561.08,0.207185,460730,285931
1564.15,0.206017,454170,282619
1568.22,0.205337,444181,276836
1571.27,0.204107,436947,273100
1574.32,0.203573,429598,268837
1577.36,0.202079,422039,265017
1580.4,0.199998,414375,261454
1583.43,0.198730,406354,257143
1586.46,0.197323,398475,252975
1590.49,0.194341,388982,248650
1593.51,0.192164,380708,244584
1596.53,0.190905,372727,240152
1599.54,0.187590,365060,237014
1602.55,0.185933,357543,233021
1605.55,0.184279,349495,228645
1608.55,0.180926,341154,224918
1612.54,0.178737,330877,219245
1615.53,0.176873,322904,214882
1618.51,0.175639,315116,210296
1621.49,0.174127,307217,205740
1624.47,0.172588,299481,201271
1627.44,0.171004,292112,197036
1630.41,0.169817,284245,192254
1634.36,0.167295,274079,186458
1637.32,0.167579,266916,181466
1640.27,0.166943,259612,176759
1643.22,0.166115,251804,171770
1646.16,0.164458,244348,167321
1649.1,0.166577,236703,161297
1652.04,0.163144,228171,156717
1655.95,0.161281,215408,148587
1658.88,0.158208,204937,142368
1661.8,0.154602,193395,135470
1664.72,0.149644,179728,127342
1667.63,0.140404,163642,118438
1670.54,0.132750,146312,107778
1673.44,0.120937,128451,97230
1677.31,0.109404,105080,81680
1680.21,0.104740,88906,69854
1683.1,0.103063,75033,59182
1685.99,0.108191,63520,49513
1688.87,0.112909,53714,41417
1691.75,0.115451,45653,34996
1694.62,0.117062,39137,29890
1697.49,0.122682,33776,25464
1701.31,0.131738,28175,20803