File: samples/wool/wool-000811/Column 1_050560_20150331_120450.csv
Method:,Column 1,,
Host Date-Time:,31/3/15 @ 12:4:50,,
Header Version:,1,,
System Temp (C):,33.71,,
Detector Temp (C):,33.22,,
Humidity (%):,2.15,,
Lamp PD:,3820,,
Shift Vector Coefficients:,-10.5391,0.0761263,-0.000134223,,
Pixel to Wavelength Coefficients:,1775.68,-0.916766,-0.000235065,,
Serial Number:,5510004,,
Scan Config Name:,Column 1,,
Scan Config Type:,Slew,,
Section 1,,
Start wavelength (nm):,900,,
End wavelength (nm):,1700,,
Pattern Pixel Width (nm):,   7.03,,,,
Exposure (ms):,  0.635,,,,
Digital Resolution:,228,,
Num Repeats:,6,,
PGA Gain:,64,,
Total Measurement Time in sec:,  2.670,,
Wavelength (nm),Absorbance (AU),Reference Signal (unitless),Sample Signal (unitless)
901.51,0.034086,108485,100296
905.376,0.040045,121306,110621
909.237,0.041810,131909,119802
913.095,0.042470,143299,129949
916.948,0.042465,156982,142359
922.079,0.045214,179937,162146
925.923,0.045468,200504,180574
929.762,0.046226,222660,200178
933.597,0.047789,244426,218957
937.427,0.046791,263972,237010
941.254,0.046178,281845,253415
945.076,0.045850,297271,267487
950.165,0.045908,315605,283946
953.978,0.044935,328029,295786
957.786,0.045164,340470,306842
961.59,0.046600,352317,316471
965.389,0.046355,363056,326301
969.185,0.046363,373162,335378
972.976,0.046884,382632,343477
976.763,0.047438,391202,350722
981.806,0.047795,400190,358485
985.583,0.048614,406088,363083
989.355,0.049026,410162,366378
993.124,0.049827,412868,368116
996.888,0.050173,414263,369065
1000.65,0.051043,415476,369405
1004.4,0.051887,415479,368691
1009.41,0.053680,414358,366181
1013.15,0.053938,412923,364696
1016.89,0.054980,411526,362591
1020.63,0.054898,409066,360492
1024.36,0.054904,406777,358470
1028.09,0.054474,404427,356752
1031.82,0.054107,401911,354832
1036.78,0.053225,398410,352456
1040.49,0.052742,396204,350895
1044.2,0.053014,394236,348933
1047.91,0.052779,392042,347179
1051.61,0.051837,389823,345964
1055.31,0.051389,388234,344909
1059,0.050974,387599,344674
1063.92,0.049632,386688,344928
1067.61,0.048848,386598,345471
1071.29,0.049221,387377,345870
1074.96,0.048418,388536,347547
1078.63,0.047870,389855,349167
1082.3,0.047063,391215,351037
1085.96,0.046341,393215,353418
1090.84,0.045496,396270,356858
1094.49,0.044956,398760,359547
1098.14,0.044698,400987,361770
1101.79,0.044341,403477,364316
1105.43,0.044597,406116,366482
1109.06,0.043590,407701,368767
1112.7,0.044302,409859,370111
1117.53,0.044001,412494,372749
1121.15,0.044995,414909,374074
1124.77,0.045573,416559,375062
1128.38,0.046437,418532,376090
1131.99,0.048025,419956,375992
1135.6,0.050078,421946,375992
1139.2,0.051602,423881,376393
1143.99,0.054158,426786,376749
1147.58,0.054820,428617,377789
1151.17,0.056556,431169,378522
1154.75,0.057684,433579,379651
1158.33,0.059321,436264,380565
1161.91,0.061402,439132,381235
1165.48,0.063972,442389,381797
1169.04,0.066530,446101,382739
1173.79,0.070128,451929,384541
1177.34,0.072496,456026,385917
1180.9,0.074928,461306,388205
1184.44,0.076453,467657,392170
1187.99,0.077438,473969,396563
1191.52,0.076796,479856,402082
1195.06,0.077064,487372,408128
1199.76,0.076132,497347,417376
1203.29,0.075430,504311,423905
1206.81,0.074348,511507,431026
1210.33,0.073643,519078,438117
1213.84,0.072927,527163,445675
1217.35,0.071930,534208,452669
1220.85,0.071304,540472,458637
1225.51,0.070366,549929,467671
1229.01,0.069690,556888,474327
1232.5,0.068925,562180,479679
1235.98,0.068703,567975,484871
1239.46,0.067623,574815,491932
1242.94,0.066490,582782,500053
1246.41,0.066152,591476,507908
1251.03,0.065585,604016,519354
1254.5,0.065555,612289,526504
1257.96,0.066195,619125,531598
1261.41,0.067044,624551,535210
1264.86,0.067432,629900,539311
1268.31,0.068309,634345,542022
1271.75,0.068992,638574,544778
1276.33,0.069132,642499,547950
1279.76,0.069427,645905,550480
1283.19,0.068524,648307,553677
1286.61,0.068122,650446,556018
1290.03,0.067558,652132,558184
1293.44,0.067467,653907,559821
1296.85,0.067544,655963,561482
1301.39,0.066908,657349,563492
1304.8,0.067031,657558,563512
1308.19,0.067482,658515,563746
1311.58,0.067503,658804,563967
1314.97,0.067901,659011,563627
1318.36,0.068450,658272,562283
1321.73,0.068926,658022,561454
1326.23,0.069601,657870,560453
1329.6,0.071007,656482,557463
1332.97,0.071521,654926,555484
1336.33,0.073387,653727,552089
1339.69,0.074798,652497,549263
1343.04,0.076480,649913,544973
1346.39,0.078910,647671,540063
1349.73,0.080649,645338,535967
1354.18,0.084139,641175,528248
1357.52,0.086411,638376,523197
1360.85,0.088643,635805,518419
1364.17,0.090758,633413,513960
1367.49,0.093470,631026,508835
1370.81,0.095807,628050,503718
1374.12,0.098415,625034,498297
1378.54,0.101548,620272,490946
1381.84,0.105321,616892,484048
1385.14,0.109206,613613,477187
1388.43,0.113570,611526,470809
1391.72,0.118204,610663,465155
1395.01,0.123644,610634,459343
1398.29,0.128997,611700,454508
1402.66,0.136430,614051,448512
1405.93,0.142648,616268,443733
1409.2,0.148197,617795,439185
1412.46,0.153357,618872,434754
1415.72,0.158152,619795,430622
1418.98,0.162469,620495,426844
1422.23,0.166217,621087,423580
1426.56,0.170512,621375,419606
1429.8,0.173399,621616,416988
1433.04,0.176380,622129,414477
1436.27,0.178771,621526,411802
1439.5,0.180355,621113,410030
1442.72,0.183491,620921,406954
1445.94,0.186091,620270,404101
1450.23,0.189504,618860,400026
1453.44,0.192234,617697,396772
1456.64,0.195004,616264,393335
1459.85,0.198847,614413,388699
1463.04,0.200913,612307,385528
1466.24,0.204872,610032,380610
1469.43,0.207340,607345,376787
1473.67,0.214100,603789,368795
1476.85,0.219103,601175,362993
1480.02,0.225002,597737,356048
1483.19,0.231855,594479,348563
1486.36,0.237365,591232,342289
1489.52,0.241707,587853,336947
1492.68,0.246087,583875,331309
1496.89,0.248533,578062,326168
1500.03,0.249119,574159,323529
1503.18,0.248876,570285,321526
1506.32,0.248100,565444,319367
1509.45,0.247375,560571,317143
1512.58,0.245616,555821,315732
1515.71,0.243168,550344,314388
1519.87,0.239374,543983,313481
1522.99,0.237025,538764,312157
1526.1,0.234075,533692,311326
1529.21,0.231248,527902,309960
1532.32,0.228759,521886,308189
1535.42,0.224616,515888,307567
1538.51,0.222585,509987,305474
1541.6,0.218675,503936,304579
1545.72,0.214568,494694,301834
1548.8,0.210962,488378,300465
1551.88,0.209215,481832,297633
1554.95,0.206642,474989,295149
1558.02,0.205010,467818,291788
1561.08,0.203847,460730,288137
1564.15,0.202820,454170,284707
1568.22,0.201683,444181,279175
1571.27,0.200539,436947,275353
1574.32,0.199425,429598,271417
1577.36,0.198588,422039,267156
1580.4,0.196872,414375,263343
1583.43,0.194990,406354,259367
1586.46,0.193599,398475,255154
1590.49,0.191533,388982,250263
1593.51,0.189260,380708,246225
1596.53,0.186830,372727,242416
1599.54,0.184479,365060,238718
1602.55,0.182802,357543,234707
1605.55,0.179282,349495,231291
1608.55,0.177965,341154,226457
1612.54,0.175939,330877,220662
1615.53,0.174184,322904,216217
1618.51,0.172495,315116,211824
1621.49,0.171064,307217,207196
1624.47,0.169284,299481,202808
1627.44,0.168685,292112,198091
1630.41,0.168201,284245,192971
1634.36,0.165774,274079,187112
1637.32,0.165552,266916,182315
1640.27,0.164422,259612,177788
1643.22,0.163705,251804,172726
1646.16,0.162653,244348,168018
1649.1,0.161934,236703,163031
1652.04,0.160330,228171,157736
1655.95,0.158110,215408,149676
1658.88,0.154808,204937,143487
1661.8,0.151039,193395,136586
1664.72,0.145284,179728,128627
1667.63,0.136472,163642,119515
1670.54,0.126298,146312,109391
1673.44,0.113370,128451,98939
1677.31,0.100016,105080,83465
1680.21,0.092698,88906,71818
1683.1,0.088267,75033,61233
1685.99,0.091255,63520,51482
1688.87,0.091668,53714,43493
1691.75,0.103795,45653,35948
1694.62,0.104178,39137,30790
1697.49,0.107580,33776,26365
1701.31,0.108924,28175,21925