File: samples/wool/wool-000811/Column 1_050561_20150331_120507.csv
Method:,Column 1,,
Host Date-Time:,31/3/15 @ 12:5:7,,
Header Version:,1,,
System Temp (C):,33.73,,
Detector Temp (C):,33.3,,
Humidity (%):,2.1,,
Lamp PD:,3819,,
Shift Vector Coefficients:,-10.5391,0.0761263,-0.000134223,,
Pixel to Wavelength Coefficients:,1775.68,-0.916766,-0.000235065,,
Serial Number:,5510004,,
Scan Config Name:,Column 1,,
Scan Config Type:,Slew,,
Section 1,,
Start wavelength (nm):,900,,
End wavelength (nm):,1700,,
Pattern Pixel Width (nm):,   7.03,,,,
Exposure (ms):,  0.635,,,,
Digital Resolution:,228,,
Num Repeats:,6,,
PGA Gain:,64,,
Total Measurement Time in sec:,  2.672,,
Wavelength (nm),Absorbance (AU),Reference Signal (unitless),Sample Signal (unitless)
901.51,0.035704,108485,99923
905.376,0.038696,121306,110965
909.237,0.041655,131909,119845
913.095,0.043715,143299,129577
916.948,0.045364,156982,141412
922.079,0.046027,179937,161843
925.923,0.046207,200504,180267
929.762,0.047314,222660,199677
933.597,0.047348,244426,219179
937.427,0.047697,263972,236516
941.254,0.046708,281845,253106
945.076,0.047491,297271,266478
950.165,0.046070,315605,283840
953.978,0.045384,328029,295480
957.786,0.045804,340470,306390
961.59,0.047260,352317,315990
965.389,0.046226,363056,326398
969.185,0.046731,373162,335094
972.976,0.047212,382632,343217
976.763,0.047703,391202,350508
981.806,0.048500,400190,357904
985.583,0.049197,406088,362596
989.355,0.049535,410162,365949
993.124,0.050084,412868,367898
996.888,0.050207,414263,369036
1000.65,0.051387,415476,369113
1004.4,0.052451,415479,368212
1009.41,0.053744,414358,366127
1013.15,0.054610,412923,364132
1016.89,0.054882,411526,362673
1020.63,0.054817,409066,360559
1024.36,0.054889,406777,358482
1028.09,0.054453,404427,356769
1031.82,0.054161,401911,354788
1036.78,0.053494,398410,352238
1040.49,0.053290,396204,350452
1044.2,0.053358,394236,348657
1047.91,0.053222,392042,346825
1051.61,0.052375,389823,345535
1055.31,0.051443,388234,344866
1059,0.050902,387599,344731
1063.92,0.050098,386688,344558
1067.61,0.049373,386598,345054
1071.29,0.048906,387377,346121
1074.96,0.048458,388536,347515
1078.63,0.047705,389855,349300
1082.3,0.047126,391215,350986
1085.96,0.046447,393215,353332
1090.84,0.045521,396270,356837
1094.49,0.045745,398760,358894
1098.14,0.044957,400987,361554
1101.79,0.044529,403477,364158
1105.43,0.044797,406116,366314
1109.06,0.044149,407701,368292
1112.7,0.044231,409859,370172
1117.53,0.044281,412494,372509
1121.15,0.044913,414909,374145
1124.77,0.045183,416559,375399
1128.38,0.046974,418532,375625
1131.99,0.047745,419956,376235
1135.6,0.050143,421946,375936
1139.2,0.051942,423881,376099
1143.99,0.054285,426786,376639
1147.58,0.055349,428617,377329
1151.17,0.056461,431169,378605
1154.75,0.057540,433579,379777
1158.33,0.059923,436264,380037
1161.91,0.061838,439132,380853
1165.48,0.063822,442389,381929
1169.04,0.066647,446101,382636
1173.79,0.070386,451929,384312
1177.34,0.072842,456026,385609
1180.9,0.074715,461306,388395
1184.44,0.076997,467657,391679
1187.99,0.077600,473969,396415
1191.52,0.077473,479856,401456
1195.06,0.077112,487372,408083
1199.76,0.076130,497347,417378
1203.29,0.075111,504311,424216
1206.81,0.074893,511507,430486
1210.33,0.073754,519078,438005
1213.84,0.072901,527163,445701
1217.35,0.072246,534208,452339
1220.85,0.071638,540472,458285
1225.51,0.070558,549929,467464
1229.01,0.070212,556888,473757
1232.5,0.069621,562180,478910
1235.98,0.068581,567975,485007
1239.46,0.067565,574815,491998
1242.94,0.066819,582782,499674
1246.41,0.066115,591476,507951
1251.03,0.065655,604016,519270
1254.5,0.065663,612289,526373
1257.96,0.066569,619125,531141
1261.41,0.067050,624551,535202
1264.86,0.067862,629900,538778
1268.31,0.068179,634345,542184
1271.75,0.069028,638574,544732
1276.33,0.069270,642499,547775
1279.76,0.069213,645905,550752
1283.19,0.068600,648307,553580
1286.61,0.068246,650446,555860
1290.03,0.068262,652132,557280
1293.44,0.067503,653907,559774
1296.85,0.067135,655963,562010
1301.39,0.066926,657349,563469
1304.8,0.067030,657558,563513
1308.19,0.067090,658515,564255
1311.58,0.067215,658804,564341
1314.97,0.068311,659011,563095
1318.36,0.068475,658272,562251
1321.73,0.069141,658022,561177
1326.23,0.069954,657870,559998
1329.6,0.070917,656482,557578
1332.97,0.071689,654926,555269
1336.33,0.073103,653727,552451
1339.69,0.075028,652497,548973
1343.04,0.076676,649913,544728
1346.39,0.078908,647671,540066
1349.73,0.081030,645338,535497
1354.18,0.084260,641175,528100
1357.52,0.086398,638376,523213
1360.85,0.088351,635805,518768
1364.17,0.090919,633413,513769
1367.49,0.093346,631026,508981
1370.81,0.095933,628050,503572
1374.12,0.098459,625034,498247
1378.54,0.101786,620272,490677
1381.84,0.105379,616892,483983
1385.14,0.109287,613613,477098
1388.43,0.113781,611526,470581
1391.72,0.118336,610663,465014
1395.01,0.123832,610634,459144
1398.29,0.128960,611700,454547
1402.66,0.136858,614051,448071
1405.93,0.142427,616268,443959
1409.2,0.147465,617795,439926
1412.46,0.153397,618872,434714
1415.72,0.157932,619795,430840
1418.98,0.161921,620495,427383
1422.23,0.166187,621087,423609
1426.56,0.170394,621375,419720
1429.8,0.173284,621616,417098
1433.04,0.175810,622129,415021
1436.27,0.178249,621526,412297
1439.5,0.181096,621113,409331
1442.72,0.183426,620921,407015
1445.94,0.185468,620270,404681
1450.23,0.189581,618860,399955
1453.44,0.192388,617697,396632
1456.64,0.195456,616264,392926
1459.85,0.198015,614413,389444
1463.04,0.200554,612307,385847
1466.24,0.204094,610032,381293
1469.43,0.207659,607345,376510
1473.67,0.213662,603789,369167
1476.85,0.219479,601175,362679
1480.02,0.225307,597737,355798
1483.19,0.231756,594479,348643
1486.36,0.237554,591232,342140
1489.52,0.242809,587853,336093
1492.68,0.246598,583875,330919
1496.89,0.248689,578062,326051
1500.03,0.248943,574159,323660
1503.18,0.248785,570285,321593
1506.32,0.248119,565444,319353
1509.45,0.246797,560571,317566
1512.58,0.245275,555821,315980
1515.71,0.243438,550344,314193
1519.87,0.240110,543983,312950
1522.99,0.236515,538764,312524
1526.1,0.234660,533692,310907
1529.21,0.231150,527902,310030
1532.32,0.228374,521886,308462
1535.42,0.225027,515888,307276
1538.51,0.222166,509987,305769
1541.6,0.219048,503936,304318
1545.72,0.214663,494694,301768
1548.8,0.211907,488378,299812
1551.88,0.208945,481832,297818
1554.95,0.207105,474989,294835
1558.02,0.204290,467818,292272
1561.08,0.203459,460730,288395
1564.15,0.202700,454170,284786
1568.22,0.201432,444181,279337
1571.27,0.200558,436947,275341
1574.32,0.199965,429598,271080
1577.36,0.197432,422039,267868
1580.4,0.197236,414375,263122
1583.43,0.195372,406354,259139
1586.46,0.193817,398475,255026
1590.49,0.191257,388982,250422
1593.51,0.189623,380708,246019
1596.53,0.187357,372727,242122
1599.54,0.185796,365060,237995
1602.55,0.182898,357543,234655
1605.55,0.180433,349495,230679
1608.55,0.178686,341154,226081
1612.54,0.176295,330877,220481
1615.53,0.173301,322904,216657
1618.51,0.173179,315116,211491
1621.49,0.171066,307217,207195
1624.47,0.170607,299481,202191
1627.44,0.169005,292112,197945
1630.41,0.168286,284245,192933
1634.36,0.166655,274079,186733
1637.32,0.165848,266916,182191
1640.27,0.165011,259612,177547
1643.22,0.162931,251804,173034
1646.16,0.161535,244348,168451
1649.1,0.162472,236703,162829
1652.04,0.161852,228171,157184
1655.95,0.159016,215408,149364
1658.88,0.155605,204937,143224
1661.8,0.152153,193395,136236
1664.72,0.145483,179728,128568
1667.63,0.135866,163642,119682
1670.54,0.125113,146312,109690
1673.44,0.113651,128451,98875
1677.31,0.099194,105080,83623
1680.21,0.092577,88906,71838
1683.1,0.091427,75033,60789
1685.99,0.091956,63520,51399
1688.87,0.095006,53714,43160
1691.75,0.103746,45653,35952
1694.62,0.110615,39137,30337
1697.49,0.113752,33776,25993
1701.31,0.113985,28175,21671