File: samples/wool/wool-000811/Column 1_050549_20150331_115911.csv
Method:,Column 1,,
Host Date-Time:,31/3/15 @ 11:59:11,,
Header Version:,1,,
System Temp (C):,33.2,,
Detector Temp (C):,31.96,,
Humidity (%):,2.25,,
Lamp PD:,3822,,
Shift Vector Coefficients:,-10.5391,0.0761263,-0.000134223,,
Pixel to Wavelength Coefficients:,1775.68,-0.916766,-0.000235065,,
Serial Number:,5510004,,
Scan Config Name:,Column 1,,
Scan Config Type:,Slew,,
Section 1,,
Start wavelength (nm):,900,,
End wavelength (nm):,1700,,
Pattern Pixel Width (nm):,   7.03,,,,
Exposure (ms):,  0.635,,,,
Digital Resolution:,228,,
Num Repeats:,6,,
PGA Gain:,64,,
Total Measurement Time in sec:,  2.680,,
Wavelength (nm),Absorbance (AU),Reference Signal (unitless),Sample Signal (unitless)
901.51,0.047963,108485,97142
905.376,0.053420,121306,107266
909.237,0.054400,131909,116379
913.095,0.055229,143299,126187
916.948,0.054751,156982,138388
922.079,0.055876,179937,158214
925.923,0.056615,200504,175998
929.762,0.057922,222660,194859
933.597,0.058359,244426,213692
937.427,0.058141,263972,230896
941.254,0.058111,281845,246547
945.076,0.057463,297271,260429
950.165,0.056807,315605,276909
953.978,0.056803,328029,287812
957.786,0.057382,340470,298330
961.59,0.057296,352317,308772
965.389,0.057493,363056,318039
969.185,0.058022,373162,326494
972.976,0.058780,382632,334196
976.763,0.059344,391202,341238
981.806,0.059137,400190,349244
985.583,0.060120,406088,353590
989.355,0.060725,410162,356640
993.124,0.061509,412868,358346
996.888,0.062164,414263,359015
1000.65,0.062696,415476,359625
1004.4,0.064302,415479,358300
1009.41,0.065034,414358,356732
1013.15,0.065651,412923,354992
1016.89,0.066126,411526,353404
1020.63,0.066068,409066,351338
1024.36,0.065692,406777,349675
1028.09,0.065850,404427,347528
1031.82,0.065335,401911,345776
1036.78,0.064397,398410,343505
1040.49,0.064329,396204,341657
1044.2,0.063624,394236,340512
1047.91,0.063440,392042,338760
1051.61,0.062710,389823,337410
1055.31,0.061520,388234,336956
1059,0.060234,387599,337403
1063.92,0.060214,386688,336625
1067.61,0.058451,386598,337916
1071.29,0.058508,387377,338552
1074.96,0.056783,388536,340917
1078.63,0.056614,389855,342207
1082.3,0.055523,391215,344265
1085.96,0.054969,393215,346466
1090.84,0.054237,396270,349747
1094.49,0.053678,398760,352398
1098.14,0.053797,400987,354269
1101.79,0.052964,403477,357153
1105.43,0.053290,406116,359220
1109.06,0.052817,407701,361015
1112.7,0.052272,409859,363381
1117.53,0.052867,412494,365217
1121.15,0.052979,414909,367260
1124.77,0.054214,416559,367674
1128.38,0.055163,418532,368609
1131.99,0.056608,419956,368634
1135.6,0.058976,421946,368367
1139.2,0.061145,423881,368213
1143.99,0.063909,426786,368384
1147.58,0.064924,428617,369101
1151.17,0.066019,431169,370364
1154.75,0.067194,433579,371428
1158.33,0.069083,436264,372106
1161.91,0.071464,439132,372504
1165.48,0.074926,442389,372287
1169.04,0.077596,446101,373110
1173.79,0.081282,451929,374790
1177.34,0.084697,456026,375226
1180.9,0.086996,461306,377566
1184.44,0.089326,467657,380716
1187.99,0.089549,473969,385657
1191.52,0.089265,479856,390702
1195.06,0.088925,487372,397133
1199.76,0.087669,497347,406434
1203.29,0.086009,504311,413704
1206.81,0.084915,511507,420665
1210.33,0.083300,519078,428482
1213.84,0.082864,527163,435593
1217.35,0.081668,534208,442632
1220.85,0.080720,540472,448800
1225.51,0.078529,549929,458963
1229.01,0.078464,556888,464840
1232.5,0.077355,562180,470458
1235.98,0.076975,567975,475723
1239.46,0.075507,574815,483082
1242.94,0.074126,582782,491338
1246.41,0.073274,591476,499647
1251.03,0.072583,604016,511052
1254.5,0.073154,612289,517372
1257.96,0.073336,619125,522928
1261.41,0.073803,624551,526944
1264.86,0.074499,629900,530606
1268.31,0.075290,634345,533378
1271.75,0.075798,638574,536307
1276.33,0.076102,642499,539225
1279.76,0.075986,645905,542229
1283.19,0.074941,648307,545556
1286.61,0.074740,650446,547610
1290.03,0.074479,652132,549359
1293.44,0.074338,653907,551033
1296.85,0.073720,655963,553553
1301.39,0.073782,657349,554643
1304.8,0.073539,657558,555130
1308.19,0.073556,658515,555916
1311.58,0.073870,658804,555759
1314.97,0.074158,659011,555565
1318.36,0.074860,658272,554045
1321.73,0.075215,658022,553382
1326.23,0.076465,657870,551664
1329.6,0.077114,656482,549679
1332.97,0.078164,654926,547051
1336.33,0.079691,653727,544134
1339.69,0.081501,652497,540851
1343.04,0.083472,649913,536270
1346.39,0.085861,647671,531488
1349.73,0.088496,645338,526370
1354.18,0.091993,641175,518780
1357.52,0.094300,638376,513779
1360.85,0.096778,635805,508799
1364.17,0.099296,633413,503954
1367.49,0.102074,631026,498854
1370.81,0.104599,628050,493623
1374.12,0.107088,625034,488445
1378.54,0.110860,620272,480532
1381.84,0.114592,616892,473824
1385.14,0.119349,613613,466171
1388.43,0.124316,611526,459303
1391.72,0.129588,610663,453120
1395.01,0.135047,610634,447439
1398.29,0.140633,611700,442492
1402.66,0.148935,614051,435782
1405.93,0.155442,616268,430852
1409.2,0.161274,617795,426158
1412.46,0.167336,618872,420983
1415.72,0.172318,619795,416802
1418.98,0.176864,620495,412928
1422.23,0.181333,621087,409091
1426.56,0.185420,621375,405447
1429.8,0.188220,621616,402997
1433.04,0.191080,622129,400683
1436.27,0.193857,621526,397743
1439.5,0.195394,621113,396074
1442.72,0.198339,620921,393276
1445.94,0.203024,620270,388648
1450.23,0.205282,618860,385754
1453.44,0.208230,617697,382424
1456.64,0.211106,616264,379019
1459.85,0.213278,614413,375995
1463.04,0.216549,612307,371895
1466.24,0.219949,610032,367624
1469.43,0.222850,607345,363568
1473.67,0.228294,603789,356937
1476.85,0.234135,601175,350644
1480.02,0.239487,597737,344368
1483.19,0.246266,594479,337187
1486.36,0.252793,591232,330343
1489.52,0.258062,587853,324494
1492.68,0.261814,583875,319526
1496.89,0.264602,578062,314320
1500.03,0.266215,574159,311041
1503.18,0.266104,570285,309021
1506.32,0.265100,565444,307107
1509.45,0.264393,560571,304956
1512.58,0.262576,555821,303640
1515.71,0.260514,550344,302079
1519.87,0.256993,543983,301018
1522.99,0.254363,538764,299941
1526.1,0.251903,533692,298805
1529.21,0.248592,527902,297825
1532.32,0.245595,521886,296470
1535.42,0.242314,515888,295285
1538.51,0.238564,509987,294439
1541.6,0.235521,503936,292991
1545.72,0.231128,494694,290542
1548.8,0.227804,488378,289036
1551.88,0.224252,481832,287504
1554.95,0.221901,474989,284959
1558.02,0.220572,467818,281517
1561.08,0.218585,460730,278523
1564.15,0.218477,454170,274626
1568.22,0.216980,444181,269513
1571.27,0.216587,436947,265364
1574.32,0.215503,429598,261553
1577.36,0.214216,422039,257713
1580.4,0.212006,414375,254324
1583.43,0.210659,406354,250176
1586.46,0.208012,398475,246825
1590.49,0.206035,388982,242044
1593.51,0.203457,380708,238306
1596.53,0.201196,372727,234528
1599.54,0.199095,365060,230818
1602.55,0.196612,357543,227361
1605.55,0.194053,349495,223557
1608.55,0.191304,341154,219607
1612.54,0.189602,330877,213828
1615.53,0.187100,322904,209881
1618.51,0.185587,315116,205534
1621.49,0.184050,307217,201092
1624.47,0.181683,299481,197100
1627.44,0.180853,292112,192618
1630.41,0.179907,284245,187839
1634.36,0.177256,274079,182230
1637.32,0.176753,266916,177673
1640.27,0.176264,259612,173006
1643.22,0.175015,251804,168286
1646.16,0.174977,244348,163317
1649.1,0.175505,236703,158015
1652.04,0.171584,228171,153701
1655.95,0.168071,215408,146282
1658.88,0.167373,204937,139395
1661.8,0.164380,193395,132454
1664.72,0.159101,179728,124599
1667.63,0.152669,163642,115140
1670.54,0.143644,146312,105108
1673.44,0.134014,128451,94346
1677.31,0.125297,105080,78745
1680.21,0.120961,88906,67293
1683.1,0.124127,75033,56380
1685.99,0.129042,63520,47192
1688.87,0.131833,53714,39651
1691.75,0.141403,45653,32966
1694.62,0.144067,39137,28088
1697.49,0.141325,33776,24394
1701.31,0.154407,28175,19745