File: samples/wool/wool-000811/Column 1_050557_20150331_120302.csv
Method:,Column 1,,
Host Date-Time:,31/3/15 @ 12:3:2,,
Header Version:,1,,
System Temp (C):,33.54,,
Detector Temp (C):,32.76,,
Humidity (%):,2.34,,
Lamp PD:,3820,,
Shift Vector Coefficients:,-10.5391,0.0761263,-0.000134223,,
Pixel to Wavelength Coefficients:,1775.68,-0.916766,-0.000235065,,
Serial Number:,5510004,,
Scan Config Name:,Column 1,,
Scan Config Type:,Slew,,
Section 1,,
Start wavelength (nm):,900,,
End wavelength (nm):,1700,,
Pattern Pixel Width (nm):,   7.03,,,,
Exposure (ms):,  0.635,,,,
Digital Resolution:,228,,
Num Repeats:,6,,
PGA Gain:,64,,
Total Measurement Time in sec:,  2.667,,
Wavelength (nm),Absorbance (AU),Reference Signal (unitless),Sample Signal (unitless)
901.51,0.034047,108485,100305
905.376,0.040406,121306,110529
909.237,0.041828,131909,119797
913.095,0.043487,143299,129645
916.948,0.042605,156982,142313
922.079,0.044353,179937,162468
925.923,0.045805,200504,180434
929.762,0.047373,222660,199650
933.597,0.046705,244426,219504
937.427,0.046269,263972,237295
941.254,0.046468,281845,253246
945.076,0.046376,297271,267163
950.165,0.045783,315605,284028
953.978,0.045615,328029,295323
957.786,0.045780,340470,306407
961.59,0.046092,352317,316841
965.389,0.046795,363056,325971
969.185,0.046820,373162,335025
972.976,0.047244,382632,343192
976.763,0.047626,391202,350570
981.806,0.048427,400190,357964
985.583,0.049645,406088,362222
989.355,0.049654,410162,365849
993.124,0.049428,412868,368454
996.888,0.050552,414263,368743
1000.65,0.051775,415476,368783
1004.4,0.052432,415479,368228
1009.41,0.054251,414358,365700
1013.15,0.054512,412923,364214
1016.89,0.055451,411526,362198
1020.63,0.055467,409066,360020
1024.36,0.055173,406777,358248
1028.09,0.054865,404427,356431
1031.82,0.054433,401911,354566
1036.78,0.054138,398410,351716
1040.49,0.053663,396204,350151
1044.2,0.053220,394236,348768
1047.91,0.053069,392042,346947
1051.61,0.052755,389823,345233
1055.31,0.052054,388234,344381
1059,0.051269,387599,344440
1063.92,0.050498,386688,344241
1067.61,0.049665,386598,344822
1071.29,0.049598,387377,345570
1074.96,0.048616,388536,347388
1078.63,0.048060,389855,349014
1082.3,0.046908,391215,351162
1085.96,0.046774,393215,353066
1090.84,0.046067,396270,356389
1094.49,0.045787,398760,358860
1098.14,0.045771,400987,360877
1101.79,0.045348,403477,363472
1105.43,0.045421,406116,365788
1109.06,0.043973,407701,368442
1112.7,0.043905,409859,370450
1117.53,0.044394,412494,372412
1121.15,0.045601,414909,373553
1124.77,0.045798,416559,374868
1128.38,0.047320,418532,375326
1131.99,0.047979,419956,376032
1135.6,0.050064,421946,376004
1139.2,0.051956,423881,376087
1143.99,0.054552,426786,376407
1147.58,0.055499,428617,377199
1151.17,0.057079,431169,378067
1154.75,0.057915,433579,379449
1158.33,0.059602,436264,380318
1161.91,0.061610,439132,381053
1165.48,0.063866,442389,381890
1169.04,0.067677,446101,381730
1173.79,0.070908,451929,383851
1177.34,0.072748,456026,385693
1180.9,0.075204,461306,387958
1184.44,0.077304,467657,391402
1187.99,0.077737,473969,396290
1191.52,0.077744,479856,401206
1195.06,0.077769,487372,407466
1199.76,0.076153,497347,417356
1203.29,0.075206,504311,424124
1206.81,0.074766,511507,430611
1210.33,0.074104,519078,437652
1213.84,0.073334,527163,445257
1217.35,0.072535,534208,452038
1220.85,0.072170,540472,457723
1225.51,0.070710,549929,467301
1229.01,0.070105,556888,473874
1232.5,0.069621,562180,478911
1235.98,0.068782,567975,484783
1239.46,0.068086,574815,491408
1242.94,0.067026,582782,499436
1246.41,0.066223,591476,507825
1251.03,0.065868,604016,519016
1254.5,0.066038,612289,525919
1257.96,0.066628,619125,531068
1261.41,0.067182,624551,535039
1264.86,0.068091,629900,538494
1268.31,0.068713,634345,541517
1271.75,0.069446,638574,544209
1276.33,0.069669,642499,547272
1279.76,0.069671,645905,550171
1283.19,0.069196,648307,552821
1286.61,0.068781,650446,555175
1290.03,0.068542,652132,556921
1293.44,0.068148,653907,558944
1296.85,0.068091,655963,560774
1301.39,0.067440,657349,562802
1304.8,0.067499,657558,562905
1308.19,0.067713,658515,563447
1311.58,0.068121,658804,563165
1314.97,0.068192,659011,563249
1318.36,0.068989,658272,561586
1321.73,0.069742,658022,560400
1326.23,0.070671,657870,559074
1329.6,0.071751,656482,556509
1332.97,0.072411,654926,554346
1336.33,0.073880,653727,551463
1339.69,0.075870,652497,547909
1343.04,0.076991,649913,544333
1346.39,0.079443,647671,539401
1349.73,0.081899,645338,534427
1354.18,0.085188,641175,526973
1357.52,0.087572,638376,521800
1360.85,0.089336,635805,517592
1364.17,0.091924,633413,512582
1367.49,0.094403,631026,507743
1370.81,0.096693,628050,502691
1374.12,0.099646,625034,496887
1378.54,0.102601,620272,489758
1381.84,0.106357,616892,482894
1385.14,0.110573,613613,475687
1388.43,0.114862,611526,469411
1391.72,0.120060,610663,463171
1395.01,0.124742,610634,458183
1398.29,0.130954,611700,452464
1402.66,0.138396,614051,446487
1405.93,0.144630,616268,441712
1409.2,0.150339,617795,437024
1412.46,0.156071,618872,432046
1415.72,0.160879,619795,427926
1418.98,0.165203,620495,424165
1422.23,0.169289,621087,420594
1426.56,0.173308,621375,416913
1429.8,0.176568,621616,413956
1433.04,0.179483,622129,411526
1436.27,0.181649,621526,409082
1439.5,0.184240,621113,406378
1442.72,0.186599,620921,404052
1445.94,0.188705,620270,401676
1450.23,0.192461,618860,397312
1453.44,0.195117,617697,394147
1456.64,0.198237,616264,390418
1459.85,0.201101,614413,386687
1463.04,0.204028,612307,382773
1466.24,0.207092,610032,378670
1469.43,0.210486,607345,374067
1473.67,0.215883,603789,367284
1476.85,0.221490,601175,361003
1480.02,0.227343,597737,354134
1483.19,0.233767,594479,347032
1486.36,0.239433,591232,340663
1489.52,0.243721,587853,335388
1492.68,0.247676,583875,330099
1496.89,0.249833,578062,325193
1500.03,0.250550,574159,322465
1503.18,0.251097,570285,319886
1506.32,0.250054,565444,317933
1509.45,0.248798,560571,316106
1512.58,0.246998,555821,314729
1515.71,0.244671,550344,313302
1519.87,0.241212,543983,312157
1522.99,0.239007,538764,310736
1526.1,0.236087,533692,309887
1529.21,0.233112,527902,308632
1532.32,0.229893,521886,307385
1535.42,0.226993,515888,305888
1538.51,0.223564,509987,304786
1541.6,0.220074,503936,303600
1545.72,0.215826,494694,300961
1548.8,0.213252,488378,298885
1551.88,0.210487,481832,296762
1554.95,0.208586,474989,293831
1558.02,0.206105,467818,291053
1561.08,0.204985,460730,287383
1564.15,0.204482,454170,283620
1568.22,0.202676,444181,278538
1571.27,0.202160,436947,274327
1574.32,0.201401,429598,270185
1577.36,0.199952,422039,266318
1580.4,0.198453,414375,262386
1583.43,0.196789,406354,258295
1586.46,0.195079,398475,254286
1590.49,0.192636,388982,249628
1593.51,0.190879,380708,245309
1596.53,0.188461,372727,241507
1599.54,0.186463,365060,237630
1602.55,0.184259,357543,233921
1605.55,0.180796,349495,230486
1608.55,0.179706,341154,225551
1612.54,0.178161,330877,219536
1615.53,0.174336,322904,216141
1618.51,0.174573,315116,210813
1621.49,0.172969,307217,206289
1624.47,0.171515,299481,201769
1627.44,0.171546,292112,196790
1630.41,0.168730,284245,192736
1634.36,0.168260,274079,186044
1637.32,0.166585,266916,181882
1640.27,0.165763,259612,177240
1643.22,0.164671,251804,172342
1646.16,0.165503,244348,166919
1649.1,0.163947,236703,162277
1652.04,0.162590,228171,156917
1655.95,0.159100,215408,149335
1658.88,0.156327,204937,142986
1661.8,0.153920,193395,135683
1664.72,0.147684,179728,127918
1667.63,0.139719,163642,118625
1670.54,0.129530,146312,108580
1673.44,0.119003,128451,97664
1677.31,0.106532,105080,82222
1680.21,0.100964,88906,70464
1683.1,0.102681,75033,59234
1685.99,0.103324,63520,50071
1688.87,0.110066,53714,41689
1691.75,0.117204,45653,34855
1694.62,0.119977,39137,29690
1697.49,0.125265,33776,25313
1701.31,0.137052,28175,20550