File: samples/wool/wool-000811/Column 1_050571_20150331_120941.csv
Method:,Column 1,,
Host Date-Time:,31/3/15 @ 12:9:41,,
Header Version:,1,,
System Temp (C):,34.06,,
Detector Temp (C):,34.17,,
Humidity (%):,1.76,,
Lamp PD:,3818,,
Shift Vector Coefficients:,-10.5391,0.0761263,-0.000134223,,
Pixel to Wavelength Coefficients:,1775.68,-0.916766,-0.000235065,,
Serial Number:,5510004,,
Scan Config Name:,Column 1,,
Scan Config Type:,Slew,,
Section 1,,
Start wavelength (nm):,900,,
End wavelength (nm):,1700,,
Pattern Pixel Width (nm):,   7.03,,,,
Exposure (ms):,  0.635,,,,
Digital Resolution:,228,,
Num Repeats:,6,,
PGA Gain:,64,,
Total Measurement Time in sec:,  2.682,,
Wavelength (nm),Absorbance (AU),Reference Signal (unitless),Sample Signal (unitless)
901.51,0.035457,108485,99980
905.376,0.040308,121306,110554
909.237,0.043634,131909,119300
913.095,0.043163,143299,129742
916.948,0.046492,156982,141045
922.079,0.046991,179937,161484
925.923,0.047996,200504,179526
929.762,0.049556,222660,198649
933.597,0.050265,244426,217712
937.427,0.047964,263972,236371
941.254,0.048236,281845,252217
945.076,0.047692,297271,266355
950.165,0.046720,315605,283416
953.978,0.046525,328029,294705
957.786,0.046142,340470,306152
961.59,0.046917,352317,316240
965.389,0.047144,363056,325709
969.185,0.046805,373162,335037
972.976,0.047615,382632,342899
976.763,0.047921,391202,350332
981.806,0.048868,400190,357601
985.583,0.049317,406088,362496
989.355,0.050169,410162,365415
993.124,0.049798,412868,368140
996.888,0.050971,414263,368388
1000.65,0.051444,415476,369064
1004.4,0.052849,415479,367875
1009.41,0.053831,414358,366054
1013.15,0.054783,412923,363987
1016.89,0.055527,411526,362135
1020.63,0.055003,409066,360405
1024.36,0.055352,406777,358100
1028.09,0.054954,404427,356358
1031.82,0.054678,401911,354366
1036.78,0.054491,398410,351430
1040.49,0.054139,396204,349768
1044.2,0.053562,394236,348493
1047.91,0.053311,392042,346754
1051.61,0.053315,389823,344788
1055.31,0.052682,388234,343884
1059,0.051988,387599,343870
1063.92,0.050663,386688,344110
1067.61,0.049544,386598,344918
1071.29,0.048875,387377,346146
1074.96,0.048877,388536,347180
1078.63,0.048592,389855,348587
1082.3,0.047247,391215,350888
1085.96,0.046311,393215,353443
1090.84,0.045564,396270,356802
1094.49,0.045584,398760,359027
1098.14,0.045058,400987,361470
1101.79,0.044318,403477,364335
1105.43,0.044503,406116,366562
1109.06,0.044217,407701,368235
1112.7,0.044271,409859,370138
1117.53,0.044069,412494,372691
1121.15,0.045041,414909,374035
1124.77,0.045744,416559,374915
1128.38,0.046913,418532,375678
1131.99,0.048382,419956,375683
1135.6,0.050123,421946,375953
1139.2,0.051358,423881,376605
1143.99,0.054238,426786,376680
1147.58,0.054806,428617,377801
1151.17,0.056312,431169,378735
1154.75,0.057766,433579,379579
1158.33,0.059219,436264,380654
1161.91,0.061776,439132,380907
1165.48,0.064194,442389,381602
1169.04,0.066347,446101,382901
1173.79,0.070427,451929,384276
1177.34,0.071986,456026,386370
1180.9,0.074947,461306,388188
1184.44,0.076736,467657,391915
1187.99,0.077454,473969,396548
1191.52,0.077128,479856,401775
1195.06,0.077402,487372,407811
1199.76,0.076826,497347,416710
1203.29,0.075355,504311,423978
1206.81,0.074637,511507,430739
1210.33,0.073560,519078,438200
1213.84,0.073077,527163,445521
1217.35,0.072077,534208,452515
1220.85,0.071302,540472,458639
1225.51,0.070254,549929,467792
1229.01,0.069992,556888,473997
1232.5,0.069641,562180,478889
1235.98,0.068314,567975,485306
1239.46,0.067649,574815,491903
1242.94,0.066272,582782,500304
1246.41,0.065750,591476,508379
1251.03,0.065797,604016,519100
1254.5,0.065635,612289,526407
1257.96,0.066501,619125,531224
1261.41,0.067006,624551,535256
1264.86,0.067660,629900,539028
1268.31,0.068197,634345,542161
1271.75,0.069114,638574,544625
1276.33,0.069323,642499,547709
1279.76,0.069082,645905,550918
1283.19,0.068637,648307,553533
1286.61,0.068124,650446,556016
1290.03,0.067976,652132,557647
1293.44,0.067213,653907,560148
1296.85,0.067305,655963,561790
1301.39,0.066893,657349,563512
1304.8,0.066974,657558,563586
1308.19,0.067155,658515,564171
1311.58,0.067274,658804,564264
1314.97,0.068046,659011,563439
1318.36,0.068165,658272,562653
1321.73,0.068539,658022,561955
1326.23,0.069447,657870,560651
1329.6,0.070409,656482,558231
1332.97,0.071829,654926,555090
1336.33,0.072634,653727,553048
1339.69,0.073991,652497,550285
1343.04,0.075734,649913,545910
1346.39,0.078038,647671,541148
1349.73,0.080342,645338,536346
1354.18,0.083357,641175,529200
1357.52,0.085506,638376,524289
1360.85,0.087392,635805,519915
1364.17,0.090183,633413,514641
1367.49,0.092211,631026,510312
1370.81,0.095226,628050,504392
1374.12,0.097173,625034,499724
1378.54,0.100527,620272,492102
1381.84,0.104103,616892,485407
1385.14,0.107749,613613,478791
1388.43,0.111597,611526,472953
1391.72,0.116530,610663,466951
1395.01,0.121537,610634,461577
1398.29,0.126635,611700,456987
1402.66,0.133697,614051,451344
1405.93,0.139280,616268,447187
1409.2,0.144106,617795,443341
1412.46,0.149117,618872,439020
1415.72,0.153801,619795,434958
1418.98,0.157739,620495,431518
1422.23,0.161931,621087,427781
1426.56,0.165600,621375,424379
1429.8,0.168442,621616,421774
1433.04,0.171247,622129,419405
1436.27,0.173588,621526,416746
1439.5,0.176100,621113,414067
1442.72,0.178510,620921,411648
1445.94,0.180577,620270,409264
1450.23,0.184389,618860,404765
1453.44,0.187474,617697,401145
1456.64,0.190688,616264,397264
1459.85,0.193829,614413,393216
1463.04,0.196480,612307,389484
1466.24,0.199960,610032,384940
1469.43,0.203628,607345,380021
1473.67,0.209820,603789,372448
1476.85,0.215899,601175,365681
1480.02,0.222168,597737,358379
1483.19,0.229190,594479,350709
1486.36,0.235211,591232,343991
1489.52,0.240718,587853,337715
1492.68,0.244391,583875,332605
1496.89,0.246354,578062,327809
1500.03,0.247240,574159,324932
1503.18,0.246974,570285,322937
1506.32,0.246362,565444,320647
1509.45,0.245633,560571,318418
1512.58,0.243707,555821,317123
1515.71,0.241108,550344,315883
1519.87,0.238063,543983,314429
1522.99,0.234786,538764,313771
1526.1,0.233050,533692,312062
1529.21,0.229618,527902,311125
1532.32,0.226719,521886,309640
1535.42,0.222725,515888,308909
1538.51,0.219749,509987,307475
1541.6,0.216704,503936,305965
1545.72,0.212169,494694,303506
1548.8,0.208764,488378,301990
1551.88,0.206603,481832,299428
1554.95,0.204531,474989,296587
1558.02,0.202621,467818,293397
1561.08,0.200899,460730,290100
1564.15,0.201130,454170,285817
1568.22,0.199398,444181,280648
1571.27,0.199321,436947,276126
1574.32,0.197745,429598,272469
1577.36,0.196479,422039,268456
1580.4,0.195762,414375,264017
1583.43,0.193207,406354,260434
1586.46,0.192319,398475,255907
1590.49,0.190021,388982,251136
1593.51,0.187930,380708,246980
1596.53,0.184400,372727,243776
1599.54,0.183227,365060,239407
1602.55,0.180641,357543,235878
1605.55,0.177676,349495,232148
1608.55,0.176573,341154,227184
1612.54,0.174307,330877,221493
1615.53,0.171736,322904,217439
1618.51,0.171596,315116,212263
1621.49,0.170724,307217,207358
1624.47,0.168443,299481,203201
1627.44,0.167352,292112,198700
1630.41,0.166958,284245,193524
1634.36,0.164502,274079,187661
1637.32,0.163108,266916,183344
1640.27,0.163597,259612,178126
1643.22,0.162447,251804,173227
1646.16,0.160572,244348,168825
1649.1,0.160928,236703,163409
1652.04,0.158418,228171,158432
1655.95,0.156780,215408,150135
1658.88,0.152833,204937,144141
1661.8,0.148364,193395,137430
1664.72,0.141605,179728,129721
1667.63,0.131249,163642,120961
1670.54,0.118957,146312,111256
1673.44,0.104515,128451,100977
1677.31,0.089376,105080,85535
1680.21,0.079043,88906,74112
1683.1,0.074913,75033,63145
1685.99,0.077178,63520,53178
1688.87,0.079217,53714,44758
1691.75,0.087400,45653,37331
1694.62,0.091487,39137,31703
1697.49,0.097293,33776,26997
1701.31,0.110572,28175,21842