File: samples/wool/wool-000811/Column 1_050613_20150331_122934.csv
Method:,Column 1,,
Host Date-Time:,31/3/15 @ 12:29:34,,
Header Version:,1,,
System Temp (C):,34.09,,
Detector Temp (C):,34.9,,
Humidity (%):,1.66,,
Lamp PD:,3818,,
Shift Vector Coefficients:,-10.5391,0.0761263,-0.000134223,,
Pixel to Wavelength Coefficients:,1775.68,-0.916766,-0.000235065,,
Serial Number:,5510004,,
Scan Config Name:,Column 1,,
Scan Config Type:,Slew,,
Section 1,,
Start wavelength (nm):,900,,
End wavelength (nm):,1700,,
Pattern Pixel Width (nm):,   7.03,,,,
Exposure (ms):,  0.635,,,,
Digital Resolution:,228,,
Num Repeats:,6,,
PGA Gain:,64,,
Total Measurement Time in sec:,  2.674,,
Wavelength (nm),Absorbance (AU),Reference Signal (unitless),Sample Signal (unitless)
901.51,0.068028,108485,92756
905.376,0.074436,121306,102199
909.237,0.076771,131909,110536
913.095,0.079625,143299,119294
916.948,0.078174,156982,131122
922.079,0.081692,179937,149083
925.923,0.080899,200504,166427
929.762,0.081006,222660,184772
933.597,0.081720,244426,202501
937.427,0.079595,263972,219767
941.254,0.079216,281845,234852
945.076,0.078585,297271,248066
950.165,0.077823,315605,263828
953.978,0.076891,328029,274803
957.786,0.077688,340470,284702
961.59,0.077332,352317,294850
965.389,0.077430,363056,303769
969.185,0.077452,373162,312209
972.976,0.077847,382632,319841
976.763,0.078537,391202,326486
981.806,0.078809,400190,333778
985.583,0.078799,406088,338705
989.355,0.079670,410162,341417
993.124,0.080049,412868,343370
996.888,0.080251,414263,344370
1000.65,0.081344,415476,344510
1004.4,0.082521,415479,343580
1009.41,0.083688,414358,341734
1013.15,0.084007,412923,340300
1016.89,0.084712,411526,338599
1020.63,0.084617,409066,336648
1024.36,0.084577,406777,334795
1028.09,0.084332,404427,333049
1031.82,0.084061,401911,331184
1036.78,0.083692,398410,328578
1040.49,0.083585,396204,326839
1044.2,0.083507,394236,325274
1047.91,0.083231,392042,323669
1051.61,0.082208,389823,322596
1055.31,0.082517,388234,321053
1059,0.083014,387599,320161
1063.92,0.081063,386688,320847
1067.61,0.080404,386598,321259
1071.29,0.080143,387377,322100
1074.96,0.079446,388536,323583
1078.63,0.078942,389855,325058
1082.3,0.077758,391215,327083
1085.96,0.076925,393215,329386
1090.84,0.076334,396270,332397
1094.49,0.075678,398760,334991
1098.14,0.075508,400987,336994
1101.79,0.074616,403477,339784
1105.43,0.074514,406116,342087
1109.06,0.073946,407701,343871
1112.7,0.073591,409859,345974
1117.53,0.072983,412494,348686
1121.15,0.073399,414909,350392
1124.77,0.073533,416559,351677
1128.38,0.074639,418532,352444
1131.99,0.075220,419956,353170
1135.6,0.076919,421946,353458
1139.2,0.078818,423881,353530
1143.99,0.080239,426786,354790
1147.58,0.081403,428617,355358
1151.17,0.081900,431169,357065
1154.75,0.083853,433579,357450
1158.33,0.084223,436264,359357
1161.91,0.085746,439132,360453
1165.48,0.087947,442389,361291
1169.04,0.090388,446101,362281
1173.79,0.094280,451929,363739
1177.34,0.095536,456026,365977
1180.9,0.098239,461306,367917
1184.44,0.099705,467657,371726
1187.99,0.100844,473969,375756
1191.52,0.100898,479856,380376
1195.06,0.100862,487372,386366
1199.76,0.100028,497347,395031
1203.29,0.099275,504311,401258
1206.81,0.098679,511507,407542
1210.33,0.098135,519078,414093
1213.84,0.098034,527163,420640
1217.35,0.097157,534208,427123
1220.85,0.096479,540472,432807
1225.51,0.095428,549929,441447
1229.01,0.095836,556888,446614
1232.5,0.094197,562180,452562
1235.98,0.093836,567975,457608
1239.46,0.093085,574815,463920
1242.94,0.091930,582782,471603
1246.41,0.091401,591476,479221
1251.03,0.091262,604016,489538
1254.5,0.091575,612289,495885
1257.96,0.091703,619125,501274
1261.41,0.092603,624551,504621
1264.86,0.093191,629900,508254
1268.31,0.093632,634345,511321
1271.75,0.094153,638574,514113
1276.33,0.094378,642499,517005
1279.76,0.093626,645905,520646
1283.19,0.093397,648307,522858
1286.61,0.093407,650446,524571
1290.03,0.092720,652132,526763
1293.44,0.092335,653907,528665
1296.85,0.092011,655963,530723
1301.39,0.092025,657349,531828
1304.8,0.091658,657558,532446
1308.19,0.092226,658515,532524
1311.58,0.092360,658804,532594
1314.97,0.092850,659011,532161
1318.36,0.092709,658272,531736
1321.73,0.093265,658022,530855
1326.23,0.093948,657870,529898
1329.6,0.094801,656482,527742
1332.97,0.095866,654926,525202
1336.33,0.096758,653727,523165
1339.69,0.098030,652497,520653
1343.04,0.099436,649913,516915
1346.39,0.101522,647671,512664
1349.73,0.103259,645338,508778
1354.18,0.106273,641175,502000
1357.52,0.107903,638376,497936
1360.85,0.110083,635805,493448
1364.17,0.112370,633413,489009
1367.49,0.114322,631026,484982
1370.81,0.116699,628050,480060
1374.12,0.118517,625034,475759
1378.54,0.121564,620272,468833
1381.84,0.124422,616892,463220
1385.14,0.127448,613613,457558
1388.43,0.131227,611526,452051
1391.72,0.135101,610663,447405
1395.01,0.139137,610634,443245
1398.29,0.143238,611700,439846
1402.66,0.149406,614051,435310
1405.93,0.154212,616268,432073
1409.2,0.158954,617795,428440
1412.46,0.163010,618872,425198
1415.72,0.167050,619795,421889
1418.98,0.170518,620495,419006
1422.23,0.173195,621087,416829
1426.56,0.177515,621375,412894
1429.8,0.180146,621616,410560
1433.04,0.182622,622129,408562
1436.27,0.184657,621526,406258
1439.5,0.186488,621113,404280
1442.72,0.189311,620921,401537
1445.94,0.191488,620270,399110
1450.23,0.195099,618860,394906
1453.44,0.197886,617697,391642
1456.64,0.200819,616264,388104
1459.85,0.203806,614413,384286
1463.04,0.205923,612307,381106
1466.24,0.209347,610032,376709
1469.43,0.213870,607345,371164
1473.67,0.219445,603789,364284
1476.85,0.225431,601175,357742
1480.02,0.231865,597737,350465
1483.19,0.238105,594479,343583
1486.36,0.243864,591232,337205
1489.52,0.248552,587853,331678
1492.68,0.252201,583875,326677
1496.89,0.254266,578062,321891
1500.03,0.254420,574159,319604
1503.18,0.254956,570285,317056
1506.32,0.254027,565444,315038
1509.45,0.253150,560571,312954
1512.58,0.251609,555821,311405
1515.71,0.249380,550344,309923
1519.87,0.245821,543983,308862
1522.99,0.243034,538764,307868
1526.1,0.240677,533692,306629
1529.21,0.237544,527902,305499
1532.32,0.234758,521886,303961
1535.42,0.231714,515888,302581
1538.51,0.229260,509987,300815
1541.6,0.226360,503936,299237
1545.72,0.221857,494694,296811
1548.8,0.219316,488378,294741
1551.88,0.217196,481832,292213
1554.95,0.214761,474989,289683
1558.02,0.213993,467818,285814
1561.08,0.213213,460730,281990
1564.15,0.211787,454170,278889
1568.22,0.210592,444181,273507
1571.27,0.210520,436947,269097
1574.32,0.210103,429598,264825
1577.36,0.208158,422039,261333
1580.4,0.207177,414375,257168
1583.43,0.205535,406354,253145
1586.46,0.204727,398475,248699
1590.49,0.201875,388982,244374
1593.51,0.200533,380708,239916
1596.53,0.198464,372727,236008
1599.54,0.196367,365060,232272
1602.55,0.194467,357543,228487
1605.55,0.192616,349495,224298
1608.55,0.190907,341154,219808
1612.54,0.188669,330877,214288
1615.53,0.187113,322904,209875
1618.51,0.186257,315116,205217
1621.49,0.185179,307217,200570
1624.47,0.184193,299481,195964
1627.44,0.183567,292112,191418
1630.41,0.181554,284245,187128
1634.36,0.181846,274079,180314
1637.32,0.179817,266916,176424
1640.27,0.180142,259612,171468
1643.22,0.178500,251804,166941
1646.16,0.177318,244348,162439
1649.1,0.177221,236703,157392
1652.04,0.176103,228171,152110
1655.95,0.171137,215408,145253
1658.88,0.168981,204937,138880
1661.8,0.162708,193395,132965
1664.72,0.155222,179728,125717
1667.63,0.143299,163642,117651
1670.54,0.128184,146312,108917
1673.44,0.111889,128451,99277
1677.31,0.089391,105080,85532
1680.21,0.079846,88906,73975
1683.1,0.072034,75033,63565
1685.99,0.075329,63520,53405
1688.87,0.074229,53714,45275
1691.75,0.080429,45653,37935
1694.62,0.086245,39137,32088
1697.49,0.085831,33776,27719
1701.31,0.096409,28175,22566