File: samples/wool/wool-000811/Column 1_050569_20150331_120858.csv
Method:,Column 1,,
Host Date-Time:,31/3/15 @ 12:8:58,,
Header Version:,1,,
System Temp (C):,34.04,,
Detector Temp (C):,34.07,,
Humidity (%):,1.76,,
Lamp PD:,3818,,
Shift Vector Coefficients:,-10.5391,0.0761263,-0.000134223,,
Pixel to Wavelength Coefficients:,1775.68,-0.916766,-0.000235065,,
Serial Number:,5510004,,
Scan Config Name:,Column 1,,
Scan Config Type:,Slew,,
Section 1,,
Start wavelength (nm):,900,,
End wavelength (nm):,1700,,
Pattern Pixel Width (nm):,   7.03,,,,
Exposure (ms):,  0.635,,,,
Digital Resolution:,228,,
Num Repeats:,6,,
PGA Gain:,64,,
Total Measurement Time in sec:,  2.724,,
Wavelength (nm),Absorbance (AU),Reference Signal (unitless),Sample Signal (unitless)
901.51,0.034762,108485,100140
905.376,0.041401,121306,110276
909.237,0.044188,131909,119148
913.095,0.043022,143299,129784
916.948,0.046055,156982,141187
922.079,0.047085,179937,161449
925.923,0.047643,200504,179672
929.762,0.048372,222660,199191
933.597,0.049197,244426,218248
937.427,0.048074,263972,236311
941.254,0.048136,281845,252275
945.076,0.047907,297271,266223
950.165,0.047184,315605,283113
953.978,0.046525,328029,294705
957.786,0.046818,340470,305676
961.59,0.046653,352317,316432
965.389,0.047023,363056,325800
969.185,0.047081,373162,334824
972.976,0.046985,382632,343397
976.763,0.048635,391202,349757
981.806,0.048417,400190,357972
985.583,0.049730,406088,362151
989.355,0.049820,410162,365709
993.124,0.049893,412868,368060
996.888,0.050698,414263,368619
1000.65,0.051596,415476,368935
1004.4,0.052542,415479,368135
1009.41,0.054460,414358,365524
1013.15,0.054400,412923,364308
1016.89,0.055120,411526,362474
1020.63,0.054471,409066,360846
1024.36,0.054981,406777,358406
1028.09,0.054391,404427,356820
1031.82,0.054373,401911,354615
1036.78,0.053874,398410,351930
1040.49,0.053982,396204,349894
1044.2,0.053222,394236,348766
1047.91,0.052793,392042,347168
1051.61,0.051720,389823,346057
1055.31,0.051896,388234,344507
1059,0.051520,387599,344241
1063.92,0.050303,386688,344396
1067.61,0.049861,386598,344666
1071.29,0.049169,387377,345911
1074.96,0.048670,388536,347345
1078.63,0.047963,389855,349092
1082.3,0.046970,391215,351112
1085.96,0.046661,393215,353158
1090.84,0.045407,396270,356931
1094.49,0.044679,398760,359776
1098.14,0.045139,400987,361403
1101.79,0.045078,403477,363698
1105.43,0.044744,406116,366358
1109.06,0.044437,407701,368048
1112.7,0.044192,409859,370205
1117.53,0.044487,412494,372332
1121.15,0.044860,414909,374191
1124.77,0.045556,416559,375077
1128.38,0.046777,418532,375796
1131.99,0.048011,419956,376004
1135.6,0.049898,421946,376148
1139.2,0.051695,423881,376313
1143.99,0.054692,426786,376286
1147.58,0.055493,428617,377204
1151.17,0.056024,431169,378986
1154.75,0.057638,433579,379691
1158.33,0.058978,436264,380865
1161.91,0.061702,439132,380972
1165.48,0.063585,442389,382137
1169.04,0.066223,446101,383010
1173.79,0.070339,451929,384354
1177.34,0.072706,456026,385730
1180.9,0.074637,461306,388465
1184.44,0.076539,467657,392092
1187.99,0.077082,473969,396888
1191.52,0.077588,479856,401350
1195.06,0.077357,487372,407853
1199.76,0.075775,497347,417719
1203.29,0.075360,504311,423973
1206.81,0.075983,511507,429406
1210.33,0.073298,519078,438465
1213.84,0.073245,527163,445348
1217.35,0.071675,534208,452935
1220.85,0.071018,540472,458939
1225.51,0.070633,549929,467384
1229.01,0.069915,556888,474081
1232.5,0.069387,562180,479169
1235.98,0.068605,567975,484980
1239.46,0.067745,574815,491794
1242.94,0.066514,582782,500025
1246.41,0.066114,591476,507952
1251.03,0.065685,604016,519234
1254.5,0.065792,612289,526217
1257.96,0.066552,619125,531161
1261.41,0.067111,624551,535127
1264.86,0.067442,629900,539299
1268.31,0.068121,634345,542256
1271.75,0.069037,638574,544721
1276.33,0.069426,642499,547578
1279.76,0.069124,645905,550864
1283.19,0.068583,648307,553602
1286.61,0.068195,650446,555925
1290.03,0.067851,652132,557808
1293.44,0.067310,653907,560023
1296.85,0.067499,655963,561539
1301.39,0.067221,657349,563087
1304.8,0.066909,657558,563670
1308.19,0.067280,658515,564008
1311.58,0.066948,658804,564688
1314.97,0.067745,659011,563829
1318.36,0.068274,658272,562511
1321.73,0.068843,658022,561562
1326.23,0.069754,657870,560255
1329.6,0.070218,656482,558476
1332.97,0.071439,654926,555589
1336.33,0.072588,653727,553106
1339.69,0.073973,652497,550307
1343.04,0.075811,649913,545813
1346.39,0.078102,647671,541069
1349.73,0.080404,645338,536270
1354.18,0.083255,641175,529324
1357.52,0.085941,638376,523764
1360.85,0.088112,635805,519053
1364.17,0.089919,633413,514954
1367.49,0.092472,631026,510006
1370.81,0.094962,628050,504699
1374.12,0.097382,625034,499484
1378.54,0.100510,620272,492121
1381.84,0.103945,616892,485584
1385.14,0.108278,613613,478208
1388.43,0.111980,611526,472536
1391.72,0.117127,610663,466310
1395.01,0.121890,610634,461202
1398.29,0.126868,611700,456741
1402.66,0.134117,614051,450907
1405.93,0.139474,616268,446988
1409.2,0.144950,617795,442481
1412.46,0.150104,618872,438023
1415.72,0.154544,619795,434214
1418.98,0.158444,620495,430818
1422.23,0.162106,621087,427609
1426.56,0.166629,621375,423375
1429.8,0.168838,621616,421390
1433.04,0.172010,622129,418669
1436.27,0.174509,621526,415863
1439.5,0.176302,621113,413874
1442.72,0.179142,620921,411050
1445.94,0.181295,620270,408588
1450.23,0.185044,618860,404155
1453.44,0.188080,617697,400586
1456.64,0.191243,616264,396756
1459.85,0.193974,614413,393085
1463.04,0.196809,612307,389189
1466.24,0.200333,610032,384609
1469.43,0.203898,607345,379785
1473.67,0.209908,603789,372372
1476.85,0.215878,601175,365698
1480.02,0.222245,597737,358315
1483.19,0.229088,594479,350791
1486.36,0.235312,591232,343911
1489.52,0.240686,587853,337740
1492.68,0.244297,583875,332677
1496.89,0.246287,578062,327859
1500.03,0.247125,574159,325018
1503.18,0.247753,570285,322358
1506.32,0.246734,565444,320373
1509.45,0.245238,560571,318708
1512.58,0.243966,555821,316934
1515.71,0.241563,550344,315552
1519.87,0.238476,543983,314130
1522.99,0.235167,538764,313496
1526.1,0.233192,533692,311960
1529.21,0.229871,527902,310944
1532.32,0.226883,521886,309523
1535.42,0.223361,515888,308457
1538.51,0.219961,509987,307325
1541.6,0.216770,503936,305918
1545.72,0.212377,494694,303361
1548.8,0.209843,488378,301240
1551.88,0.206434,481832,299545
1554.95,0.205147,474989,296167
1558.02,0.202504,467818,293476
1561.08,0.200691,460730,290239
1564.15,0.200704,454170,286098
1568.22,0.199962,444181,280284
1571.27,0.198592,436947,276590
1574.32,0.198270,429598,272140
1577.36,0.197172,422039,268028
1580.4,0.195694,414375,264058
1583.43,0.193589,406354,260205
1586.46,0.191646,398475,256304
1590.49,0.189350,388982,251524
1593.51,0.187421,380708,247270
1596.53,0.185004,372727,243437
1599.54,0.182932,365060,239570
1602.55,0.180705,357543,235843
1605.55,0.178828,349495,231533
1608.55,0.176464,341154,227241
1612.54,0.174775,330877,221254
1615.53,0.171800,322904,217407
1618.51,0.171455,315116,212332
1621.49,0.168773,307217,208292
1624.47,0.168512,299481,203169
1627.44,0.167179,292112,198779
1630.41,0.166653,284245,193660
1634.36,0.164305,274079,187746
1637.32,0.164474,266916,182768
1640.27,0.163536,259612,178151
1643.22,0.161731,251804,173513
1646.16,0.161113,244348,168615
1649.1,0.160625,236703,163523
1652.04,0.159326,228171,158101
1655.95,0.156052,215408,150387
1658.88,0.154263,204937,143667
1661.8,0.148984,193395,137234
1664.72,0.141693,179728,129695
1667.63,0.131346,163642,120934
1670.54,0.118157,146312,111461
1673.44,0.106010,128451,100630
1677.31,0.091703,105080,85078
1680.21,0.081281,88906,73731
1683.1,0.078234,75033,62664
1685.99,0.080647,63520,52755
1688.87,0.079887,53714,44689
1691.75,0.086180,45653,37436
1694.62,0.090994,39137,31739
1697.49,0.096794,33776,27028
1701.31,0.103413,28175,22205