File: samples/wool/wool-000811/Column 1_050541_20150331_115532.csv
Method:,Column 1,,
Host Date-Time:,31/3/15 @ 11:55:32,,
Header Version:,1,,
System Temp (C):,32.35,,
Detector Temp (C):,30.63,,
Humidity (%):,2.92,,
Lamp PD:,3824,,
Shift Vector Coefficients:,-10.5391,0.0761263,-0.000134223,,
Pixel to Wavelength Coefficients:,1775.68,-0.916766,-0.000235065,,
Serial Number:,5510004,,
Scan Config Name:,Column 1,,
Scan Config Type:,Slew,,
Section 1,,
Start wavelength (nm):,900,,
End wavelength (nm):,1700,,
Pattern Pixel Width (nm):,   7.03,,,,
Exposure (ms):,  0.635,,,,
Digital Resolution:,228,,
Num Repeats:,6,,
PGA Gain:,64,,
Total Measurement Time in sec:,  2.733,,
Wavelength (nm),Absorbance (AU),Reference Signal (unitless),Sample Signal (unitless)
901.51,0.043754,108485,98088
905.376,0.049470,121306,108246
909.237,0.050654,131909,117387
913.095,0.051773,143299,127195
916.948,0.052804,156982,139010
922.079,0.052651,179937,159393
925.923,0.053243,200504,177370
929.762,0.052546,222660,197286
933.597,0.053350,244426,216171
937.427,0.053366,263972,233449
941.254,0.053888,281845,248956
945.076,0.053990,297271,262520
950.165,0.053979,315605,278718
953.978,0.053360,328029,290103
957.786,0.053909,340470,300725
961.59,0.055059,352317,310366
965.389,0.054518,363056,320225
969.185,0.054938,373162,328821
972.976,0.055450,382632,336768
976.763,0.056486,391202,343491
981.806,0.056771,400190,351152
985.583,0.057864,406088,355432
989.355,0.058419,410162,358539
993.124,0.058936,412868,360475
996.888,0.059193,414263,361479
1000.65,0.060427,415476,361509
1004.4,0.061513,415479,360609
1009.41,0.062637,414358,358706
1013.15,0.063267,412923,356946
1016.89,0.063674,411526,355405
1020.63,0.063320,409066,353568
1024.36,0.063844,406777,351166
1028.09,0.063715,404427,349241
1031.82,0.063078,401911,347578
1036.78,0.062792,398410,344777
1040.49,0.062125,396204,343395
1044.2,0.061065,394236,342524
1047.91,0.060741,392042,340872
1051.61,0.059856,389823,339634
1055.31,0.059795,388234,338297
1059,0.058911,387599,338432
1063.92,0.056991,386688,339133
1067.61,0.056374,386598,339536
1071.29,0.054875,387377,341396
1074.96,0.054764,388536,342505
1078.63,0.054544,389855,343842
1082.3,0.052920,391215,346334
1085.96,0.052518,393215,348427
1090.84,0.051876,396270,351654
1094.49,0.051856,398760,353880
1098.14,0.050688,400987,356814
1101.79,0.050496,403477,359189
1105.43,0.050724,406116,361348
1109.06,0.050597,407701,362865
1112.7,0.050455,409859,364905
1117.53,0.050591,412494,367136
1121.15,0.051181,414909,368784
1124.77,0.051429,416559,370039
1128.38,0.053129,418532,370339
1131.99,0.054569,419956,370369
1135.6,0.057217,421946,369862
1139.2,0.058959,423881,370071
1143.99,0.061910,426786,370084
1147.58,0.062794,428617,370916
1151.17,0.064242,431169,371882
1154.75,0.065634,433579,372764
1158.33,0.068157,436264,372900
1161.91,0.070107,439132,373670
1165.48,0.073127,442389,373833
1169.04,0.075769,446101,374683
1173.79,0.079957,451929,375935
1177.34,0.082927,456026,376758
1180.9,0.085450,461306,378913
1184.44,0.087479,467657,382339
1187.99,0.088243,473969,386818
1191.52,0.087923,479856,391911
1195.06,0.087363,487372,398564
1199.76,0.085554,497347,408419
1203.29,0.084283,504311,415351
1206.81,0.083132,511507,422396
1210.33,0.081475,519078,430286
1213.84,0.080760,527163,437708
1217.35,0.079619,534208,444725
1220.85,0.078706,540472,450886
1225.51,0.077312,549929,460251
1229.01,0.076952,556888,466462
1232.5,0.075829,562180,472114
1235.98,0.074951,567975,477945
1239.46,0.074012,574815,484748
1242.94,0.072775,582782,492869
1246.41,0.071742,591476,501412
1251.03,0.071664,604016,512135
1254.5,0.071609,612289,519215
1257.96,0.072200,619125,524298
1261.41,0.072638,624551,528360
1264.86,0.073129,629900,532283
1268.31,0.073500,634345,535581
1271.75,0.074514,638574,537895
1276.33,0.074978,642499,540623
1279.76,0.074867,645905,543628
1283.19,0.074259,648307,546414
1286.61,0.073694,650446,548930
1290.03,0.073633,652132,550430
1293.44,0.072609,653907,553232
1296.85,0.072507,655963,555102
1301.39,0.072541,657349,556231
1304.8,0.072202,657558,556842
1308.19,0.072555,658515,557199
1311.58,0.072939,658804,556951
1314.97,0.073718,659011,556128
1318.36,0.073872,658272,555307
1321.73,0.074535,658022,554249
1326.23,0.075761,657870,552559
1329.6,0.076900,656482,549949
1332.97,0.077910,654926,547372
1336.33,0.079441,653727,544447
1339.69,0.081202,652497,541223
1343.04,0.083240,649913,536556
1346.39,0.085450,647671,531991
1349.73,0.088012,645338,526957
1354.18,0.091759,641175,519060
1357.52,0.094135,638376,513974
1360.85,0.096687,635805,508905
1364.17,0.098686,633413,504663
1367.49,0.101751,631026,499225
1370.81,0.104512,628050,493722
1374.12,0.107107,625034,488424
1378.54,0.110880,620272,480510
1381.84,0.114769,616892,473631
1385.14,0.119501,613613,466008
1388.43,0.124422,611526,459191
1391.72,0.130597,610663,452069
1395.01,0.136234,610634,446218
1398.29,0.142448,611700,440647
1402.66,0.151171,614051,433544
1405.93,0.157725,616268,428593
1409.2,0.164750,617795,422760
1412.46,0.170325,618872,418096
1415.72,0.175868,619795,413409
1418.98,0.180658,620495,409336
1422.23,0.184118,621087,406476
1426.56,0.189311,621375,401830
1429.8,0.192176,621616,399343
1433.04,0.195402,622129,396715
1436.27,0.197943,621526,394018
1439.5,0.200117,621113,391790
1442.72,0.202966,620921,389108
1445.94,0.205757,620270,386210
1450.23,0.209026,618860,382443
1453.44,0.212110,617697,379023
1456.64,0.214832,616264,375781
1459.85,0.218049,614413,371887
1463.04,0.220302,612307,368695
1466.24,0.223555,610032,364584
1469.43,0.226590,607345,360450
1473.67,0.231721,603789,354131
1476.85,0.236554,601175,348696
1480.02,0.241904,597737,342457
1483.19,0.248410,594479,335526
1486.36,0.253979,591232,329442
1489.52,0.259757,587853,323230
1492.68,0.262526,583875,319002
1496.89,0.265717,578062,313514
1500.03,0.266344,574159,310948
1503.18,0.266741,570285,308568
1506.32,0.266630,565444,306027
1509.45,0.264855,560571,304632
1512.58,0.264454,555821,302330
1515.71,0.261580,550344,301338
1519.87,0.258870,543983,299720
1522.99,0.255724,538764,299002
1526.1,0.252856,533692,298150
1529.21,0.250647,527902,296419
1532.32,0.246851,521886,295614
1535.42,0.243349,515888,294582
1538.51,0.239998,509987,293468
1541.6,0.237220,503936,291847
1545.72,0.232490,494694,289632
1548.8,0.229306,488378,288038
1551.88,0.226102,481832,286282
1554.95,0.223983,474989,283596
1558.02,0.221575,467818,280868
1561.08,0.220707,460730,277166
1564.15,0.220045,454170,273636
1568.22,0.218097,444181,268821
1571.27,0.217462,436947,264830
1574.32,0.217300,429598,260473
1577.36,0.214353,422039,257632
1580.4,0.214513,414375,252860
1583.43,0.211721,406354,249565
1586.46,0.208947,398475,246294
1590.49,0.206585,388982,241738
1593.51,0.204579,380708,237691
1596.53,0.202925,372727,233596
1599.54,0.200272,365060,230193
1602.55,0.197733,357543,226775
1605.55,0.195731,349495,222695
1608.55,0.191983,341154,219264
1612.54,0.190171,330877,213548
1615.53,0.187247,322904,209810
1618.51,0.185999,315116,205339
1621.49,0.184924,307217,200688
1624.47,0.183071,299481,196471
1627.44,0.182108,292112,192062
1630.41,0.180495,284245,187585
1634.36,0.178303,274079,181791
1637.32,0.177431,266916,177396
1640.27,0.176922,259612,172744
1643.22,0.175945,251804,167926
1646.16,0.174980,244348,163316
1649.1,0.174303,236703,158453
1652.04,0.172687,228171,153311
1655.95,0.169871,215408,145677
1658.88,0.169785,204937,138623
1661.8,0.168161,193395,131306
1664.72,0.167136,179728,122315
1667.63,0.159542,163642,113332
1670.54,0.155825,146312,102201
1673.44,0.149353,128451,91072
1677.31,0.145666,105080,75137
1680.21,0.142968,88906,63968
1683.1,0.145060,75033,53727
1685.99,0.151477,63520,44816
1688.87,0.157774,53714,37352
1691.75,0.160828,45653,31524
1694.62,0.158802,39137,27151
1697.49,0.170312,33776,22819
1701.31,0.167899,28175,19141