File: samples/wool/wool-000811/Column 1_050554_20150331_120159.csv
Method:,Column 1,,
Host Date-Time:,31/3/15 @ 12:1:59,,
Header Version:,1,,
System Temp (C):,33.47,,
Detector Temp (C):,32.5,,
Humidity (%):,2.44,,
Lamp PD:,3820,,
Shift Vector Coefficients:,-10.5391,0.0761263,-0.000134223,,
Pixel to Wavelength Coefficients:,1775.68,-0.916766,-0.000235065,,
Serial Number:,5510004,,
Scan Config Name:,Column 1,,
Scan Config Type:,Slew,,
Section 1,,
Start wavelength (nm):,900,,
End wavelength (nm):,1700,,
Pattern Pixel Width (nm):,   7.03,,,,
Exposure (ms):,  0.635,,,,
Digital Resolution:,228,,
Num Repeats:,6,,
PGA Gain:,64,,
Total Measurement Time in sec:,  2.727,,
Wavelength (nm),Absorbance (AU),Reference Signal (unitless),Sample Signal (unitless)
901.51,0.032444,108485,100676
905.376,0.039131,121306,110854
909.237,0.042082,131909,119727
913.095,0.041722,143299,130173
916.948,0.043164,156982,142130
922.079,0.044917,179937,162257
925.923,0.045956,200504,180371
929.762,0.046104,222660,200234
933.597,0.046019,244426,219851
937.427,0.045876,263972,237510
941.254,0.046205,281845,253399
945.076,0.045545,297271,267675
950.165,0.045975,315605,283902
953.978,0.045080,328029,295687
957.786,0.045466,340470,306629
961.59,0.045915,352317,316970
965.389,0.045977,363056,326585
969.185,0.046499,373162,335273
972.976,0.047461,382632,343021
976.763,0.047349,391202,350794
981.806,0.048121,400190,358216
985.583,0.048511,406088,363169
989.355,0.049569,410162,365920
993.124,0.050179,412868,367817
996.888,0.050532,414263,368760
1000.65,0.051036,415476,369411
1004.4,0.052208,415479,368418
1009.41,0.054073,414358,365850
1013.15,0.054292,412923,364399
1016.89,0.055132,411526,362464
1020.63,0.054372,409066,360929
1024.36,0.055090,406777,358316
1028.09,0.054397,404427,356815
1031.82,0.054485,401911,354523
1036.78,0.053748,398410,352032
1040.49,0.053432,396204,350338
1044.2,0.053159,394236,348817
1047.91,0.052570,392042,347346
1051.61,0.052567,389823,345383
1055.31,0.052071,388234,344368
1059,0.051277,387599,344434
1063.92,0.050208,386688,344471
1067.61,0.049471,386598,344976
1071.29,0.049164,387377,345915
1074.96,0.048459,388536,347514
1078.63,0.048243,389855,348867
1082.3,0.047137,391215,350977
1085.96,0.046387,393215,353381
1090.84,0.046121,396270,356345
1094.49,0.045511,398760,359088
1098.14,0.045176,400987,361372
1101.79,0.044904,403477,363844
1105.43,0.044698,406116,366397
1109.06,0.044276,407701,368185
1112.7,0.043839,409859,370506
1117.53,0.044474,412494,372343
1121.15,0.045697,414909,373470
1124.77,0.045568,416559,375067
1128.38,0.046609,418532,375941
1131.99,0.047887,419956,376112
1135.6,0.050723,421946,375434
1139.2,0.051802,423881,376220
1143.99,0.054663,426786,376311
1147.58,0.055688,428617,377035
1151.17,0.056786,431169,378322
1154.75,0.057958,433579,379411
1158.33,0.060050,436264,379926
1161.91,0.061607,439132,381055
1165.48,0.064215,442389,381583
1169.04,0.067016,446101,382311
1173.79,0.071162,451929,383626
1177.34,0.073170,456026,385318
1180.9,0.075275,461306,387895
1184.44,0.077324,467657,391384
1187.99,0.078373,473969,395710
1191.52,0.078010,479856,400960
1195.06,0.077773,487372,407462
1199.76,0.076798,497347,416736
1203.29,0.075372,504311,423962
1206.81,0.074845,511507,430533
1210.33,0.074341,519078,437413
1213.84,0.073907,527163,444670
1217.35,0.072889,534208,451670
1220.85,0.072096,540472,457801
1225.51,0.070735,549929,467274
1229.01,0.070139,556888,473837
1232.5,0.069784,562180,478731
1235.98,0.068867,567975,484688
1239.46,0.068217,574815,491260
1242.94,0.067192,582782,499245
1246.41,0.066279,591476,507760
1251.03,0.065961,604016,518905
1254.5,0.066356,612289,525533
1257.96,0.066939,619125,530688
1261.41,0.067165,624551,535060
1264.86,0.067625,629900,539072
1268.31,0.068595,634345,541665
1271.75,0.069348,638574,544331
1276.33,0.069617,642499,547338
1279.76,0.069609,645905,550249
1283.19,0.068614,648307,553563
1286.61,0.068295,650446,555797
1290.03,0.068118,652132,557465
1293.44,0.067776,653907,559423
1296.85,0.067870,655963,561060
1301.39,0.067301,657349,562983
1304.8,0.067568,657558,562815
1308.19,0.067798,658515,563336
1311.58,0.068022,658804,563293
1314.97,0.068870,659011,562371
1318.36,0.069326,658272,561151
1321.73,0.069625,658022,560551
1326.23,0.070780,657870,558934
1329.6,0.071358,656482,557012
1332.97,0.072311,654926,554474
1336.33,0.073827,653727,551530
1339.69,0.075710,652497,548111
1343.04,0.077849,649913,543258
1346.39,0.079567,647671,539247
1349.73,0.082063,645338,534225
1354.18,0.085470,641175,526631
1357.52,0.087977,638376,521314
1360.85,0.089705,635805,517153
1364.17,0.092183,633413,512276
1367.49,0.094256,631026,507915
1370.81,0.097141,628050,502173
1374.12,0.099338,625034,497240
1378.54,0.103249,620272,489027
1381.84,0.106862,616892,482333
1385.14,0.110697,613613,475551
1388.43,0.115375,611526,468856
1391.72,0.120725,610663,462463
1395.01,0.126192,610634,456656
1398.29,0.131395,611700,452005
1402.66,0.139673,614051,445176
1405.93,0.145644,616268,440682
1409.2,0.151804,617795,435552
1412.46,0.157183,618872,430941
1415.72,0.162053,619795,426771
1418.98,0.166461,620495,422939
1422.23,0.170560,621087,419365
1426.56,0.175470,621375,414843
1429.8,0.178586,621616,412037
1433.04,0.181373,622129,409739
1436.27,0.183386,621526,407449
1439.5,0.185812,621113,404910
1442.72,0.188445,620921,402338
1445.94,0.190703,620270,399832
1450.23,0.194650,618860,395314
1453.44,0.197312,617697,392160
1456.64,0.199774,616264,389039
1459.85,0.202685,614413,385279
1463.04,0.205541,612307,381442
1466.24,0.208622,610032,377338
1469.43,0.211833,607345,372909
1473.67,0.216825,603789,366488
1476.85,0.222489,601175,360174
1480.02,0.228381,597737,353288
1483.19,0.234037,594479,346816
1486.36,0.240418,591232,339891
1489.52,0.244899,587853,334480
1492.68,0.247994,583875,329857
1496.89,0.250205,578062,324915
1500.03,0.250951,574159,322167
1503.18,0.251440,570285,319633
1506.32,0.251215,565444,317084
1509.45,0.248795,560571,316108
1512.58,0.247526,555821,314347
1515.71,0.245186,550344,312931
1519.87,0.242157,543983,311479
1522.99,0.239487,538764,310393
1526.1,0.236801,533692,309378
1529.21,0.233970,527902,308023
1532.32,0.230340,521886,307069
1535.42,0.227871,515888,305270
1538.51,0.224676,509987,304007
1541.6,0.222196,503936,302120
1545.72,0.217156,494694,300041
1548.8,0.213738,488378,298551
1551.88,0.211174,481832,296293
1554.95,0.209139,474989,293457
1558.02,0.206477,467818,290804
1561.08,0.205575,460730,286993
1564.15,0.204055,454170,283899
1568.22,0.203537,444181,277986
1571.27,0.202926,436947,273844
1574.32,0.202024,429598,269798
1577.36,0.200114,422039,266219
1580.4,0.199450,414375,261784
1583.43,0.197708,406354,257749
1586.46,0.196224,398475,253616
1590.49,0.193385,388982,249198
1593.51,0.191279,380708,245083
1596.53,0.189104,372727,241150
1599.54,0.186531,365060,237593
1602.55,0.185142,357543,233446
1605.55,0.182798,349495,229426
1608.55,0.180471,341154,225154
1612.54,0.178291,330877,219470
1615.53,0.175997,322904,215316
1618.51,0.175086,315116,210564
1621.49,0.174004,307217,205798
1624.47,0.172094,299481,201500
1627.44,0.171257,292112,196921
1630.41,0.169833,284245,192247
1634.36,0.168412,274079,185979
1637.32,0.167364,266916,181556
1640.27,0.166359,259612,176997
1643.22,0.165133,251804,172159
1646.16,0.164090,244348,167463
1649.1,0.163899,236703,162295
1652.04,0.162757,228171,156857
1655.95,0.160951,215408,148700
1658.88,0.157105,204937,142730
1661.8,0.155019,193395,135340
1664.72,0.149467,179728,127394
1667.63,0.140484,163642,118416
1670.54,0.131768,146312,108022
1673.44,0.119666,128451,97515
1677.31,0.111360,105080,81313
1680.21,0.103349,88906,70078
1683.1,0.103202,75033,59163
1685.99,0.106205,63520,49740
1688.87,0.111788,53714,41524
1691.75,0.122091,45653,34465
1694.62,0.118182,39137,29813
1697.49,0.118861,33776,25689
1701.31,0.140681,28175,20379