File: samples/wool/wool-000811/Column 1_050585_20150331_121639.csv
Method:,Column 1,,
Host Date-Time:,31/3/15 @ 12:16:39,,
Header Version:,1,,
System Temp (C):,33.76,,
Detector Temp (C):,34.56,,
Humidity (%):,1.86,,
Lamp PD:,3819,,
Shift Vector Coefficients:,-10.5391,0.0761263,-0.000134223,,
Pixel to Wavelength Coefficients:,1775.68,-0.916766,-0.000235065,,
Serial Number:,5510004,,
Scan Config Name:,Column 1,,
Scan Config Type:,Slew,,
Section 1,,
Start wavelength (nm):,900,,
End wavelength (nm):,1700,,
Pattern Pixel Width (nm):,   7.03,,,,
Exposure (ms):,  0.635,,,,
Digital Resolution:,228,,
Num Repeats:,6,,
PGA Gain:,64,,
Total Measurement Time in sec:,  2.722,,
Wavelength (nm),Absorbance (AU),Reference Signal (unitless),Sample Signal (unitless)
901.51,0.070088,108485,92317
905.376,0.075129,121306,102036
909.237,0.078026,131909,110217
913.095,0.078868,143299,119502
916.948,0.080429,156982,130443
922.079,0.081657,179937,149095
925.923,0.081688,200504,166125
929.762,0.083101,222660,183883
933.597,0.083461,244426,201691
937.427,0.082998,263972,218052
941.254,0.081926,281845,233391
945.076,0.080006,297271,247256
950.165,0.079479,315605,262824
953.978,0.079552,328029,273124
957.786,0.080133,340470,283104
961.59,0.080242,352317,292881
965.389,0.080086,363056,301917
969.185,0.079788,373162,310534
972.976,0.079540,382632,318597
976.763,0.080912,391202,324705
981.806,0.080650,400190,332366
985.583,0.082110,406088,336132
989.355,0.082230,410162,339411
993.124,0.082426,412868,341496
996.888,0.083460,414263,341835
1000.65,0.083838,415476,342537
1004.4,0.084677,415479,341879
1009.41,0.086031,414358,339895
1013.15,0.086046,412923,338706
1016.89,0.087797,411526,336202
1020.63,0.086419,409066,335254
1024.36,0.086907,406777,333004
1028.09,0.086928,404427,331064
1031.82,0.087129,401911,328852
1036.78,0.086362,398410,326564
1040.49,0.085700,396204,325251
1044.2,0.086401,394236,323114
1047.91,0.085645,392042,321875
1051.61,0.084934,389823,320578
1055.31,0.084925,388234,319278
1059,0.084555,387599,319027
1063.92,0.083848,386688,318796
1067.61,0.083259,386598,319154
1071.29,0.082856,387377,320094
1074.96,0.082492,388536,321321
1078.63,0.081013,389855,323512
1082.3,0.080642,391215,324918
1085.96,0.080243,393215,326879
1090.84,0.079602,396270,329905
1094.49,0.078994,398760,332443
1098.14,0.077914,400987,335132
1101.79,0.077519,403477,337520
1105.43,0.077496,406116,339746
1109.06,0.076553,407701,341813
1112.7,0.076210,409859,343894
1117.53,0.076433,412494,345927
1121.15,0.076798,414909,347660
1124.77,0.077035,416559,348852
1128.38,0.077585,418532,350061
1131.99,0.078857,419956,350225
1135.6,0.080475,421946,350576
1139.2,0.081578,423881,351290
1143.99,0.083919,426786,351796
1147.58,0.084113,428617,353148
1151.17,0.085884,431169,353805
1154.75,0.086226,433579,355502
1158.33,0.088116,436264,356150
1161.91,0.089916,439132,357009
1165.48,0.092003,442389,357933
1169.04,0.093983,446101,359294
1173.79,0.097608,451929,360963
1177.34,0.099431,456026,362709
1180.9,0.101527,461306,365142
1184.44,0.103106,467657,368826
1187.99,0.104326,473969,372755
1191.52,0.104211,479856,377485
1195.06,0.103979,487372,383603
1199.76,0.103145,497347,392206
1203.29,0.102478,504311,398309
1206.81,0.102794,511507,403699
1210.33,0.101375,519078,411015
1213.84,0.101324,527163,417466
1217.35,0.100371,534208,423974
1220.85,0.099816,540472,429494
1225.51,0.098866,549929,437966
1229.01,0.098768,556888,443609
1232.5,0.098122,562180,448491
1235.98,0.097717,567975,453536
1239.46,0.096314,574815,460484
1242.94,0.095841,582782,467375
1246.41,0.094744,591476,475547
1251.03,0.094670,604016,485712
1254.5,0.095078,612289,491902
1257.96,0.095300,619125,497140
1261.41,0.096000,624551,500689
1264.86,0.096558,629900,504329
1268.31,0.096919,634345,507465
1271.75,0.097718,638574,509910
1276.33,0.097596,642499,513188
1279.76,0.097728,645905,515752
1283.19,0.096811,648307,518764
1286.61,0.096931,650446,520332
1290.03,0.096542,652132,522148
1293.44,0.095840,653907,524416
1296.85,0.096030,655963,525835
1301.39,0.095481,657349,527612
1304.8,0.095777,657558,527421
1308.19,0.096134,658515,527754
1311.58,0.095878,658804,528297
1314.97,0.096604,659011,527581
1318.36,0.096828,658272,526717
1321.73,0.097234,658022,526025
1326.23,0.097642,657870,525410
1329.6,0.099240,656482,522375
1332.97,0.099693,654926,520594
1336.33,0.101573,653727,517397
1339.69,0.103121,652497,514586
1343.04,0.104657,649913,510738
1346.39,0.106561,647671,506750
1349.73,0.108240,645338,502976
1354.18,0.111238,641175,496294
1357.52,0.113057,638376,492062
1360.85,0.114849,635805,488062
1364.17,0.117583,633413,483174
1367.49,0.119611,631026,479111
1370.81,0.121805,628050,474449
1374.12,0.123880,625034,469920
1378.54,0.127562,620272,462402
1381.84,0.130527,616892,456754
1385.14,0.133611,613613,451111
1388.43,0.138198,611526,444853
1391.72,0.142910,610663,439432
1395.01,0.147563,610634,434728
1398.29,0.152320,611700,430743
1402.66,0.159750,614051,425064
1405.93,0.165375,616268,421109
1409.2,0.170231,617795,417459
1412.46,0.175063,618872,413559
1415.72,0.179459,619795,410005
1418.98,0.183314,620495,406841
1422.23,0.187350,621087,403462
1426.56,0.191390,621375,399911
1429.8,0.194097,621616,397581
1433.04,0.196855,622129,395390
1436.27,0.198835,621526,393210
1439.5,0.200680,621113,391283
1442.72,0.203055,620921,389028
1445.94,0.205491,620270,386447
1450.23,0.208464,618860,382938
1453.44,0.212221,617697,378926
1456.64,0.214034,616264,376472
1459.85,0.216976,614413,372807
1463.04,0.219656,612307,369244
1466.24,0.222677,610032,365322
1469.43,0.225421,607345,361422
1473.67,0.231352,603789,354432
1476.85,0.236205,601175,348976
1480.02,0.241092,597737,343098
1483.19,0.247415,594479,336296
1486.36,0.252540,591232,330535
1489.52,0.256823,587853,325421
1492.68,0.259551,583875,321195
1496.89,0.261646,578062,316467
1500.03,0.262156,574159,313961
1503.18,0.262188,570285,311820
1506.32,0.260816,565444,310151
1509.45,0.259698,560571,308271
1512.58,0.258414,555821,306564
1515.71,0.256624,550344,304797
1519.87,0.253315,543983,303578
1522.99,0.251268,538764,302086
1526.1,0.248142,533692,301404
1529.21,0.245822,527902,299731
1532.32,0.242960,521886,298274
1535.42,0.239935,515888,296907
1538.51,0.237585,509987,295103
1541.6,0.234745,503936,293515
1545.72,0.230617,494694,290884
1548.8,0.227297,488378,289374
1551.88,0.226038,481832,286324
1554.95,0.223134,474989,284151
1558.02,0.221726,467818,280770
1561.08,0.219922,460730,277667
1564.15,0.220029,454170,273646
1568.22,0.219373,444181,268032
1571.27,0.218190,436947,264386
1574.32,0.216136,429598,261172
1577.36,0.215878,422039,256729
1580.4,0.214537,414375,252846
1583.43,0.213093,406354,248778
1586.46,0.211254,398475,244989
1590.49,0.209612,388982,240059
1593.51,0.207862,380708,235901
1596.53,0.205497,372727,232217
1599.54,0.203820,365060,228320
1602.55,0.201401,357543,224868
1605.55,0.199950,349495,220542
1608.55,0.198348,341154,216074
1612.54,0.195584,330877,210903
1615.53,0.193470,322904,206825
1618.51,0.193704,315116,201728
1621.49,0.191628,307217,197614
1624.47,0.190486,299481,193145
1627.44,0.189768,292112,188704
1630.41,0.189125,284245,183894
1634.36,0.186958,274079,178204
1637.32,0.186487,266916,173735
1640.27,0.185637,259612,169312
1643.22,0.184902,251804,164498
1646.16,0.184030,244348,159948
1649.1,0.183780,236703,155033
1652.04,0.180632,228171,150532
1655.95,0.178762,215408,142725
1658.88,0.174580,204937,137101
1661.8,0.169911,193395,130778
1664.72,0.162071,179728,123750
1667.63,0.150633,163642,115681
1670.54,0.137107,146312,106702
1673.44,0.121080,128451,97198
1677.31,0.100932,105080,83289
1680.21,0.091514,88906,72014
1683.1,0.084904,75033,61709
1685.99,0.085973,63520,52112
1688.87,0.089288,53714,43732
1691.75,0.093893,45653,36777
1694.62,0.096364,39137,31349
1697.49,0.103776,33776,26597
1701.31,0.100373,28175,22361