File: samples/wool/wool-000811/Column 1_050620_20150331_123320.csv
Method:,Column 1,,
Host Date-Time:,31/3/15 @ 12:33:20,,
Header Version:,1,,
System Temp (C):,34.12,,
Detector Temp (C):,35.01,,
Humidity (%):,1.56,,
Lamp PD:,3818,,
Shift Vector Coefficients:,-10.5391,0.0761263,-0.000134223,,
Pixel to Wavelength Coefficients:,1775.68,-0.916766,-0.000235065,,
Serial Number:,5510004,,
Scan Config Name:,Column 1,,
Scan Config Type:,Slew,,
Section 1,,
Start wavelength (nm):,900,,
End wavelength (nm):,1700,,
Pattern Pixel Width (nm):,   7.03,,,,
Exposure (ms):,  0.635,,,,
Digital Resolution:,228,,
Num Repeats:,6,,
PGA Gain:,64,,
Total Measurement Time in sec:,  2.672,,
Wavelength (nm),Absorbance (AU),Reference Signal (unitless),Sample Signal (unitless)
901.51,0.067747,108485,92816
905.376,0.074669,121306,102144
909.237,0.076578,131909,110585
913.095,0.079785,143299,119250
916.948,0.078370,156982,131063
922.079,0.080578,179937,149466
925.923,0.082080,200504,165975
929.762,0.082975,222660,183936
933.597,0.082154,244426,202299
937.427,0.081054,263972,219030
941.254,0.080043,281845,234405
945.076,0.079895,297271,247319
950.165,0.078045,315605,263693
953.978,0.077166,328029,274629
957.786,0.078125,340470,284416
961.59,0.077904,352317,294462
965.389,0.077649,363056,303616
969.185,0.078087,373162,311753
972.976,0.077691,382632,319956
976.763,0.078632,391202,326414
981.806,0.078838,400190,333755
985.583,0.079335,406088,338287
989.355,0.079940,410162,341205
993.124,0.080196,412868,343254
996.888,0.080910,414263,343848
1000.65,0.081884,415476,344082
1004.4,0.082702,415479,343437
1009.41,0.084140,414358,341378
1013.15,0.084458,412923,339947
1016.89,0.084754,411526,338566
1020.63,0.084341,409066,336862
1024.36,0.085398,406777,334163
1028.09,0.084661,404427,332797
1031.82,0.084579,401911,330789
1036.78,0.083653,398410,328607
1040.49,0.084009,396204,326520
1044.2,0.083516,394236,325267
1047.91,0.083363,392042,323571
1051.61,0.083229,389823,321839
1055.31,0.083043,388234,320664
1059,0.082378,387599,320630
1063.92,0.081110,386688,320812
1067.61,0.080744,386598,321008
1071.29,0.080324,387377,321966
1074.96,0.079674,388536,323413
1078.63,0.078847,389855,325129
1082.3,0.078273,391215,326695
1085.96,0.077941,393215,328616
1090.84,0.076646,396270,332158
1094.49,0.076823,398760,334109
1098.14,0.075837,400987,336739
1101.79,0.074892,403477,339568
1105.43,0.074712,406116,341931
1109.06,0.074229,407701,343647
1112.7,0.073605,409859,345963
1117.53,0.073629,412494,348168
1121.15,0.073725,414909,350129
1124.77,0.074221,416559,351120
1128.38,0.075345,418532,351871
1131.99,0.075583,419956,352875
1135.6,0.077840,421946,352709
1139.2,0.079033,423881,353355
1143.99,0.080475,426786,354597
1147.58,0.081400,428617,355361
1151.17,0.082007,431169,356977
1154.75,0.082978,433579,358171
1158.33,0.084441,436264,359177
1161.91,0.085830,439132,360384
1165.48,0.088161,442389,361113
1169.04,0.090746,446101,361982
1173.79,0.093777,451929,364161
1177.34,0.096008,456026,365579
1180.9,0.097875,461306,368226
1184.44,0.099990,467657,371482
1187.99,0.101137,473969,375503
1191.52,0.100712,479856,380539
1195.06,0.100373,487372,386801
1199.76,0.100518,497347,394586
1203.29,0.099313,504311,401223
1206.81,0.098654,511507,407566
1210.33,0.098161,519078,414068
1213.84,0.098136,527163,420542
1217.35,0.097051,534208,427228
1220.85,0.096674,540472,432613
1225.51,0.095794,549929,441075
1229.01,0.095147,556888,447323
1232.5,0.094569,562180,452175
1235.98,0.093797,567975,457649
1239.46,0.093350,574815,463637
1242.94,0.092176,582782,471335
1246.41,0.091301,591476,479332
1251.03,0.091646,604016,489105
1254.5,0.091556,612289,495907
1257.96,0.091918,619125,501026
1261.41,0.092576,624551,504652
1264.86,0.093034,629900,508438
1268.31,0.093694,634345,511248
1271.75,0.094255,638574,513992
1276.33,0.094287,642499,517113
1279.76,0.094138,645905,520033
1283.19,0.093926,648307,522221
1286.61,0.093880,650446,524000
1290.03,0.093067,652132,526342
1293.44,0.092669,653907,528259
1296.85,0.092168,655963,530532
1301.39,0.092159,657349,531664
1304.8,0.092113,657558,531889
1308.19,0.092086,658515,532696
1311.58,0.092278,658804,532695
1314.97,0.092253,659011,532893
1318.36,0.092774,658272,531657
1321.73,0.093476,658022,530597
1326.23,0.094018,657870,529812
1329.6,0.094744,656482,527812
1332.97,0.095391,654926,525776
1336.33,0.096172,653727,523871
1339.69,0.097988,652497,520704
1343.04,0.099544,649913,516787
1346.39,0.101306,647671,512919
1349.73,0.103305,645338,508724
1354.18,0.105949,641175,502374
1357.52,0.108270,638376,497515
1360.85,0.109661,635805,493927
1364.17,0.112174,633413,489230
1367.49,0.113940,631026,485408
1370.81,0.116001,628050,480832
1374.12,0.118274,625034,476025
1378.54,0.121119,620272,469314
1381.84,0.124249,616892,463404
1385.14,0.127368,613613,457643
1388.43,0.130264,611526,453055
1391.72,0.134497,610663,448027
1395.01,0.138077,610634,444328
1398.29,0.142637,611700,440455
1402.66,0.148165,614051,436555
1405.93,0.152771,616268,433509
1409.2,0.157506,617795,429871
1412.46,0.161570,618872,426610
1415.72,0.165695,619795,423207
1418.98,0.169038,620495,420436
1422.23,0.172325,621087,417664
1426.56,0.176297,621375,414054
1429.8,0.178286,621616,412322
1433.04,0.181357,622129,409754
1436.27,0.183332,621526,407500
1439.5,0.185237,621113,405447
1442.72,0.187577,620921,403143
1445.94,0.190073,620270,400413
1450.23,0.193373,618860,396478
1453.44,0.196646,617697,392762
1456.64,0.199168,616264,389582
1459.85,0.202847,614413,385135
1463.04,0.205131,612307,381802
1466.24,0.208753,610032,377224
1469.43,0.212842,607345,372043
1473.67,0.219011,603789,364648
1476.85,0.225134,601175,357987
1480.02,0.230330,597737,351706
1483.19,0.238431,594479,343325
1486.36,0.244173,591232,336965
1489.52,0.248806,587853,331484
1492.68,0.251894,583875,326908
1496.89,0.254553,578062,321678
1500.03,0.254890,574159,319258
1503.18,0.253971,570285,317776
1506.32,0.253883,565444,315142
1509.45,0.252568,560571,313374
1512.58,0.250267,555821,312369
1515.71,0.248533,550344,310528
1519.87,0.245735,543983,308923
1522.99,0.243239,538764,307723
1526.1,0.240665,533692,306638
1529.21,0.237225,527902,305723
1532.32,0.234805,521886,303928
1535.42,0.231516,515888,302719
1538.51,0.229150,509987,300891
1541.6,0.226073,503936,299435
1545.72,0.221475,494694,297072
1548.8,0.219036,488378,294931
1551.88,0.216464,481832,292706
1554.95,0.215139,474989,289431
1558.02,0.213378,467818,286219
1561.08,0.211678,460730,282988
1564.15,0.212462,454170,278456
1568.22,0.210819,444181,273364
1571.27,0.209820,436947,269531
1574.32,0.209544,429598,265166
1577.36,0.208443,422039,261162
1580.4,0.207961,414375,256704
1583.43,0.205257,406354,253307
1586.46,0.203912,398475,249166
1590.49,0.202090,388982,244253
1593.51,0.200482,380708,239944
1596.53,0.199302,372727,235553
1599.54,0.196654,365060,232119
1602.55,0.194564,357543,228436
1605.55,0.191834,349495,224702
1608.55,0.190767,341154,219879
1612.54,0.189352,330877,213951
1615.53,0.187345,322904,209763
1618.51,0.186623,315116,205044
1621.49,0.184738,307217,200774
1624.47,0.184357,299481,195890
1627.44,0.182542,292112,191870
1630.41,0.181035,284245,187352
1634.36,0.180300,274079,180957
1637.32,0.180228,266916,176257
1640.27,0.180038,259612,171509
1643.22,0.179153,251804,166690
1646.16,0.178132,244348,162135
1649.1,0.177887,236703,157151
1652.04,0.175880,228171,152188
1655.95,0.172607,215408,144762
1658.88,0.168631,204937,138992
1661.8,0.163486,193395,132727
1664.72,0.155391,179728,125668
1667.63,0.142694,163642,117815
1670.54,0.127857,146312,108999
1673.44,0.109825,128451,99750
1677.31,0.091509,105080,85116
1680.21,0.077814,88906,74322
1683.1,0.073684,75033,63324
1685.99,0.075158,63520,53426
1688.87,0.078412,53714,44841
1691.75,0.084339,45653,37595
1694.62,0.083694,39137,32277
1697.49,0.097293,33776,26997
1701.31,0.092692,28175,22760