File: samples/wool/wool-000811/Column 1_050551_20150331_120022.csv
Method:,Column 1,,
Host Date-Time:,31/3/15 @ 12:0:22,,
Header Version:,1,,
System Temp (C):,33.28,,
Detector Temp (C):,32.45,,
Humidity (%):,3.77,,
Lamp PD:,3820,,
Shift Vector Coefficients:,-10.5391,0.0761263,-0.000134223,,
Pixel to Wavelength Coefficients:,1775.68,-0.916766,-0.000235065,,
Serial Number:,5510004,,
Scan Config Name:,Column 1,,
Scan Config Type:,Slew,,
Section 1,,
Start wavelength (nm):,900,,
End wavelength (nm):,1700,,
Pattern Pixel Width (nm):,   7.03,,,,
Exposure (ms):,  0.635,,,,
Digital Resolution:,228,,
Num Repeats:,6,,
PGA Gain:,64,,
Total Measurement Time in sec:,  2.667,,
Wavelength (nm),Absorbance (AU),Reference Signal (unitless),Sample Signal (unitless)
901.51,0.032202,108485,100732
905.376,0.038908,121306,110911
909.237,0.041412,131909,119912
913.095,0.041639,143299,130198
916.948,0.042197,156982,142447
922.079,0.043386,179937,162830
925.923,0.043306,200504,181475
929.762,0.045565,222660,200483
933.597,0.044946,244426,220395
937.427,0.045114,263972,237927
941.254,0.045233,281845,253967
945.076,0.045360,297271,267789
950.165,0.045231,315605,284389
953.978,0.044342,328029,296190
957.786,0.044586,340470,307251
961.59,0.046323,352317,316673
965.389,0.045678,363056,326810
969.185,0.046571,373162,335217
972.976,0.046796,382632,343546
976.763,0.047728,391202,350488
981.806,0.047011,400190,359133
985.583,0.048662,406088,363043
989.355,0.048591,410162,366745
993.124,0.049904,412868,368050
996.888,0.050284,414263,368971
1000.65,0.051144,415476,369319
1004.4,0.052267,415479,368368
1009.41,0.053455,414358,366371
1013.15,0.053544,412923,365027
1016.89,0.054841,411526,362707
1020.63,0.054719,409066,360640
1024.36,0.053993,406777,359222
1028.09,0.054082,404427,357074
1031.82,0.053818,401911,355068
1036.78,0.053179,398410,352494
1040.49,0.053548,396204,350244
1044.2,0.053076,394236,348883
1047.91,0.051741,392042,348010
1051.61,0.051847,389823,345956
1055.31,0.051157,388234,345093
1059,0.050574,387599,344992
1063.92,0.049955,386688,344672
1067.61,0.048814,386598,345498
1071.29,0.048442,387377,346491
1074.96,0.048180,388536,347737
1078.63,0.047494,389855,349469
1082.3,0.046590,391215,351419
1085.96,0.046136,393215,353585
1090.84,0.045426,396270,356915
1094.49,0.045422,398760,359161
1098.14,0.044731,400987,361742
1101.79,0.044648,403477,364058
1105.43,0.044172,406116,366841
1109.06,0.044080,407701,368351
1112.7,0.043328,409859,370942
1117.53,0.043319,412494,373335
1121.15,0.044211,414909,374750
1124.77,0.045091,416559,375479
1128.38,0.046744,418532,375824
1131.99,0.047920,419956,376083
1135.6,0.049985,421946,376073
1139.2,0.051848,423881,376180
1143.99,0.054385,426786,376552
1147.58,0.055205,428617,377454
1151.17,0.056723,431169,378377
1154.75,0.057828,433579,379525
1158.33,0.059649,436264,380277
1161.91,0.062399,439132,380361
1165.48,0.064424,442389,381400
1169.04,0.067416,446101,381959
1173.79,0.070845,451929,383906
1177.34,0.072728,456026,385711
1180.9,0.075116,461306,388037
1184.44,0.076699,467657,391948
1187.99,0.078072,473969,395984
1191.52,0.078060,479856,400914
1195.06,0.077883,487372,407359
1199.76,0.076751,497347,416782
1203.29,0.075600,504311,423739
1206.81,0.075667,511507,429719
1210.33,0.073688,519078,438071
1213.84,0.073162,527163,445434
1217.35,0.072527,534208,452047
1220.85,0.071577,540472,458349
1225.51,0.070935,549929,467059
1229.01,0.070683,556888,473244
1232.5,0.069628,562180,478903
1235.98,0.068998,567975,484542
1239.46,0.067790,574815,491743
1242.94,0.066625,582782,499898
1246.41,0.066505,591476,507496
1251.03,0.066105,604016,518733
1254.5,0.066128,612289,525809
1257.96,0.066766,619125,530899
1261.41,0.067593,624551,534533
1264.86,0.067938,629900,538683
1268.31,0.068700,634345,541534
1271.75,0.069308,638574,544381
1276.33,0.069628,642499,547324
1279.76,0.069816,645905,549987
1283.19,0.069002,648307,553068
1286.61,0.068852,650446,555085
1290.03,0.068374,652132,557137
1293.44,0.067836,653907,559345
1296.85,0.067824,655963,561119
1301.39,0.067614,657349,562577
1304.8,0.067052,657558,563485
1308.19,0.067892,658515,563214
1311.58,0.068202,658804,563059
1314.97,0.069059,659011,562126
1318.36,0.069624,658272,560766
1321.73,0.069884,658022,560217
1326.23,0.070751,657870,558971
1329.6,0.071723,656482,556544
1332.97,0.072886,654926,553740
1336.33,0.074001,653727,551309
1339.69,0.076038,652497,547697
1343.04,0.078321,649913,542668
1346.39,0.080229,647671,538425
1349.73,0.082541,645338,533637
1354.18,0.085703,641175,526349
1357.52,0.087815,638376,521509
1360.85,0.090316,635805,516426
1364.17,0.092612,633413,511770
1367.49,0.094829,631026,507246
1370.81,0.097428,628050,501841
1374.12,0.099948,625034,496542
1378.54,0.103522,620272,488720
1381.84,0.107345,616892,481797
1385.14,0.111460,613613,474717
1388.43,0.116436,611526,467712
1391.72,0.121777,610663,461344
1395.01,0.126934,610634,455876
1398.29,0.132994,611700,450344
1402.66,0.141447,614051,443361
1405.93,0.147763,616268,438537
1409.2,0.153890,617795,433465
1412.46,0.159735,618872,428416
1415.72,0.164509,619795,424365
1418.98,0.169394,620495,420092
1422.23,0.173048,621087,416970
1426.56,0.178762,621375,411710
1429.8,0.181443,621616,409335
1433.04,0.184142,622129,407135
1436.27,0.187191,621526,403895
1439.5,0.189460,621113,401523
1442.72,0.192682,620921,398432
1445.94,0.195006,620270,395890
1450.23,0.197829,618860,392431
1453.44,0.201457,617697,388435
1456.64,0.204123,616264,385162
1459.85,0.206715,614413,381720
1463.04,0.209348,612307,378113
1466.24,0.212498,610032,373985
1469.43,0.215505,607345,369769
1473.67,0.220079,603789,363753
1476.85,0.225974,601175,357295
1480.02,0.230753,597737,351364
1483.19,0.236236,594479,345065
1486.36,0.242089,591232,338586
1489.52,0.246638,587853,333143
1492.68,0.249173,583875,328963
1496.89,0.252048,578062,323539
1500.03,0.252474,574159,321039
1503.18,0.252957,570285,318519
1506.32,0.251794,565444,316662
1509.45,0.250875,560571,314598
1512.58,0.248745,555821,313466
1515.71,0.246466,550344,312010
1519.87,0.244601,543983,309731
1522.99,0.241124,538764,309225
1526.1,0.239098,533692,307746
1529.21,0.235888,527902,306666
1532.32,0.232697,521886,305407
1535.42,0.230096,515888,303710
1538.51,0.226346,509987,302840
1541.6,0.223277,503936,301369
1545.72,0.219631,494694,298336
1548.8,0.216060,488378,296959
1551.88,0.213193,481832,294919
1554.95,0.211595,474989,291802
1558.02,0.209800,467818,288587
1561.08,0.208172,460730,285282
1564.15,0.206798,454170,282111
1568.22,0.206350,444181,276191
1571.27,0.205496,436947,272228
1574.32,0.203207,429598,269064
1577.36,0.202107,422039,265000
1580.4,0.200359,414375,261237
1583.43,0.199529,406354,256670
1586.46,0.197203,398475,253045
1590.49,0.195478,388982,248000
1593.51,0.192893,380708,244174
1596.53,0.189913,372727,240701
1599.54,0.189208,365060,236133
1602.55,0.185527,357543,233239
1605.55,0.183919,349495,228835
1608.55,0.182164,341154,224278
1612.54,0.179568,330877,218826
1615.53,0.177847,322904,214401
1618.51,0.176123,315116,210062
1621.49,0.174811,307217,205416
1624.47,0.173095,299481,201036
1627.44,0.171935,292112,196614
1630.41,0.170826,284245,191808
1634.36,0.168206,274079,186067
1637.32,0.168734,266916,180984
1640.27,0.167555,259612,176510
1643.22,0.166302,251804,171696
1646.16,0.166754,244348,166439
1649.1,0.165311,236703,161768
1652.04,0.164154,228171,156353
1655.95,0.161120,215408,148642
1658.88,0.158941,204937,142128
1661.8,0.155446,193395,135207
1664.72,0.149661,179728,127337
1667.63,0.143104,163642,117704
1670.54,0.132589,146312,107818
1673.44,0.122203,128451,96947
1677.31,0.113287,105080,80953
1680.21,0.107853,88906,69355
1683.1,0.106126,75033,58766
1685.99,0.109967,63520,49311
1688.87,0.114421,53714,41273
1691.75,0.123416,45653,34360
1694.62,0.123753,39137,29433
1697.49,0.126123,33776,25263
1701.31,0.131863,28175,20797