File: samples/wool/wool-000811/Column 1_050546_20150331_115803.csv
Method:,Column 1,,
Host Date-Time:,31/3/15 @ 11:58:3,,
Header Version:,1,,
System Temp (C):,32.99,,
Detector Temp (C):,31.57,,
Humidity (%):,2.44,,
Lamp PD:,3823,,
Shift Vector Coefficients:,-10.5391,0.0761263,-0.000134223,,
Pixel to Wavelength Coefficients:,1775.68,-0.916766,-0.000235065,,
Serial Number:,5510004,,
Scan Config Name:,Column 1,,
Scan Config Type:,Slew,,
Section 1,,
Start wavelength (nm):,900,,
End wavelength (nm):,1700,,
Pattern Pixel Width (nm):,   7.03,,,,
Exposure (ms):,  0.635,,,,
Digital Resolution:,228,,
Num Repeats:,6,,
PGA Gain:,64,,
Total Measurement Time in sec:,  2.670,,
Wavelength (nm),Absorbance (AU),Reference Signal (unitless),Sample Signal (unitless)
901.51,0.047226,108485,97307
905.376,0.052248,121306,107556
909.237,0.053137,131909,116718
913.095,0.053806,143299,126601
916.948,0.055414,156982,138177
922.079,0.055818,179937,158235
925.923,0.055073,200504,176624
929.762,0.056667,222660,195423
933.597,0.056801,244426,214460
937.427,0.056857,263972,231580
941.254,0.056382,281845,247530
945.076,0.056381,297271,261079
950.165,0.056703,315605,276975
953.978,0.056006,328029,288341
957.786,0.056312,340470,299066
961.59,0.056794,352317,309129
965.389,0.056579,363056,318709
969.185,0.057275,373162,327056
972.976,0.057472,382632,335204
976.763,0.058473,391202,341923
981.806,0.059073,400190,349296
985.583,0.059867,406088,353796
989.355,0.060051,410162,357194
993.124,0.061001,412868,358765
996.888,0.061671,414263,359422
1000.65,0.062299,415476,359954
1004.4,0.063337,415479,359097
1009.41,0.064771,414358,356948
1013.15,0.064751,412923,355728
1016.89,0.065652,411526,353790
1020.63,0.065452,409066,351837
1024.36,0.064909,406777,350306
1028.09,0.064823,404427,348351
1031.82,0.064829,401911,346179
1036.78,0.063807,398410,343972
1040.49,0.063818,396204,342059
1044.2,0.063089,394236,340932
1047.91,0.062278,392042,339668
1051.61,0.061654,389823,338231
1055.31,0.061243,388234,337171
1059,0.060534,387599,337170
1063.92,0.058970,386688,337591
1067.61,0.057965,386598,338294
1071.29,0.057558,387377,339294
1074.96,0.056719,388536,340967
1078.63,0.056440,389855,342344
1082.3,0.055529,391215,344260
1085.96,0.054488,393215,346850
1090.84,0.053753,396270,350137
1094.49,0.053570,398760,352486
1098.14,0.052540,400987,355296
1101.79,0.052354,403477,357655
1105.43,0.052591,406116,359798
1109.06,0.051886,407701,361789
1112.7,0.051595,409859,363948
1117.53,0.051697,412494,366202
1121.15,0.052629,414909,367556
1124.77,0.053008,416559,368696
1128.38,0.054702,418532,369000
1131.99,0.055966,419956,369180
1135.6,0.058821,421946,368499
1139.2,0.060211,423881,369006
1143.99,0.063011,426786,369147
1147.58,0.064729,428617,369267
1151.17,0.065682,431169,370651
1154.75,0.067064,433579,371539
1158.33,0.069085,436264,372104
1161.91,0.071975,439132,372066
1165.48,0.074255,442389,372863
1169.04,0.077218,446101,373435
1173.79,0.081512,451929,374592
1177.34,0.084271,456026,375594
1180.9,0.086672,461306,377848
1184.44,0.088731,467657,381238
1187.99,0.089738,473969,385489
1191.52,0.089235,479856,390729
1195.06,0.088258,487372,397743
1199.76,0.087070,497347,406995
1203.29,0.085177,504311,414497
1206.81,0.084419,511507,421146
1210.33,0.083478,519078,428306
1213.84,0.082553,527163,435905
1217.35,0.081876,534208,442420
1220.85,0.080045,540472,449498
1225.51,0.078331,549929,459172
1229.01,0.077999,556888,465338
1232.5,0.077062,562180,470775
1235.98,0.076530,567975,476211
1239.46,0.075065,574815,483574
1242.94,0.073860,582782,491639
1246.41,0.073206,591476,499725
1251.03,0.073097,604016,510448
1254.5,0.072850,612289,517734
1257.96,0.073578,619125,522637
1261.41,0.074002,624551,526703
1264.86,0.074329,629900,530814
1268.31,0.074868,634345,533897
1271.75,0.075962,638574,536104
1276.33,0.076339,642499,538931
1279.76,0.076140,645905,542037
1283.19,0.075505,648307,544848
1286.61,0.075110,650446,547143
1290.03,0.074624,652132,549176
1293.44,0.074501,653907,550827
1296.85,0.074276,655963,552845
1301.39,0.073573,657349,554911
1304.8,0.073591,657558,555064
1308.19,0.074183,658515,555114
1311.58,0.073989,658804,555607
1314.97,0.074530,659011,555089
1318.36,0.075358,658272,553410
1321.73,0.075608,658022,552882
1326.23,0.076890,657870,551125
1329.6,0.077537,656482,549143
1332.97,0.078716,654926,546357
1336.33,0.080141,653727,543570
1339.69,0.082112,652497,540090
1343.04,0.083930,649913,535704
1346.39,0.086271,647671,530986
1349.73,0.088699,645338,526124
1354.18,0.092372,641175,518328
1357.52,0.095004,638376,512947
1360.85,0.097309,635805,508177
1364.17,0.100052,633413,503078
1367.49,0.102548,631026,498310
1370.81,0.105206,628050,492933
1374.12,0.107521,625034,487958
1378.54,0.111898,620272,479385
1381.84,0.115273,616892,473082
1385.14,0.120447,613613,464994
1388.43,0.125316,611526,458246
1391.72,0.130728,610663,451933
1395.01,0.136168,610634,446286
1398.29,0.142169,611700,440930
1402.66,0.150471,614051,434244
1405.93,0.157312,616268,429000
1409.2,0.163031,617795,424437
1412.46,0.168901,618872,419469
1415.72,0.173935,619795,415253
1418.98,0.178659,620495,411225
1422.23,0.182727,621087,407780
1426.56,0.187384,621375,403617
1429.8,0.189881,621616,401459
1433.04,0.193258,622129,398678
1436.27,0.195753,621526,396010
1439.5,0.198225,621113,393501
1442.72,0.200413,620921,391402
1445.94,0.203103,620270,388578
1450.23,0.206784,618860,384422
1453.44,0.210138,617697,380748
1456.64,0.212692,616264,377637
1459.85,0.215607,614413,373984
1463.04,0.218460,612307,370262
1466.24,0.221829,610032,366036
1469.43,0.224721,607345,362005
1473.67,0.230171,603789,355397
1476.85,0.235682,601175,349397
1480.02,0.241371,597737,342878
1483.19,0.248246,594479,335653
1486.36,0.253939,591232,329472
1489.52,0.259781,587853,323212
1492.68,0.262923,583875,318711
1496.89,0.266193,578062,313171
1500.03,0.266688,574159,310702
1503.18,0.266885,570285,308466
1506.32,0.266434,565444,306165
1509.45,0.265369,560571,304272
1512.58,0.263537,555821,302969
1515.71,0.261639,550344,301297
1519.87,0.258400,543983,300044
1522.99,0.255533,538764,299134
1526.1,0.252591,533692,298332
1529.21,0.250682,527902,296395
1532.32,0.246931,521886,295559
1535.42,0.243498,515888,294481
1538.51,0.240582,509987,293074
1541.6,0.236342,503936,292438
1545.72,0.232175,494694,289842
1548.8,0.227893,488378,288977
1551.88,0.225973,481832,286367
1554.95,0.223429,474989,283958
1558.02,0.221235,467818,281088
1561.08,0.219811,460730,277738
1564.15,0.219392,454170,274048
1568.22,0.217688,444181,269074
1571.27,0.216857,436947,265199
1574.32,0.216294,429598,261077
1577.36,0.214452,422039,257573
1580.4,0.213388,414375,253516
1583.43,0.211900,406354,249462
1586.46,0.209272,398475,246110
1590.49,0.206798,388982,241619
1593.51,0.203592,380708,238232
1596.53,0.202218,372727,233977
1599.54,0.199816,365060,230435
1602.55,0.197639,357543,226824
1605.55,0.194819,349495,223163
1608.55,0.193310,341154,218595
1612.54,0.190240,330877,213514
1615.53,0.187552,322904,209663
1618.51,0.187834,315116,204473
1621.49,0.185259,307217,200533
1624.47,0.183575,299481,196243
1627.44,0.181744,292112,192223
1630.41,0.180599,284245,187540
1634.36,0.179088,274079,181463
1637.32,0.177306,266916,177447
1640.27,0.177463,259612,172529
1643.22,0.174924,251804,168321
1646.16,0.174515,244348,163491
1649.1,0.173947,236703,158583
1652.04,0.171592,228171,153698
1655.95,0.170936,215408,145320
1658.88,0.167962,204937,139206
1661.8,0.167014,193395,131653
1664.72,0.161215,179728,123994
1667.63,0.155989,163642,114263
1670.54,0.148259,146312,103997
1673.44,0.139876,128451,93081
1677.31,0.131345,105080,77656
1680.21,0.128907,88906,66073
1683.1,0.130138,75033,55605
1685.99,0.135402,63520,46506
1688.87,0.143129,53714,38633
1691.75,0.149058,45653,32390
1694.62,0.155376,39137,27366
1697.49,0.154410,33776,23670
1701.31,0.151579,28175,19874