File: samples/wool/wool-000811/Column 1_050540_20150331_115501.csv
Method:,Column 1,,
Host Date-Time:,31/3/15 @ 11:55:1,,
Header Version:,1,,
System Temp (C):,32.23,,
Detector Temp (C):,30.48,,
Humidity (%):,3.13,,
Lamp PD:,3825,,
Shift Vector Coefficients:,-10.5391,0.0761263,-0.000134223,,
Pixel to Wavelength Coefficients:,1775.68,-0.916766,-0.000235065,,
Serial Number:,5510004,,
Scan Config Name:,Column 1,,
Scan Config Type:,Slew,,
Section 1,,
Start wavelength (nm):,900,,
End wavelength (nm):,1700,,
Pattern Pixel Width (nm):,   7.03,,,,
Exposure (ms):,  0.635,,,,
Digital Resolution:,228,,
Num Repeats:,6,,
PGA Gain:,64,,
Total Measurement Time in sec:,  2.730,,
Wavelength (nm),Absorbance (AU),Reference Signal (unitless),Sample Signal (unitless)
901.51,0.044418,108485,97938
905.376,0.050664,121306,107949
909.237,0.051866,131909,117060
913.095,0.051695,143299,127218
916.948,0.052738,156982,139031
922.079,0.052259,179937,159537
925.923,0.052790,200504,177555
929.762,0.053101,222660,197034
933.597,0.053129,244426,216281
937.427,0.053677,263972,233282
941.254,0.053429,281845,249219
945.076,0.053864,297271,262596
950.165,0.054032,315605,278684
953.978,0.054442,328029,289381
957.786,0.054745,340470,300147
961.59,0.055649,352317,309945
965.389,0.055482,363056,319515
969.185,0.055731,373162,328221
972.976,0.056040,382632,336311
976.763,0.056818,391202,343228
981.806,0.057134,400190,350859
985.583,0.058508,406088,354905
989.355,0.059177,410162,357914
993.124,0.058869,412868,360531
996.888,0.060078,414263,360743
1000.65,0.060440,415476,361498
1004.4,0.062213,415479,360028
1009.41,0.063732,414358,357803
1013.15,0.063799,412923,356509
1016.89,0.064244,411526,354939
1020.63,0.064013,409066,353005
1024.36,0.063582,406777,351378
1028.09,0.063690,404427,349261
1031.82,0.063226,401911,347459
1036.78,0.062771,398410,344794
1040.49,0.062136,396204,343386
1044.2,0.061220,394236,342402
1047.91,0.061273,392042,340455
1051.61,0.060568,389823,339078
1055.31,0.059454,388234,338563
1059,0.058506,387599,338748
1063.92,0.057639,386688,338627
1067.61,0.056577,386598,339377
1071.29,0.056114,387377,340424
1074.96,0.055453,388536,341962
1078.63,0.054802,389855,343638
1082.3,0.054024,391215,345455
1085.96,0.053568,393215,347586
1090.84,0.052096,396270,351476
1094.49,0.052315,398760,353506
1098.14,0.052195,400987,355578
1101.79,0.051692,403477,358201
1105.43,0.051376,406116,360806
1109.06,0.050985,407701,362541
1112.7,0.050863,409859,364562
1117.53,0.050605,412494,367124
1121.15,0.051608,414909,368421
1124.77,0.052089,416559,369477
1128.38,0.053812,418532,369757
1131.99,0.055678,419956,369425
1135.6,0.057543,421946,369585
1139.2,0.059452,423881,369651
1143.99,0.062602,426786,369495
1147.58,0.063592,428617,370235
1151.17,0.064608,431169,371569
1154.75,0.066398,433579,372109
1158.33,0.068320,436264,372760
1161.91,0.070786,439132,373086
1165.48,0.073675,442389,373361
1169.04,0.076392,446101,374146
1173.79,0.080968,451929,375061
1177.34,0.083655,456026,376127
1180.9,0.086349,461306,378129
1184.44,0.088136,467657,381761
1187.99,0.088865,473969,386265
1191.52,0.088606,479856,391296
1195.06,0.087579,487372,398365
1199.76,0.086148,497347,407860
1203.29,0.084580,504311,415067
1206.81,0.084127,511507,421429
1210.33,0.082640,519078,429134
1213.84,0.081878,527163,436583
1217.35,0.080532,534208,443791
1220.85,0.079073,540472,450506
1225.51,0.078229,549929,459280
1229.01,0.077251,556888,466140
1232.5,0.076574,562180,471304
1235.98,0.075520,567975,477319
1239.46,0.074406,574815,484308
1242.94,0.073698,582782,491822
1246.41,0.072732,591476,500271
1251.03,0.072067,604016,511660
1254.5,0.071937,612289,518823
1257.96,0.072348,619125,524120
1261.41,0.073105,624551,527792
1264.86,0.073831,629900,531423
1268.31,0.074471,634345,534385
1271.75,0.075587,638574,536567
1276.33,0.075638,642499,539802
1279.76,0.075563,645905,542757
1283.19,0.075054,648307,545414
1286.61,0.074176,650446,548321
1290.03,0.073727,652132,550312
1293.44,0.073685,653907,551863
1296.85,0.073621,655963,553680
1301.39,0.072856,657349,555828
1304.8,0.073403,657558,555304
1308.19,0.073560,658515,555911
1311.58,0.073478,658804,556260
1314.97,0.074251,659011,555446
1318.36,0.074997,658272,553871
1321.73,0.075182,658022,553425
1326.23,0.076388,657870,551763
1329.6,0.077265,656482,549487
1332.97,0.078746,654926,546319
1336.33,0.079920,653727,543846
1339.69,0.081962,652497,540277
1343.04,0.084020,649913,535593
1346.39,0.086361,647671,530877
1349.73,0.088800,645338,526002
1354.18,0.092359,641175,518344
1357.52,0.094551,638376,513482
1360.85,0.096944,635805,508604
1364.17,0.099374,633413,503864
1367.49,0.102047,631026,498885
1370.81,0.105298,628050,492829
1374.12,0.108132,625034,487272
1378.54,0.111959,620272,479317
1381.84,0.115466,616892,472871
1385.14,0.120407,613613,465037
1388.43,0.125540,611526,458010
1391.72,0.131407,610663,451227
1395.01,0.137322,610634,445101
1398.29,0.143322,611700,439761
1402.66,0.152126,614051,432592
1405.93,0.159438,616268,426905
1409.2,0.165501,617795,422030
1412.46,0.171886,618872,416596
1415.72,0.177467,619795,411890
1418.98,0.181917,620495,408151
1422.23,0.185889,621087,404821
1426.56,0.190749,621375,400502
1429.8,0.193803,621616,397850
1433.04,0.196672,622129,395556
1436.27,0.199105,621526,392965
1439.5,0.201164,621113,390847
1442.72,0.204371,620921,387851
1445.94,0.207057,620270,385056
1450.23,0.210083,618860,381513
1453.44,0.213814,617697,377539
1456.64,0.216704,616264,374165
1459.85,0.219221,614413,370885
1463.04,0.221535,612307,367650
1466.24,0.224906,610032,363452
1469.43,0.227789,607345,359457
1473.67,0.233112,603789,352999
1476.85,0.237869,601175,347642
1480.02,0.243184,597737,341449
1483.19,0.249670,594479,334554
1486.36,0.255545,591232,328256
1489.52,0.260225,587853,322882
1492.68,0.264361,583875,317657
1496.89,0.267052,578062,312552
1500.03,0.268289,574159,309559
1503.18,0.267746,570285,307855
1506.32,0.267177,565444,305642
1509.45,0.266410,560571,303543
1512.58,0.264846,555821,302057
1515.71,0.262800,550344,300493
1519.87,0.259728,543983,299128
1522.99,0.257219,538764,297975
1526.1,0.254246,533692,297197
1529.21,0.250920,527902,296233
1532.32,0.248020,521886,294819
1535.42,0.244836,515888,293575
1538.51,0.242263,509987,291942
1541.6,0.238402,503936,291054
1545.72,0.233717,494694,288815
1548.8,0.229899,488378,287645
1551.88,0.227271,481832,285512
1554.95,0.224584,474989,283204
1558.02,0.222950,467818,279980
1561.08,0.221817,460730,276458
1564.15,0.220601,454170,273286
1568.22,0.219148,444181,268171
1571.27,0.218527,436947,264181
1574.32,0.217530,429598,260335
1577.36,0.215967,422039,256676
1580.4,0.213901,414375,253217
1583.43,0.211496,406354,249694
1586.46,0.210136,398475,245621
1590.49,0.207669,388982,241135
1593.51,0.205878,380708,236981
1596.53,0.203742,372727,233157
1599.54,0.201434,365060,229578
1602.55,0.197480,357543,226907
1605.55,0.196175,349495,222467
1608.55,0.194679,341154,217907
1612.54,0.191479,330877,212906
1615.53,0.189661,322904,208647
1618.51,0.187450,315116,204654
1621.49,0.185773,307217,200296
1624.47,0.184273,299481,195928
1627.44,0.184480,292112,191016
1630.41,0.181786,284245,187028
1634.36,0.179859,274079,181141
1637.32,0.178551,266916,176939
1640.27,0.177450,259612,172534
1643.22,0.176574,251804,167683
1646.16,0.176325,244348,162811
1649.1,0.175602,236703,157980
1652.04,0.175144,228171,152446
1655.95,0.173983,215408,144304
1658.88,0.170798,204937,138300
1661.8,0.170063,193395,130732
1664.72,0.167413,179728,122237
1667.63,0.161824,163642,112738
1670.54,0.156539,146312,102033
1673.44,0.153936,128451,90116
1677.31,0.149615,105080,74457
1680.21,0.147349,88906,63326
1683.1,0.148672,75033,53282
1685.99,0.156487,63520,44302
1688.87,0.161452,53714,37037
1691.75,0.169483,45653,30902
1694.62,0.172582,39137,26303
1697.49,0.171818,33776,22740
1701.31,0.177535,28175,18721