File: samples/wool/wool-000811/Column 1_050564_20150331_120638.csv
Method:,Column 1,,
Host Date-Time:,31/3/15 @ 12:6:38,,
Header Version:,1,,
System Temp (C):,33.86,,
Detector Temp (C):,33.66,,
Humidity (%):,1.95,,
Lamp PD:,3819,,
Shift Vector Coefficients:,-10.5391,0.0761263,-0.000134223,,
Pixel to Wavelength Coefficients:,1775.68,-0.916766,-0.000235065,,
Serial Number:,5510004,,
Scan Config Name:,Column 1,,
Scan Config Type:,Slew,,
Section 1,,
Start wavelength (nm):,900,,
End wavelength (nm):,1700,,
Pattern Pixel Width (nm):,   7.03,,,,
Exposure (ms):,  0.635,,,,
Digital Resolution:,228,,
Num Repeats:,6,,
PGA Gain:,64,,
Total Measurement Time in sec:,  2.675,,
Wavelength (nm),Absorbance (AU),Reference Signal (unitless),Sample Signal (unitless)
901.51,0.034056,108485,100303
905.376,0.039703,121306,110708
909.237,0.040836,131909,120071
913.095,0.043933,143299,129512
916.948,0.043589,156982,141991
922.079,0.045828,179937,161917
925.923,0.047063,200504,179912
929.762,0.049090,222660,198862
933.597,0.047856,244426,218923
937.427,0.046993,263972,236900
941.254,0.047250,281845,252790
945.076,0.046724,297271,266949
950.165,0.046514,315605,283550
953.978,0.046713,328029,294577
957.786,0.045722,340470,306448
961.59,0.045922,352317,316965
965.389,0.046263,363056,326370
969.185,0.046138,373162,335552
972.976,0.046569,382632,343726
976.763,0.047478,391202,350690
981.806,0.047830,400190,358456
985.583,0.048143,406088,363477
989.355,0.048848,410162,366528
993.124,0.049799,412868,368139
996.888,0.050404,414263,368869
1000.65,0.051274,415476,369209
1004.4,0.052606,415479,368081
1009.41,0.053829,414358,366055
1013.15,0.054275,412923,364413
1016.89,0.054620,411526,362892
1020.63,0.054555,409066,360777
1024.36,0.054815,406777,358543
1028.09,0.054436,404427,356783
1031.82,0.054720,401911,354332
1036.78,0.053365,398410,352343
1040.49,0.053201,396204,350524
1044.2,0.052762,394236,349136
1047.91,0.052757,392042,347197
1051.61,0.052158,389823,345708
1055.31,0.051641,388234,344709
1059,0.051158,387599,344528
1063.92,0.050359,386688,344351
1067.61,0.049068,386598,345296
1071.29,0.048481,387377,346460
1074.96,0.048263,388536,347671
1078.63,0.047538,389855,349434
1082.3,0.047034,391215,351060
1085.96,0.046640,393215,353175
1090.84,0.045255,396270,357056
1094.49,0.044939,398760,359561
1098.14,0.044759,400987,361719
1101.79,0.043648,403477,364897
1105.43,0.044271,406116,366758
1109.06,0.043792,407701,368595
1112.7,0.043797,409859,370542
1117.53,0.044300,412494,372493
1121.15,0.044399,414909,374588
1124.77,0.044810,416559,375722
1128.38,0.046089,418532,376391
1131.99,0.047574,419956,376383
1135.6,0.050090,421946,375982
1139.2,0.051278,423881,376674
1143.99,0.053503,426786,377318
1147.58,0.054744,428617,377855
1151.17,0.056330,431169,378719
1154.75,0.056942,433579,380300
1158.33,0.059026,436264,380823
1161.91,0.061271,439132,381350
1165.48,0.063155,442389,382516
1169.04,0.066189,446101,383040
1173.79,0.070155,451929,384517
1177.34,0.072234,456026,386150
1180.9,0.074660,461306,388445
1184.44,0.076256,467657,392348
1187.99,0.077085,473969,396885
1191.52,0.077550,479856,401385
1195.06,0.076591,487372,408573
1199.76,0.075973,497347,417529
1203.29,0.075016,504311,424309
1206.81,0.074328,511507,431046
1210.33,0.073336,519078,438426
1213.84,0.072195,527163,446426
1217.35,0.071827,534208,452776
1220.85,0.070731,540472,459243
1225.51,0.070191,549929,467860
1229.01,0.069720,556888,474294
1232.5,0.068821,562180,479793
1235.98,0.068387,567975,485224
1239.46,0.067078,574815,492550
1242.94,0.065845,582782,500796
1246.41,0.065429,591476,508754
1251.03,0.065190,604016,519827
1254.5,0.065766,612289,526248
1257.96,0.066081,619125,531738
1261.41,0.066875,624551,535418
1264.86,0.067137,629900,539678
1268.31,0.067754,634345,542714
1271.75,0.068558,638574,545322
1276.33,0.068872,642499,548277
1279.76,0.068918,645905,551126
1283.19,0.068067,648307,554260
1286.61,0.068099,650446,556048
1290.03,0.067526,652132,558225
1293.44,0.067081,653907,560318
1296.85,0.066944,655963,562258
1301.39,0.067003,657349,563369
1304.8,0.066948,657558,563619
1308.19,0.067036,658515,564325
1311.58,0.067362,658804,564149
1314.97,0.067795,659011,563765
1318.36,0.068283,658272,562500
1321.73,0.068355,658022,562193
1326.23,0.069724,657870,560294
1329.6,0.070619,656482,557961
1332.97,0.071246,654926,555835
1336.33,0.072716,653727,552943
1339.69,0.074200,652497,550020
1343.04,0.076419,649913,545050
1346.39,0.078511,647671,540559
1349.73,0.080435,645338,536232
1354.18,0.083522,641175,528999
1357.52,0.085713,638376,524039
1360.85,0.088041,635805,519138
1364.17,0.090148,633413,514682
1367.49,0.093300,631026,509034
1370.81,0.095415,628050,504172
1374.12,0.097428,625034,499431
1378.54,0.100884,620272,491698
1381.84,0.104765,616892,484668
1385.14,0.108512,613613,477950
1388.43,0.112720,611526,471732
1391.72,0.117418,610663,465998
1395.01,0.122273,610634,460795
1398.29,0.127830,611700,455731
1402.66,0.135636,614051,449333
1405.93,0.141082,616268,445336
1409.2,0.146868,617795,440531
1412.46,0.151687,618872,436429
1415.72,0.156299,619795,432463
1418.98,0.160887,620495,428402
1422.23,0.163799,621087,425945
1426.56,0.168008,621375,422032
1429.8,0.171239,621616,419067
1433.04,0.173931,622129,416821
1436.27,0.176185,621526,414261
1439.5,0.178544,621113,411743
1442.72,0.181470,620921,408852
1445.94,0.184054,620270,406001
1450.23,0.187375,618860,401992
1453.44,0.190571,617697,398295
1456.64,0.193456,616264,394740
1459.85,0.196205,614413,391071
1463.04,0.199070,612307,387168
1466.24,0.202124,610032,383026
1469.43,0.205553,607345,378340
1473.67,0.211924,603789,370648
1476.85,0.217827,601175,364061
1480.02,0.223128,597737,357587
1483.19,0.230193,594479,349900
1486.36,0.235982,591232,343381
1489.52,0.241125,587853,337399
1492.68,0.245258,583875,331942
1496.89,0.247618,578062,326856
1500.03,0.248384,574159,324077
1503.18,0.248022,570285,322159
1506.32,0.247465,565444,319834
1509.45,0.246392,560571,317862
1512.58,0.244262,555821,316718
1515.71,0.242162,550344,315117
1519.87,0.238985,543983,313762
1522.99,0.236211,538764,312743
1526.1,0.233423,533692,311794
1529.21,0.230037,527902,310825
1532.32,0.227651,521886,308976
1535.42,0.223776,515888,308162
1538.51,0.221303,509987,306377
1541.6,0.218117,503936,304971
1545.72,0.213349,494694,302683
1548.8,0.210361,488378,300881
1551.88,0.207580,481832,298755
1554.95,0.205539,474989,295900
1558.02,0.203021,467818,293127
1561.08,0.202588,460730,288974
1564.15,0.203132,454170,284503
1568.22,0.201116,444181,279540
1571.27,0.200933,436947,275103
1574.32,0.199230,429598,271539
1577.36,0.196758,422039,268284
1580.4,0.196573,414375,263524
1583.43,0.194411,406354,259713
1586.46,0.192915,398475,255556
1590.49,0.190095,388982,251093
1593.51,0.188280,380708,246781
1596.53,0.185533,372727,243141
1599.54,0.183139,365060,239456
1602.55,0.181337,357543,235500
1605.55,0.179093,349495,231392
1608.55,0.176953,341154,226985
1612.54,0.175410,330877,220931
1615.53,0.171498,322904,217558
1618.51,0.171263,315116,212426
1621.49,0.171037,307217,207209
1624.47,0.168640,299481,203109
1627.44,0.168319,292112,198258
1630.41,0.165992,284245,193955
1634.36,0.165366,274079,187288
1637.32,0.164075,266916,182936
1640.27,0.162665,259612,178509
1643.22,0.161691,251804,173529
1646.16,0.161783,244348,168355
1649.1,0.162048,236703,162988
1652.04,0.159513,228171,158033
1655.95,0.157124,215408,150016
1658.88,0.153119,204937,144046
1661.8,0.151068,193395,136577
1664.72,0.143901,179728,129037
1667.63,0.133160,163642,120430
1670.54,0.121788,146312,110533
1673.44,0.108512,128451,100052
1677.31,0.093950,105080,84639
1680.21,0.085852,88906,72959
1683.1,0.084264,75033,61800
1685.99,0.087877,63520,51884
1688.87,0.091808,53714,43479
1691.75,0.092596,45653,36887
1694.62,0.107932,39137,30525
1697.49,0.105297,33776,26504
1701.31,0.116437,28175,21549