File: samples/wool/wool-000811/Column 1_050604_20150331_122532.csv
Method:,Column 1,,
Host Date-Time:,31/3/15 @ 12:25:32,,
Header Version:,1,,
System Temp (C):,34,,
Detector Temp (C):,34.84,,
Humidity (%):,1.76,,
Lamp PD:,3818,,
Shift Vector Coefficients:,-10.5391,0.0761263,-0.000134223,,
Pixel to Wavelength Coefficients:,1775.68,-0.916766,-0.000235065,,
Serial Number:,5510004,,
Scan Config Name:,Column 1,,
Scan Config Type:,Slew,,
Section 1,,
Start wavelength (nm):,900,,
End wavelength (nm):,1700,,
Pattern Pixel Width (nm):,   7.03,,,,
Exposure (ms):,  0.635,,,,
Digital Resolution:,228,,
Num Repeats:,6,,
PGA Gain:,64,,
Total Measurement Time in sec:,  2.726,,
Wavelength (nm),Absorbance (AU),Reference Signal (unitless),Sample Signal (unitless)
901.51,0.066966,108485,92983
905.376,0.074312,121306,102228
909.237,0.075782,131909,110788
913.095,0.076498,143299,120156
916.948,0.076683,156982,131573
922.079,0.078118,179937,150315
925.923,0.081905,200504,166042
929.762,0.081039,222660,184758
933.597,0.081176,244426,202755
937.427,0.078831,263972,220154
941.254,0.079370,281845,234769
945.076,0.078046,297271,248374
950.165,0.077818,315605,263831
953.978,0.076865,328029,274819
957.786,0.076632,340470,285395
961.59,0.077085,352317,295018
965.389,0.076677,363056,304296
969.185,0.077350,373162,312282
972.976,0.077184,382632,320330
976.763,0.077527,391202,327246
981.806,0.078274,400190,334189
985.583,0.079529,406088,338136
989.355,0.078979,410162,341961
993.124,0.079823,412868,343549
996.888,0.079865,414263,344676
1000.65,0.080961,415476,344814
1004.4,0.082450,415479,343636
1009.41,0.083329,414358,342016
1013.15,0.083593,412923,340625
1016.89,0.084191,411526,339005
1020.63,0.083735,409066,337333
1024.36,0.084275,406777,335028
1028.09,0.084117,404427,333214
1031.82,0.083882,401911,331320
1036.78,0.083988,398410,328354
1040.49,0.083197,396204,327131
1044.2,0.084105,394236,324826
1047.91,0.083523,392042,323452
1051.61,0.082451,389823,322416
1055.31,0.082188,388234,321296
1059,0.082238,387599,320734
1063.92,0.080994,386688,320898
1067.61,0.080790,386598,320974
1071.29,0.079663,387377,322456
1074.96,0.079648,388536,323432
1078.63,0.079095,389855,324944
1082.3,0.077505,391215,327273
1085.96,0.077401,393215,329025
1090.84,0.076537,396270,332242
1094.49,0.075874,398760,334840
1098.14,0.075332,400987,337131
1101.79,0.074563,403477,339825
1105.43,0.074876,406116,341802
1109.06,0.073738,407701,344036
1112.7,0.073381,409859,346141
1117.53,0.073084,412494,348605
1121.15,0.073449,414909,350351
1124.77,0.073250,416559,351906
1128.38,0.074334,418532,352691
1131.99,0.075923,419956,352599
1135.6,0.076989,421946,353401
1139.2,0.077997,423881,354199
1143.99,0.080696,426786,354417
1147.58,0.081113,428617,355596
1151.17,0.082092,431169,356907
1154.75,0.083041,433579,358119
1158.33,0.084637,436264,359015
1161.91,0.085599,439132,360575
1165.48,0.088178,442389,361099
1169.04,0.090581,446101,362120
1173.79,0.094088,451929,363900
1177.34,0.095612,456026,365913
1180.9,0.097855,461306,368243
1184.44,0.100207,467657,371296
1187.99,0.100655,473969,375920
1191.52,0.100585,479856,380650
1195.06,0.100481,487372,386705
1199.76,0.100165,497347,394907
1203.29,0.099603,504311,400955
1206.81,0.098875,511507,407358
1210.33,0.098198,519078,414033
1213.84,0.097865,527163,420804
1217.35,0.097262,534208,427020
1220.85,0.096420,540472,432866
1225.51,0.095792,549929,441077
1229.01,0.095322,556888,447142
1232.5,0.094166,562180,452595
1235.98,0.094166,567975,457260
1239.46,0.093061,574815,463946
1242.94,0.092206,582782,471303
1246.41,0.091710,591476,478880
1251.03,0.091362,604016,489425
1254.5,0.091319,612289,496178
1257.96,0.091942,619125,500998
1261.41,0.092459,624551,504788
1264.86,0.092950,629900,508536
1268.31,0.093804,634345,511118
1271.75,0.094303,638574,513935
1276.33,0.094851,642499,516442
1279.76,0.094324,645905,519810
1283.19,0.094135,648307,521970
1286.61,0.093618,650446,524316
1290.03,0.093308,652132,526051
1293.44,0.092788,653907,528114
1296.85,0.092840,655963,529712
1301.39,0.092219,657349,531590
1304.8,0.092090,657558,531917
1308.19,0.092560,658515,532115
1311.58,0.092407,658804,532536
1314.97,0.092994,659011,531984
1318.36,0.093192,658272,531145
1321.73,0.093466,658022,530609
1326.23,0.094533,657870,529185
1329.6,0.094931,656482,527584
1332.97,0.096362,654926,524602
1336.33,0.096829,653727,523079
1339.69,0.098265,652497,520371
1343.04,0.099720,649913,516577
1346.39,0.101760,647671,512383
1349.73,0.103778,645338,508170
1354.18,0.106948,641175,501220
1357.52,0.108583,638376,497157
1360.85,0.110721,635805,492723
1364.17,0.112633,633413,488713
1367.49,0.115073,631026,484144
1370.81,0.117035,628050,479688
1374.12,0.118980,625034,475252
1378.54,0.121957,620272,468409
1381.84,0.124914,616892,462695
1385.14,0.127920,613613,457061
1388.43,0.131665,611526,451596
1391.72,0.136148,610663,446327
1395.01,0.140148,610634,442214
1398.29,0.144941,611700,438124
1402.66,0.150181,614051,434534
1405.93,0.156014,616268,430284
1409.2,0.160454,617795,426963
1412.46,0.165168,618872,423090
1415.72,0.168962,619795,420036
1418.98,0.172524,620495,417075
1422.23,0.175188,621087,414920
1426.56,0.179678,621375,410843
1429.8,0.182452,621616,408385
1433.04,0.184841,622129,406480
1436.27,0.186879,621526,404185
1439.5,0.188820,621113,402115
1442.72,0.191047,620921,399935
1445.94,0.194079,620270,396736
1450.23,0.197104,618860,393087
1453.44,0.200084,617697,389665
1456.64,0.202418,616264,386677
1459.85,0.205790,614413,382534
1463.04,0.208081,612307,379217
1466.24,0.211518,610032,374830
1469.43,0.215442,607345,369823
1473.67,0.221495,603789,362569
1476.85,0.227133,601175,356343
1480.02,0.233028,597737,349528
1483.19,0.239268,594479,342664
1486.36,0.245482,591232,335951
1489.52,0.249786,587853,330737
1492.68,0.253462,583875,325730
1496.89,0.255264,578062,321152
1500.03,0.256230,574159,318275
1503.18,0.255954,570285,316328
1506.32,0.254725,565444,314532
1509.45,0.253635,560571,312605
1512.58,0.252109,555821,311047
1515.71,0.249941,550344,309523
1519.87,0.246519,543983,308366
1522.99,0.244069,538764,307135
1526.1,0.241696,533692,305911
1529.21,0.238950,527902,304511
1532.32,0.235572,521886,303392
1535.42,0.233244,515888,301517
1538.51,0.230240,509987,300137
1541.6,0.227782,503936,298259
1545.72,0.223477,494694,295706
1548.8,0.220583,488378,293882
1551.88,0.218302,481832,291470
1554.95,0.216229,474989,288705
1558.02,0.214262,467818,285637
1561.08,0.213031,460730,282108
1564.15,0.213169,454170,278003
1568.22,0.211945,444181,272656
1571.27,0.211258,436947,268640
1574.32,0.210666,429598,264482
1577.36,0.209343,422039,260621
1580.4,0.207748,414375,256830
1583.43,0.205866,406354,252952
1586.46,0.205094,398475,248489
1590.49,0.203138,388982,243664
1593.51,0.200477,380708,239947
1596.53,0.198932,372727,235754
1599.54,0.197110,365060,231875
1602.55,0.194606,357543,228414
1605.55,0.193567,349495,223807
1608.55,0.190378,341154,220076
1612.54,0.189797,330877,213732
1615.53,0.187492,322904,209692
1618.51,0.186945,315116,204892
1621.49,0.185738,307217,200312
1624.47,0.184849,299481,195668
1627.44,0.183632,292112,191389
1630.41,0.181619,284245,187100
1634.36,0.181317,274079,180534
1637.32,0.180790,266916,176029
1640.27,0.180522,259612,171318
1643.22,0.178149,251804,167076
1646.16,0.177629,244348,162323
1649.1,0.177011,236703,157468
1652.04,0.175184,228171,152432
1655.95,0.171588,215408,145102
1658.88,0.168965,204937,138885
1661.8,0.163012,193395,132872
1664.72,0.156190,179728,125437
1667.63,0.143683,163642,117547
1670.54,0.129890,146312,108490
1673.44,0.111478,128451,99371
1677.31,0.092464,105080,84929
1680.21,0.078592,88906,74189
1683.1,0.071932,75033,63580
1685.99,0.076403,63520,53273
1688.87,0.078228,53714,44860
1691.75,0.084362,45653,37593
1694.62,0.086949,39137,32036
1697.49,0.085893,33776,27715
1701.31,0.093838,28175,22700