File: samples/wool/wool-000811/Column 1_050565_20150331_120704.csv
Method:,Column 1,,
Host Date-Time:,31/3/15 @ 12:7:4,,
Header Version:,1,,
System Temp (C):,33.9,,
Detector Temp (C):,33.73,,
Humidity (%):,1.86,,
Lamp PD:,3819,,
Shift Vector Coefficients:,-10.5391,0.0761263,-0.000134223,,
Pixel to Wavelength Coefficients:,1775.68,-0.916766,-0.000235065,,
Serial Number:,5510004,,
Scan Config Name:,Column 1,,
Scan Config Type:,Slew,,
Section 1,,
Start wavelength (nm):,900,,
End wavelength (nm):,1700,,
Pattern Pixel Width (nm):,   7.03,,,,
Exposure (ms):,  0.635,,,,
Digital Resolution:,228,,
Num Repeats:,6,,
PGA Gain:,64,,
Total Measurement Time in sec:,  2.692,,
Wavelength (nm),Absorbance (AU),Reference Signal (unitless),Sample Signal (unitless)
901.51,0.033096,108485,100525
905.376,0.039723,121306,110703
909.237,0.041303,131909,119942
913.095,0.043913,143299,129518
916.948,0.044036,156982,141845
922.079,0.045418,179937,162070
925.923,0.047263,200504,179829
929.762,0.047586,222660,199552
933.597,0.047771,244426,218966
937.427,0.047026,263972,236882
941.254,0.046948,281845,252966
945.076,0.046513,297271,267079
950.165,0.046366,315605,283647
953.978,0.045464,328029,295426
957.786,0.045450,340470,306640
961.59,0.046048,352317,316873
965.389,0.046460,363056,326222
969.185,0.046466,373162,335298
972.976,0.046306,382632,343934
976.763,0.047708,391202,350504
981.806,0.048035,400190,358287
985.583,0.048663,406088,363042
989.355,0.049030,410162,366375
993.124,0.049605,412868,368304
996.888,0.049922,414263,369279
1000.65,0.050815,415476,369599
1004.4,0.052260,415479,368374
1009.41,0.053764,414358,366110
1013.15,0.054249,412923,364435
1016.89,0.054910,411526,362650
1020.63,0.054746,409066,360618
1024.36,0.054146,406777,359096
1028.09,0.053660,404427,357421
1031.82,0.053810,401911,355075
1036.78,0.053346,398410,352358
1040.49,0.052946,396204,350730
1044.2,0.052968,394236,348970
1047.91,0.052542,392042,347369
1051.61,0.051405,389823,346308
1055.31,0.051393,388234,344906
1059,0.051047,387599,344616
1063.92,0.049563,386688,344983
1067.61,0.049211,386598,345182
1071.29,0.048390,387377,346532
1074.96,0.047791,388536,348049
1078.63,0.047579,389855,349401
1082.3,0.046632,391215,351385
1085.96,0.046012,393215,353686
1090.84,0.045453,396270,356893
1094.49,0.045048,398760,359471
1098.14,0.044802,400987,361683
1101.79,0.044984,403477,363777
1105.43,0.044350,406116,366691
1109.06,0.043523,407701,368824
1112.7,0.043663,409859,370656
1117.53,0.043860,412494,372870
1121.15,0.044643,414909,374378
1124.77,0.045046,416559,375518
1128.38,0.045991,418532,376476
1131.99,0.047556,419956,376398
1135.6,0.049735,421946,376289
1139.2,0.051283,423881,376670
1143.99,0.054201,426786,376712
1147.58,0.054607,428617,377974
1151.17,0.055899,431169,379095
1154.75,0.056716,433579,380498
1158.33,0.058642,436264,381160
1161.91,0.061224,439132,381392
1165.48,0.063232,442389,382448
1169.04,0.065794,446101,383389
1173.79,0.069382,451929,385202
1177.34,0.072346,456026,386050
1180.9,0.074274,461306,388790
1184.44,0.076790,467657,391866
1187.99,0.077531,473969,396478
1191.52,0.077173,479856,401733
1195.06,0.076897,487372,408285
1199.76,0.075928,497347,417572
1203.29,0.075149,504311,424179
1206.81,0.074269,511507,431105
1210.33,0.073048,519078,438717
1213.84,0.072234,527163,446386
1217.35,0.071591,534208,453022
1220.85,0.071050,540472,458905
1225.51,0.069858,549929,468219
1229.01,0.069539,556888,474492
1232.5,0.069089,562180,479498
1235.98,0.068529,567975,485065
1239.46,0.067151,574815,492467
1242.94,0.065917,582782,500713
1246.41,0.065333,591476,508867
1251.03,0.065482,604016,519477
1254.5,0.066094,612289,525851
1257.96,0.065744,619125,532150
1261.41,0.066795,624551,535517
1264.86,0.067310,629900,539463
1268.31,0.067814,634345,542640
1271.75,0.068518,638574,545372
1276.33,0.068877,642499,548271
1279.76,0.069157,645905,550822
1283.19,0.068367,648307,553878
1286.61,0.068140,650446,555996
1290.03,0.067254,652132,558575
1293.44,0.066975,653907,560455
1296.85,0.066683,655963,562596
1301.39,0.066521,657349,563995
1304.8,0.066691,657558,563953
1308.19,0.066822,658515,564604
1311.58,0.066977,658804,564650
1314.97,0.067595,659011,564024
1318.36,0.067990,658272,562879
1321.73,0.068352,658022,562197
1326.23,0.069451,657870,560646
1329.6,0.070239,656482,558450
1332.97,0.071421,654926,555612
1336.33,0.072257,653727,553528
1339.69,0.074482,652497,549663
1343.04,0.076091,649913,545462
1346.39,0.078288,647671,540837
1349.73,0.080267,645338,536439
1354.18,0.083245,641175,529336
1357.52,0.085696,638376,524059
1360.85,0.087871,635805,519341
1364.17,0.089975,633413,514887
1367.49,0.092745,631026,509686
1370.81,0.095101,628050,504537
1374.12,0.097317,625034,499559
1378.54,0.100790,620272,491804
1381.84,0.104470,616892,484997
1385.14,0.108191,613613,478303
1388.43,0.112754,611526,471695
1391.72,0.117439,610663,465975
1395.01,0.122483,610634,460573
1398.29,0.127216,611700,456376
1402.66,0.134912,614051,450083
1405.93,0.140624,616268,445806
1409.2,0.145785,617795,441631
1412.46,0.151310,618872,436808
1415.72,0.155661,619795,433099
1418.98,0.159873,620495,429403
1422.23,0.163863,621087,425882
1426.56,0.167830,621375,422205
1429.8,0.170932,621616,419363
1433.04,0.173538,622129,417198
1436.27,0.176075,621526,414366
1439.5,0.177880,621113,412373
1442.72,0.180578,620921,409693
1445.94,0.182895,620270,407086
1450.23,0.186696,618860,402621
1453.44,0.189501,617697,399277
1456.64,0.192350,616264,395746
1459.85,0.195449,614413,391752
1463.04,0.198242,612307,387907
1466.24,0.201511,610032,383567
1469.43,0.204858,607345,378946
1473.67,0.211446,603789,371056
1476.85,0.216893,601175,364845
1480.02,0.223413,597737,357353
1483.19,0.229770,594479,350241
1486.36,0.235906,591232,343441
1489.52,0.241638,587853,337001
1492.68,0.244126,583875,332808
1496.89,0.247275,578062,327114
1500.03,0.247892,574159,324444
1503.18,0.247565,570285,322498
1506.32,0.247477,565444,319825
1509.45,0.245513,560571,318506
1512.58,0.244190,555821,316771
1515.71,0.241362,550344,315698
1519.87,0.238042,543983,314444
1522.99,0.235926,538764,312948
1526.1,0.233170,533692,311976
1529.21,0.230107,527902,310775
1532.32,0.226354,521886,309900
1535.42,0.224139,515888,307905
1538.51,0.220923,509987,306645
1541.6,0.217452,503936,305438
1545.72,0.213045,494694,302895
1548.8,0.209796,488378,301273
1551.88,0.206706,481832,299357
1554.95,0.205034,474989,296244
1558.02,0.202919,467818,293196
1561.08,0.202080,460730,289312
1564.15,0.200843,454170,286006
1568.22,0.199670,444181,280472
1571.27,0.199871,436947,275777
1574.32,0.198985,429598,271692
1577.36,0.196538,422039,268420
1580.4,0.195175,414375,264374
1583.43,0.193599,406354,260199
1586.46,0.192005,398475,256092
1590.49,0.190292,388982,250979
1593.51,0.187770,380708,247071
1596.53,0.185459,372727,243182
1599.54,0.183667,365060,239165
1602.55,0.181142,357543,235606
1605.55,0.179367,349495,231246
1608.55,0.177036,341154,226942
1612.54,0.173879,330877,221711
1615.53,0.172136,322904,217239
1618.51,0.170281,315116,212907
1621.49,0.170124,307217,207645
1624.47,0.168298,299481,203269
1627.44,0.167494,292112,198635
1630.41,0.165891,284245,194000
1634.36,0.165869,274079,187071
1637.32,0.163558,266916,183154
1640.27,0.162521,259612,178568
1643.22,0.161393,251804,173648
1646.16,0.161038,244348,168644
1649.1,0.159559,236703,163925
1652.04,0.159694,228171,157967
1655.95,0.155339,215408,150634
1658.88,0.152276,204937,144326
1661.8,0.149420,193395,137096
1664.72,0.143273,179728,129224
1667.63,0.132119,163642,120719
1670.54,0.120662,146312,110820
1673.44,0.108169,128451,100131
1677.31,0.090215,105080,85370
1680.21,0.084206,88906,73236
1683.1,0.081106,75033,62251
1685.99,0.083795,63520,52374
1688.87,0.087316,53714,43931
1691.75,0.088810,45653,37210
1694.62,0.099171,39137,31147
1697.49,0.101366,33776,26745
1701.31,0.111607,28175,21790