File: samples/wool/wool-000811/Column 1_050567_20150331_120801.csv
Method:,Column 1,,
Host Date-Time:,31/3/15 @ 12:8:1,,
Header Version:,1,,
System Temp (C):,33.99,,
Detector Temp (C):,33.89,,
Humidity (%):,1.86,,
Lamp PD:,3819,,
Shift Vector Coefficients:,-10.5391,0.0761263,-0.000134223,,
Pixel to Wavelength Coefficients:,1775.68,-0.916766,-0.000235065,,
Serial Number:,5510004,,
Scan Config Name:,Column 1,,
Scan Config Type:,Slew,,
Section 1,,
Start wavelength (nm):,900,,
End wavelength (nm):,1700,,
Pattern Pixel Width (nm):,   7.03,,,,
Exposure (ms):,  0.635,,,,
Digital Resolution:,228,,
Num Repeats:,6,,
PGA Gain:,64,,
Total Measurement Time in sec:,  2.727,,
Wavelength (nm),Absorbance (AU),Reference Signal (unitless),Sample Signal (unitless)
901.51,0.035144,108485,100052
905.376,0.039966,121306,110641
909.237,0.043812,131909,119251
913.095,0.043424,143299,129664
916.948,0.045692,156982,141305
922.079,0.047696,179937,161222
925.923,0.049100,200504,179070
929.762,0.049383,222660,198728
933.597,0.049366,244426,218163
937.427,0.049060,263972,235775
941.254,0.048727,281845,251932
945.076,0.047082,297271,266729
950.165,0.047602,315605,282841
953.978,0.046851,328029,294484
957.786,0.046891,340470,305624
961.59,0.047403,352317,315886
965.389,0.047169,363056,325690
969.185,0.047605,373162,334420
972.976,0.048322,382632,342341
976.763,0.048288,391202,350036
981.806,0.049334,400190,357217
985.583,0.050125,406088,361822
989.355,0.050016,410162,365544
993.124,0.050501,412868,367545
996.888,0.051111,414263,368269
1000.65,0.051616,415476,368918
1004.4,0.052629,415479,368061
1009.41,0.053998,414358,365913
1013.15,0.054997,412923,363808
1016.89,0.055165,411526,362437
1020.63,0.055482,409066,360007
1024.36,0.055277,406777,358162
1028.09,0.055229,404427,356132
1031.82,0.055149,401911,353982
1036.78,0.054301,398410,351584
1040.49,0.054176,396204,349738
1044.2,0.054097,394236,348064
1047.91,0.053433,392042,346657
1051.61,0.052494,389823,345441
1055.31,0.051952,388234,344462
1059,0.052208,387599,343696
1063.92,0.050745,386688,344045
1067.61,0.049811,386598,344706
1071.29,0.049476,387377,345667
1074.96,0.048273,388536,347663
1078.63,0.048085,389855,348994
1082.3,0.047237,391215,350896
1085.96,0.046777,393215,353064
1090.84,0.046340,396270,356165
1094.49,0.045812,398760,358839
1098.14,0.045425,400987,361165
1101.79,0.044843,403477,363895
1105.43,0.045149,406116,366017
1109.06,0.044893,407701,367662
1112.7,0.044322,409859,370094
1117.53,0.044386,412494,372419
1121.15,0.045568,414909,373581
1124.77,0.045763,416559,374898
1128.38,0.047157,418532,375467
1131.99,0.048412,419956,375657
1135.6,0.050632,421946,375513
1139.2,0.051869,423881,376162
1143.99,0.054554,426786,376406
1147.58,0.055379,428617,377303
1151.17,0.056192,431169,378840
1154.75,0.058076,433579,379308
1158.33,0.059318,436264,380567
1161.91,0.062040,439132,380676
1165.48,0.064216,442389,381582
1169.04,0.066702,446101,382588
1173.79,0.071091,451929,383689
1177.34,0.072887,456026,385569
1180.9,0.075229,461306,387936
1184.44,0.077391,467657,391324
1187.99,0.078276,473969,395798
1191.52,0.077846,479856,401111
1195.06,0.077267,487372,407937
1199.76,0.076673,497347,416856
1203.29,0.075707,504311,423635
1206.81,0.074753,511507,430624
1210.33,0.073989,519078,437768
1213.84,0.073270,527163,445323
1217.35,0.072783,534208,451780
1220.85,0.071744,540472,458173
1225.51,0.070149,549929,467905
1229.01,0.070041,556888,473944
1232.5,0.069103,562180,479482
1235.98,0.069020,567975,484517
1239.46,0.068042,574815,491458
1242.94,0.066440,582782,500111
1246.41,0.066398,591476,507621
1251.03,0.066033,604016,518819
1254.5,0.066091,612289,525854
1257.96,0.066900,619125,530736
1261.41,0.067070,624551,535178
1264.86,0.067897,629900,538734
1268.31,0.068376,634345,541938
1271.75,0.069647,638574,543956
1276.33,0.069363,642499,547658
1279.76,0.069648,645905,550200
1283.19,0.069176,648307,552847
1286.61,0.068608,650446,555396
1290.03,0.068113,652132,557471
1293.44,0.067531,653907,559738
1296.85,0.067284,655963,561818
1301.39,0.066978,657349,563401
1304.8,0.067080,657558,563448
1308.19,0.067247,658515,564051
1311.58,0.067462,658804,564020
1314.97,0.068331,659011,563069
1318.36,0.068890,658272,561714
1321.73,0.068656,658022,561804
1326.23,0.070025,657870,559906
1329.6,0.070610,656482,557972
1332.97,0.071982,654926,554894
1336.33,0.072882,653727,552732
1339.69,0.074624,652497,549483
1343.04,0.076305,649913,545193
1346.39,0.078642,647671,540396
1349.73,0.080700,645338,535904
1354.18,0.083876,641175,528568
1357.52,0.085980,638376,523717
1360.85,0.088357,635805,518761
1364.17,0.090781,633413,513932
1367.49,0.093176,631026,509180
1370.81,0.095923,628050,503583
1374.12,0.097946,625034,498836
1378.54,0.101189,620272,491352
1381.84,0.104603,616892,484849
1385.14,0.108198,613613,478296
1388.43,0.113010,611526,471417
1391.72,0.117231,610663,466198
1395.01,0.122397,610634,460664
1398.29,0.127556,611700,456019
1402.66,0.134866,614051,450131
1405.93,0.140526,616268,445906
1409.2,0.145925,617795,441489
1412.46,0.150816,618872,437305
1415.72,0.155561,619795,433199
1418.98,0.159636,620495,429638
1422.23,0.163649,621087,426092
1426.56,0.167446,621375,422579
1429.8,0.170297,621616,419977
1433.04,0.173285,622129,417441
1436.27,0.175663,621526,414759
1439.5,0.177409,621113,412821
1442.72,0.180103,620921,410141
1445.94,0.182615,620270,407348
1450.23,0.186431,618860,402867
1453.44,0.189482,617697,399295
1456.64,0.192495,616264,395614
1459.85,0.194972,614413,392183
1463.04,0.198300,612307,387855
1466.24,0.201712,610032,383390
1469.43,0.204879,607345,378928
1473.67,0.211525,603789,370988
1476.85,0.216753,601175,364962
1480.02,0.223356,597737,357400
1483.19,0.229550,594479,350418
1486.36,0.236250,591232,343169
1489.52,0.241241,587853,337309
1492.68,0.245052,583875,332099
1496.89,0.247448,578062,326984
1500.03,0.248136,574159,324262
1503.18,0.248243,570285,321995
1506.32,0.247726,565444,319642
1509.45,0.246314,560571,317919
1512.58,0.244645,555821,316439
1515.71,0.242307,550344,315012
1519.87,0.238703,543983,313966
1522.99,0.235789,538764,313047
1526.1,0.233710,533692,311588
1529.21,0.229835,527902,310970
1532.32,0.227501,521886,309083
1535.42,0.224003,515888,308001
1538.51,0.221682,509987,306110
1541.6,0.218191,503936,304919
1545.72,0.212726,494694,303117
1548.8,0.210477,488378,300801
1551.88,0.207177,481832,299033
1554.95,0.204889,474989,296343
1558.02,0.203438,467818,292846
1561.08,0.202639,460730,288940
1564.15,0.201474,454170,285591
1568.22,0.200265,444181,280088
1571.27,0.199989,436947,275702
1574.32,0.198880,429598,271758
1577.36,0.197339,422039,267925
1580.4,0.196239,414375,263727
1583.43,0.194677,406354,259554
1586.46,0.192580,398475,255753
1590.49,0.190706,388982,250740
1593.51,0.188409,380708,246708
1596.53,0.186094,372727,242827
1599.54,0.183712,365060,239140
1602.55,0.181793,357543,235253
1605.55,0.178590,349495,231660
1608.55,0.177417,341154,226743
1612.54,0.174056,330877,221621
1615.53,0.172028,322904,217293
1618.51,0.171582,315116,212270
1621.49,0.170641,307217,207398
1624.47,0.169743,299481,202594
1627.44,0.168507,292112,198172
1630.41,0.166012,284245,193946
1634.36,0.164201,274079,187791
1637.32,0.165243,266916,182445
1640.27,0.164664,259612,177689
1643.22,0.163873,251804,172659
1646.16,0.162361,244348,168131
1649.1,0.161806,236703,163079
1652.04,0.158796,228171,158294
1655.95,0.156731,215408,150152
1658.88,0.154342,204937,143641
1661.8,0.150226,193395,136842
1664.72,0.143158,179728,129258
1667.63,0.132638,163642,120575
1670.54,0.120411,146312,110884
1673.44,0.108833,128451,99978
1677.31,0.093426,105080,84741
1680.21,0.082526,88906,73520
1683.1,0.080959,75033,62272
1685.99,0.084567,63520,52281
1688.87,0.087593,53714,43903
1691.75,0.095953,45653,36603
1694.62,0.099757,39137,31105
1697.49,0.105412,33776,26497
1701.31,0.106436,28175,22051