File: samples/wool/wool-000811/Column 1_050606_20150331_122632.csv
Method:,Column 1,,
Host Date-Time:,31/3/15 @ 12:26:32,,
Header Version:,1,,
System Temp (C):,34.01,,
Detector Temp (C):,34.87,,
Humidity (%):,1.66,,
Lamp PD:,3818,,
Shift Vector Coefficients:,-10.5391,0.0761263,-0.000134223,,
Pixel to Wavelength Coefficients:,1775.68,-0.916766,-0.000235065,,
Serial Number:,5510004,,
Scan Config Name:,Column 1,,
Scan Config Type:,Slew,,
Section 1,,
Start wavelength (nm):,900,,
End wavelength (nm):,1700,,
Pattern Pixel Width (nm):,   7.03,,,,
Exposure (ms):,  0.635,,,,
Digital Resolution:,228,,
Num Repeats:,6,,
PGA Gain:,64,,
Total Measurement Time in sec:,  2.666,,
Wavelength (nm),Absorbance (AU),Reference Signal (unitless),Sample Signal (unitless)
901.51,0.068215,108485,92716
905.376,0.074117,121306,102274
909.237,0.076354,131909,110642
913.095,0.076433,143299,120174
916.948,0.079053,156982,130857
922.079,0.080061,179937,149644
925.923,0.081950,200504,166025
929.762,0.081509,222660,184558
933.597,0.081875,244426,202429
937.427,0.080755,263972,219181
941.254,0.079506,281845,234695
945.076,0.079116,297271,247763
950.165,0.077886,315605,263790
953.978,0.077205,328029,274604
957.786,0.077641,340470,284733
961.59,0.077207,352317,294935
965.389,0.077841,363056,303482
969.185,0.077185,373162,312401
972.976,0.077544,382632,320064
976.763,0.078519,391202,326499
981.806,0.079216,400190,333465
985.583,0.079393,406088,338242
989.355,0.080030,410162,341134
993.124,0.079748,412868,343608
996.888,0.080472,414263,344195
1000.65,0.081693,415476,344233
1004.4,0.082386,415479,343687
1009.41,0.084096,414358,341413
1013.15,0.084011,412923,340297
1016.89,0.084665,411526,338635
1020.63,0.084176,409066,336990
1024.36,0.084692,406777,334707
1028.09,0.084627,404427,332823
1031.82,0.084032,401911,331206
1036.78,0.084028,398410,328324
1040.49,0.083772,396204,326698
1044.2,0.083396,394236,325357
1047.91,0.083842,392042,323214
1051.61,0.082735,389823,322205
1055.31,0.082662,388234,320946
1059,0.082366,387599,320639
1063.92,0.081579,386688,320466
1067.61,0.080491,386598,321195
1071.29,0.080729,387377,321666
1074.96,0.080046,388536,323136
1078.63,0.078949,389855,325053
1082.3,0.078551,391215,326486
1085.96,0.077490,393215,328958
1090.84,0.076780,396270,332056
1094.49,0.075877,398760,334838
1098.14,0.075652,400987,336882
1101.79,0.075497,403477,339095
1105.43,0.074574,406116,342039
1109.06,0.074303,407701,343589
1112.7,0.073615,409859,345955
1117.53,0.073240,412494,348480
1121.15,0.073731,414909,350124
1124.77,0.074257,416559,351091
1128.38,0.074526,418532,352535
1131.99,0.076183,419956,352388
1135.6,0.077930,421946,352636
1139.2,0.078923,423881,353444
1143.99,0.080666,426786,354441
1147.58,0.081248,428617,355485
1151.17,0.082168,431169,356845
1154.75,0.083290,433579,357914
1158.33,0.084989,436264,358724
1161.91,0.086807,439132,359574
1165.48,0.088771,442389,360606
1169.04,0.090729,446101,361996
1173.79,0.093833,451929,364114
1177.34,0.096516,456026,365152
1180.9,0.098259,461306,367900
1184.44,0.100316,467657,371203
1187.99,0.101385,473969,375288
1191.52,0.101015,479856,380273
1195.06,0.100853,487372,386374
1199.76,0.100068,497347,394995
1203.29,0.099915,504311,400667
1206.81,0.099539,511507,406736
1210.33,0.098617,519078,413633
1213.84,0.098389,527163,420297
1217.35,0.097644,534208,426645
1220.85,0.096698,540472,432589
1225.51,0.096046,549929,440819
1229.01,0.095778,556888,446673
1232.5,0.094853,562180,451879
1235.98,0.094426,567975,456986
1239.46,0.093469,574815,463510
1242.94,0.092447,582782,471041
1246.41,0.092147,591476,478399
1251.03,0.091822,604016,488907
1254.5,0.092133,612289,495249
1257.96,0.092257,619125,500635
1261.41,0.092280,624551,504996
1264.86,0.093105,629900,508355
1268.31,0.093714,634345,511224
1271.75,0.094262,638574,513984
1276.33,0.094352,642499,517036
1279.76,0.094625,645905,519450
1283.19,0.093751,648307,522432
1286.61,0.093587,650446,524354
1290.03,0.093495,652132,525824
1293.44,0.092786,653907,528117
1296.85,0.092434,655963,530207
1301.39,0.092491,657349,531257
1304.8,0.092419,657558,531514
1308.19,0.092719,658515,531920
1311.58,0.092613,658804,532284
1314.97,0.092936,659011,532055
1318.36,0.093531,658272,530731
1321.73,0.093467,658022,530607
1326.23,0.094460,657870,529274
1329.6,0.095432,656482,526976
1332.97,0.096152,654926,524856
1336.33,0.096996,653727,522878
1339.69,0.098356,652497,520262
1343.04,0.100170,649913,516042
1346.39,0.101749,647671,512396
1349.73,0.104207,645338,507668
1354.18,0.106959,641175,501208
1357.52,0.108803,638376,496905
1360.85,0.110924,635805,492493
1364.17,0.112884,633413,488431
1367.49,0.115379,631026,483803
1370.81,0.117282,628050,479416
1374.12,0.119035,625034,475191
1378.54,0.121967,620272,468398
1381.84,0.124579,616892,463052
1385.14,0.128362,613613,456596
1388.43,0.132429,611526,450802
1391.72,0.135967,610663,446514
1395.01,0.139669,610634,442703
1398.29,0.144462,611700,438608
1402.66,0.150984,614051,433731
1405.93,0.155876,616268,430421
1409.2,0.160291,617795,427123
1412.46,0.164694,618872,423552
1415.72,0.168782,619795,420210
1418.98,0.172337,620495,417255
1422.23,0.175399,621087,414719
1426.56,0.179253,621375,411245
1429.8,0.181626,621616,409163
1433.04,0.184384,622129,406908
1436.27,0.186734,621526,404320
1439.5,0.188625,621113,402296
1442.72,0.190722,620921,400234
1445.94,0.193887,620270,396912
1450.23,0.197081,618860,393108
1453.44,0.199914,617697,389818
1456.64,0.203164,616264,386014
1459.85,0.205238,614413,383021
1463.04,0.208120,612307,379183
1466.24,0.212061,610032,374362
1469.43,0.215570,607345,369714
1473.67,0.221283,603789,362746
1476.85,0.227022,601175,356434
1480.02,0.233241,597737,349357
1483.19,0.239827,594479,342223
1486.36,0.244994,591232,336329
1489.52,0.250281,587853,330360
1492.68,0.253969,583875,325350
1496.89,0.255672,578062,320850
1500.03,0.256111,574159,318362
1503.18,0.256038,570285,316267
1506.32,0.254794,565444,314482
1509.45,0.253708,560571,312552
1512.58,0.252511,555821,310759
1515.71,0.249995,550344,309485
1519.87,0.247170,543983,307904
1522.99,0.245094,538764,306411
1526.1,0.242176,533692,305573
1529.21,0.239330,527902,304245
1532.32,0.236916,521886,302454
1535.42,0.233711,515888,301193
1538.51,0.230454,509987,299989
1541.6,0.227248,503936,298626
1545.72,0.224057,494694,295311
1548.8,0.220821,488378,293721
1551.88,0.218967,481832,291024
1554.95,0.216435,474989,288568
1558.02,0.214663,467818,285374
1561.08,0.213674,460730,281691
1564.15,0.213175,454170,277999
1568.22,0.211666,444181,272831
1571.27,0.211431,436947,268533
1574.32,0.210932,429598,264320
1577.36,0.208792,422039,260952
1580.4,0.208237,414375,256541
1583.43,0.207364,406354,252081
1586.46,0.205454,398475,248283
1590.49,0.203259,388982,243596
1593.51,0.201421,380708,239426
1596.53,0.199525,372727,235432
1599.54,0.197890,365060,231459
1602.55,0.195432,357543,227980
1605.55,0.193890,349495,223641
1608.55,0.191643,341154,219436
1612.54,0.190165,330877,213551
1615.53,0.187947,322904,209472
1618.51,0.187771,315116,204503
1621.49,0.186114,307217,200139
1624.47,0.185136,299481,195539
1627.44,0.184021,292112,191218
1630.41,0.183349,284245,186356
1634.36,0.182717,274079,179953
1637.32,0.180536,266916,176132
1640.27,0.180390,259612,171370
1643.22,0.179322,251804,166625
1646.16,0.180156,244348,161381
1649.1,0.178072,236703,157084
1652.04,0.176911,228171,151827
1655.95,0.174092,215408,144268
1658.88,0.169024,204937,138866
1661.8,0.164656,193395,132370
1664.72,0.156027,179728,125484
1667.63,0.144497,163642,117327
1670.54,0.130792,146312,108265
1673.44,0.112607,128451,99113
1677.31,0.094859,105080,84462
1680.21,0.080828,88906,73808
1683.1,0.078484,75033,62628
1685.99,0.076314,63520,53284
1688.87,0.077609,53714,44924
1691.75,0.081805,45653,37815
1694.62,0.087234,39137,32015
1697.49,0.097985,33776,26954
1701.31,0.104000,28175,22175