File: samples/wool/wool-000811/Column 1_050550_20150331_115957.csv
Method:,Column 1,,
Host Date-Time:,31/3/15 @ 11:59:57,,
Header Version:,1,,
System Temp (C):,33.38,,
Detector Temp (C):,32.25,,
Humidity (%):,3.03,,
Lamp PD:,3822,,
Shift Vector Coefficients:,-10.5391,0.0761263,-0.000134223,,
Pixel to Wavelength Coefficients:,1775.68,-0.916766,-0.000235065,,
Serial Number:,5510004,,
Scan Config Name:,Column 1,,
Scan Config Type:,Slew,,
Section 1,,
Start wavelength (nm):,900,,
End wavelength (nm):,1700,,
Pattern Pixel Width (nm):,   7.03,,,,
Exposure (ms):,  0.635,,,,
Digital Resolution:,228,,
Num Repeats:,6,,
PGA Gain:,64,,
Total Measurement Time in sec:,  2.665,,
Wavelength (nm),Absorbance (AU),Reference Signal (unitless),Sample Signal (unitless)
901.51,0.033238,108485,100492
905.376,0.038829,121306,110931
909.237,0.040775,131909,120088
913.095,0.041479,143299,130246
916.948,0.040651,156982,142955
922.079,0.042100,179937,163313
925.923,0.042852,200504,181665
929.762,0.043494,222660,201441
933.597,0.044062,244426,220844
937.427,0.043969,263972,238555
941.254,0.043593,281845,254928
945.076,0.042807,297271,269368
950.165,0.043112,315605,285780
953.978,0.042662,328029,297338
957.786,0.043534,340470,307996
961.59,0.043374,352317,318830
965.389,0.044065,363056,328026
969.185,0.043346,373162,337716
972.976,0.044458,382632,345401
976.763,0.045375,391202,352392
981.806,0.045434,400190,360439
985.583,0.046042,406088,365240
989.355,0.046479,410162,368533
993.124,0.046659,412868,370811
996.888,0.047223,414263,371581
1000.65,0.048186,415476,371843
1004.4,0.049220,415479,370962
1009.41,0.049627,414358,369614
1013.15,0.050647,412923,367470
1016.89,0.051727,411526,365317
1020.63,0.051006,409066,363737
1024.36,0.051114,406777,361612
1028.09,0.050868,404427,359726
1031.82,0.050888,401911,357472
1036.78,0.049521,398410,355475
1040.49,0.049253,396204,353725
1044.2,0.049158,394236,352045
1047.91,0.048812,392042,350365
1051.61,0.048221,389823,348856
1055.31,0.047735,388234,347823
1059,0.046541,387599,348210
1063.92,0.046160,386688,347697
1067.61,0.044857,386598,348660
1071.29,0.044287,387377,349822
1074.96,0.044174,388536,350960
1078.63,0.043242,389855,352908
1082.3,0.041814,391215,355305
1085.96,0.041692,393215,357222
1090.84,0.041116,396270,360475
1094.49,0.040354,398760,363377
1098.14,0.040330,400987,365427
1101.79,0.040103,403477,367888
1105.43,0.040004,406116,370379
1109.06,0.039366,407701,372371
1112.7,0.039089,409859,374581
1117.53,0.039439,412494,376685
1121.15,0.040143,414909,378277
1124.77,0.040433,416559,379528
1128.38,0.042266,418532,379719
1131.99,0.043458,419956,379967
1135.6,0.045572,421946,379914
1139.2,0.047251,423881,380183
1143.99,0.049836,426786,380517
1147.58,0.051370,428617,380802
1151.17,0.052324,431169,382229
1154.75,0.053364,433579,383446
1158.33,0.055650,436264,383795
1161.91,0.057788,439132,384421
1165.48,0.060707,442389,384678
1169.04,0.063158,446101,385723
1173.79,0.066610,451929,387668
1177.34,0.069055,456026,388987
1180.9,0.071327,461306,391437
1184.44,0.072984,467657,395315
1187.99,0.074041,473969,399677
1191.52,0.073209,479856,405417
1195.06,0.072968,487372,411996
1199.76,0.072146,497347,421224
1203.29,0.071026,504311,428225
1206.81,0.070128,511507,435235
1210.33,0.069159,519078,442663
1213.84,0.068587,527163,450151
1217.35,0.067560,534208,457247
1220.85,0.066558,540472,463677
1225.51,0.066007,549929,472389
1229.01,0.065147,556888,479315
1232.5,0.064545,562180,484541
1235.98,0.063858,567975,490310
1239.46,0.062642,574815,497606
1242.94,0.062202,582782,505015
1246.41,0.061591,591476,513270
1251.03,0.061131,604016,524708
1254.5,0.061292,612289,531697
1257.96,0.061684,619125,537149
1261.41,0.062320,624551,541063
1264.86,0.063405,629900,544335
1268.31,0.063464,634345,548102
1271.75,0.064289,638574,550709
1276.33,0.064650,642499,553634
1279.76,0.064645,645905,556575
1283.19,0.063980,648307,559501
1286.61,0.063890,650446,561463
1290.03,0.063731,652132,563125
1293.44,0.062815,653907,565849
1296.85,0.063166,655963,567170
1301.39,0.062683,657349,569001
1304.8,0.062965,657558,568812
1308.19,0.062801,658515,569856
1311.58,0.063656,658804,568984
1314.97,0.064305,659011,568313
1318.36,0.064686,658272,567178
1321.73,0.064955,658022,566612
1326.23,0.066234,657870,564815
1329.6,0.067446,656482,562053
1332.97,0.068376,654926,559521
1336.33,0.069893,653727,556549
1339.69,0.071720,652497,553170
1343.04,0.073755,649913,548403
1346.39,0.075941,647671,543768
1349.73,0.078462,645338,538673
1354.18,0.082043,641175,530803
1357.52,0.083940,638376,526183
1360.85,0.086282,635805,521245
1364.17,0.089105,633413,515919
1367.49,0.091388,631026,511281
1370.81,0.094197,628050,505589
1374.12,0.096583,625034,500404
1378.54,0.100452,620272,492187
1381.84,0.104816,616892,484611
1385.14,0.109454,613613,476915
1388.43,0.114236,611526,470088
1391.72,0.120423,610663,462784
1395.01,0.126033,610634,456823
1398.29,0.132710,611700,450639
1402.66,0.141542,614051,443264
1405.93,0.149456,616268,436831
1409.2,0.155609,617795,431753
1412.46,0.162105,618872,426085
1415.72,0.166962,619795,421974
1418.98,0.172047,620495,417533
1422.23,0.176309,621087,413850
1426.56,0.181229,621375,409378
1429.8,0.184856,621616,406131
1433.04,0.187490,622129,404008
1436.27,0.190317,621526,400998
1439.5,0.192467,621113,398753
1442.72,0.195461,620921,395891
1445.94,0.196934,620270,394137
1450.23,0.201518,618860,389112
1453.44,0.203977,617697,386188
1456.64,0.206669,616264,382911
1459.85,0.209101,614413,379629
1463.04,0.211838,612307,375951
1466.24,0.214719,610032,372078
1469.43,0.217624,607345,367969
1473.67,0.222239,603789,361948
1476.85,0.226731,601175,356673
1480.02,0.231836,597737,350489
1483.19,0.237442,594479,344108
1486.36,0.242116,591232,338565
1489.52,0.246693,587853,333101
1492.68,0.250817,583875,327720
1496.89,0.252762,578062,323007
1500.03,0.253103,574159,320575
1503.18,0.253378,570285,318210
1506.32,0.253298,565444,315567
1509.45,0.251944,560571,313824
1512.58,0.250597,555821,312132
1515.71,0.247995,550344,310913
1519.87,0.245298,543983,309234
1522.99,0.242129,538764,308510
1526.1,0.239881,533692,307192
1529.21,0.236171,527902,306466
1532.32,0.233128,521886,305104
1535.42,0.229928,515888,303828
1538.51,0.227099,509987,302315
1541.6,0.223660,503936,301103
1545.72,0.219325,494694,298546
1548.8,0.215567,488378,297296
1551.88,0.213119,481832,294969
1554.95,0.210344,474989,292644
1558.02,0.208874,467818,289203
1561.08,0.207684,460730,285603
1564.15,0.206826,454170,282093
1568.22,0.205783,444181,276552
1571.27,0.204596,436947,272793
1574.32,0.203170,429598,269087
1577.36,0.201066,422039,265636
1580.4,0.200563,414375,261114
1583.43,0.198131,406354,257498
1586.46,0.195265,398475,254177
1590.49,0.192984,388982,249428
1593.51,0.191006,380708,245237
1596.53,0.189098,372727,241153
1599.54,0.186056,365060,237853
1602.55,0.183825,357543,234155
1605.55,0.181766,349495,229972
1608.55,0.179100,341154,225866
1612.54,0.177676,330877,219781
1615.53,0.174178,322904,216220
1618.51,0.174165,315116,211011
1621.49,0.171464,307217,207005
1624.47,0.170534,299481,202225
1627.44,0.168742,292112,198065
1630.41,0.166698,284245,193640
1634.36,0.165556,274079,187206
1637.32,0.165169,266916,182476
1640.27,0.165002,259612,177551
1643.22,0.162811,251804,173082
1646.16,0.161064,244348,168634
1649.1,0.160673,236703,163505
1652.04,0.159777,228171,157937
1655.95,0.158362,215408,149589
1658.88,0.155605,204937,143224
1661.8,0.151462,193395,136453
1664.72,0.147121,179728,128084
1667.63,0.137575,163642,119212
1670.54,0.129666,146312,108546
1673.44,0.118999,128451,97665
1677.31,0.108379,105080,81873
1680.21,0.101217,88906,70423
1683.1,0.102850,75033,59211
1685.99,0.110134,63520,49292
1688.87,0.112825,53714,41425
1691.75,0.116930,45653,34877
1694.62,0.120080,39137,29683
1697.49,0.120487,33776,25593
1701.31,0.124492,28175,21153