File: samples/wool/wool-000811/Column 1_050553_20150331_120119.csv
Method:,Column 1,,
Host Date-Time:,31/3/15 @ 12:1:19,,
Header Version:,1,,
System Temp (C):,33.41,,
Detector Temp (C):,32.42,,
Humidity (%):,2.64,,
Lamp PD:,3820,,
Shift Vector Coefficients:,-10.5391,0.0761263,-0.000134223,,
Pixel to Wavelength Coefficients:,1775.68,-0.916766,-0.000235065,,
Serial Number:,5510004,,
Scan Config Name:,Column 1,,
Scan Config Type:,Slew,,
Section 1,,
Start wavelength (nm):,900,,
End wavelength (nm):,1700,,
Pattern Pixel Width (nm):,   7.03,,,,
Exposure (ms):,  0.635,,,,
Digital Resolution:,228,,
Num Repeats:,6,,
PGA Gain:,64,,
Total Measurement Time in sec:,  2.726,,
Wavelength (nm),Absorbance (AU),Reference Signal (unitless),Sample Signal (unitless)
901.51,0.034966,108485,100093
905.376,0.041145,121306,110341
909.237,0.041792,131909,119807
913.095,0.042902,143299,129820
916.948,0.044244,156982,141777
922.079,0.044740,179937,162323
925.923,0.044394,200504,181021
929.762,0.045502,222660,200512
933.597,0.045867,244426,219928
937.427,0.046271,263972,237294
941.254,0.046787,281845,253060
945.076,0.046019,297271,267383
950.165,0.045095,315605,284478
953.978,0.044860,328029,295837
957.786,0.045583,340470,306546
961.59,0.046210,352317,316755
965.389,0.046169,363056,326441
969.185,0.046658,373162,335150
972.976,0.047328,382632,343126
976.763,0.047864,391202,350378
981.806,0.048456,400190,357940
985.583,0.048804,406088,362924
989.355,0.049644,410162,365857
993.124,0.049998,412868,367971
996.888,0.050538,414263,368755
1000.65,0.051470,415476,369042
1004.4,0.052715,415479,367988
1009.41,0.054165,414358,365772
1013.15,0.054667,412923,364084
1016.89,0.055014,411526,362563
1020.63,0.054632,409066,360713
1024.36,0.055351,406777,358101
1028.09,0.054529,404427,356707
1031.82,0.054282,401911,354689
1036.78,0.053946,398410,351872
1040.49,0.053337,396204,350414
1044.2,0.052948,394236,348986
1047.91,0.052833,392042,347136
1051.61,0.052103,389823,345752
1055.31,0.052035,388234,344396
1059,0.051325,387599,344396
1063.92,0.050211,386688,344469
1067.61,0.049697,386598,344796
1071.29,0.048901,387377,346125
1074.96,0.048449,388536,347522
1078.63,0.048344,389855,348786
1082.3,0.047314,391215,350834
1085.96,0.046413,393215,353360
1090.84,0.045440,396270,356904
1094.49,0.045667,398760,358959
1098.14,0.045337,400987,361238
1101.79,0.044606,403477,364093
1105.43,0.045012,406116,366132
1109.06,0.044893,407701,367662
1112.7,0.044603,409859,369855
1117.53,0.044534,412494,372292
1121.15,0.044985,414909,374083
1124.77,0.045715,416559,374940
1128.38,0.047000,418532,375603
1131.99,0.048676,419956,375429
1135.6,0.050175,421946,375908
1139.2,0.052169,423881,375902
1143.99,0.054656,426786,376317
1147.58,0.055454,428617,377238
1151.17,0.056733,431169,378368
1154.75,0.058727,433579,378740
1158.33,0.059931,436264,380030
1161.91,0.062258,439132,380485
1165.48,0.064253,442389,381550
1169.04,0.067193,446101,382156
1173.79,0.070986,451929,383782
1177.34,0.073620,456026,384919
1180.9,0.075633,461306,387575
1184.44,0.077626,467657,391112
1187.99,0.077877,473969,396162
1191.52,0.078571,479856,400442
1195.06,0.077864,487372,407377
1199.76,0.077028,497347,416516
1203.29,0.075898,504311,423448
1206.81,0.074960,511507,430419
1210.33,0.074575,519078,437177
1213.84,0.073394,527163,445196
1217.35,0.072530,534208,452044
1220.85,0.072080,540472,457818
1225.51,0.070879,549929,467119
1229.01,0.070910,556888,472996
1232.5,0.070051,562180,478437
1235.98,0.069277,567975,484231
1239.46,0.068229,574815,491246
1242.94,0.067105,582782,499346
1246.41,0.066422,591476,507592
1251.03,0.066043,604016,518806
1254.5,0.066432,612289,525441
1257.96,0.067295,619125,530253
1261.41,0.067422,624551,534744
1264.86,0.068063,629900,538529
1268.31,0.068779,634345,541435
1271.75,0.069521,638574,544114
1276.33,0.069819,642499,547083
1279.76,0.069721,645905,550107
1283.19,0.069241,648307,552764
1286.61,0.069195,650446,554646
1290.03,0.068492,652132,556985
1293.44,0.068061,653907,559055
1296.85,0.068176,655963,560665
1301.39,0.068026,657349,562043
1304.8,0.067969,657558,562296
1308.19,0.068135,658515,562899
1311.58,0.068142,658804,563137
1314.97,0.068935,659011,562287
1318.36,0.069157,658272,561369
1321.73,0.070107,658022,559930
1326.23,0.070922,657870,558751
1329.6,0.071858,656482,556371
1332.97,0.073108,654926,553457
1336.33,0.074324,653727,550899
1339.69,0.075632,652497,548209
1343.04,0.078135,649913,542901
1346.39,0.080159,647671,538512
1349.73,0.082320,645338,533909
1354.18,0.085840,641175,526183
1357.52,0.088063,638376,521211
1360.85,0.090207,635805,516556
1364.17,0.092223,633413,512229
1367.49,0.094931,631026,507126
1370.81,0.097236,628050,502063
1374.12,0.099640,625034,496894
1378.54,0.103357,620272,488906
1381.84,0.107285,616892,481864
1385.14,0.111358,613613,474828
1388.43,0.115843,611526,468352
1391.72,0.121190,610663,461968
1395.01,0.126649,610634,456176
1398.29,0.132282,611700,451083
1402.66,0.140344,614051,444488
1405.93,0.146890,616268,439420
1409.2,0.153056,617795,434299
1412.46,0.158686,618872,429452
1415.72,0.163754,619795,425103
1418.98,0.168249,620495,421201
1422.23,0.172103,621087,417878
1426.56,0.176657,621375,413711
1429.8,0.179277,621616,411382
1433.04,0.182799,622129,408396
1436.27,0.184550,621526,406358
1439.5,0.187019,621113,403786
1442.72,0.189928,620921,400967
1445.94,0.192114,620270,398535
1450.23,0.195549,618860,394497
1453.44,0.199109,617697,390541
1456.64,0.201556,616264,387446
1459.85,0.203884,614413,384217
1463.04,0.207135,612307,380044
1466.24,0.209620,610032,376472
1469.43,0.213495,607345,371484
1473.67,0.218326,603789,365224
1476.85,0.223932,601175,358979
1480.02,0.228801,597737,352947
1483.19,0.235564,594479,345599
1486.36,0.240973,591232,339457
1489.52,0.246176,587853,333498
1492.68,0.248919,583875,329155
1496.89,0.250997,578062,324323
1500.03,0.251816,574159,321526
1503.18,0.252152,570285,319110
1506.32,0.251297,565444,317024
1509.45,0.249474,560571,315614
1512.58,0.248234,555821,313835
1515.71,0.246378,550344,312073
1519.87,0.243615,543983,310435
1522.99,0.240558,538764,309628
1526.1,0.238227,533692,308364
1529.21,0.234496,527902,307650
1532.32,0.231318,521886,306378
1535.42,0.228710,515888,304681
1538.51,0.225501,509987,303430
1541.6,0.222406,503936,301974
1545.72,0.218202,494694,299319
1548.8,0.214506,488378,298023
1551.88,0.212845,481832,295155
1554.95,0.210108,474989,292803
1558.02,0.207350,467818,290220
1561.08,0.206428,460730,286430
1564.15,0.206480,454170,282318
1568.22,0.204463,444181,277394
1571.27,0.204653,436947,272757
1574.32,0.203654,429598,268787
1577.36,0.201337,422039,265470
1580.4,0.199603,414375,261692
1583.43,0.198417,406354,257328
1586.46,0.197590,398475,252820
1590.49,0.194231,388982,248713
1593.51,0.192365,380708,244471
1596.53,0.189655,372727,240844
1599.54,0.188730,365060,236393
1602.55,0.185533,357543,233236
1605.55,0.182848,349495,229400
1608.55,0.180432,341154,225174
1612.54,0.178858,330877,219184
1615.53,0.175505,322904,215560
1618.51,0.175439,315116,210393
1621.49,0.174078,307217,205763
1624.47,0.172090,299481,201502
1627.44,0.171024,292112,197027
1630.41,0.170978,284245,191741
1634.36,0.168566,274079,185913
1637.32,0.166876,266916,181760
1640.27,0.167528,259612,176521
1643.22,0.166601,251804,171578
1646.16,0.165069,244348,167086
1649.1,0.165056,236703,161863
1652.04,0.164074,228171,156382
1655.95,0.161635,215408,148466
1658.88,0.159240,204937,142030
1661.8,0.154628,193395,135462
1664.72,0.150463,179728,127102
1667.63,0.141638,163642,118102
1670.54,0.133464,146312,107601
1673.44,0.123868,128451,96576
1677.31,0.111408,105080,81304
1680.21,0.105505,88906,69731
1683.1,0.105764,75033,58815
1685.99,0.107201,63520,49626
1688.87,0.113444,53714,41366
1691.75,0.120732,45653,34573
1694.62,0.127547,39137,29177
1697.49,0.125574,33776,25295
1701.31,0.138916,28175,20462