File: samples/wool/wool-000811/Column 1_050592_20150331_122001.csv
Method:,Column 1,,
Host Date-Time:,31/3/15 @ 12:20:1,,
Header Version:,1,,
System Temp (C):,33.9,,
Detector Temp (C):,34.66,,
Humidity (%):,1.76,,
Lamp PD:,3818,,
Shift Vector Coefficients:,-10.5391,0.0761263,-0.000134223,,
Pixel to Wavelength Coefficients:,1775.68,-0.916766,-0.000235065,,
Serial Number:,5510004,,
Scan Config Name:,Column 1,,
Scan Config Type:,Slew,,
Section 1,,
Start wavelength (nm):,900,,
End wavelength (nm):,1700,,
Pattern Pixel Width (nm):,   7.03,,,,
Exposure (ms):,  0.635,,,,
Digital Resolution:,228,,
Num Repeats:,6,,
PGA Gain:,64,,
Total Measurement Time in sec:,  2.735,,
Wavelength (nm),Absorbance (AU),Reference Signal (unitless),Sample Signal (unitless)
901.51,0.070182,108485,92297
905.376,0.076373,121306,101744
909.237,0.077502,131909,110350
913.095,0.078886,143299,119497
916.948,0.080196,156982,130513
922.079,0.081818,179937,149040
925.923,0.082376,200504,165862
929.762,0.083455,222660,183733
933.597,0.082994,244426,201908
937.427,0.081908,263972,218600
941.254,0.081660,281845,233534
945.076,0.080087,297271,247210
950.165,0.079553,315605,262779
953.978,0.079254,328029,273312
957.786,0.079014,340470,283834
961.59,0.079129,352317,293633
965.389,0.079970,363056,301998
969.185,0.079337,373162,310857
972.976,0.079655,382632,318512
976.763,0.080200,391202,325238
981.806,0.080656,400190,332361
985.583,0.081043,406088,336959
989.355,0.082105,410162,339508
993.124,0.081860,412868,341941
996.888,0.082555,414263,342548
1000.65,0.082929,415476,343255
1004.4,0.084023,415479,342394
1009.41,0.085629,414358,340210
1013.15,0.086041,412923,338710
1016.89,0.086569,411526,337154
1020.63,0.086267,409066,335372
1024.36,0.086323,406777,333452
1028.09,0.086443,404427,331434
1031.82,0.085804,401911,329857
1036.78,0.085864,398410,326939
1040.49,0.085784,396204,325188
1044.2,0.085210,394236,324001
1047.91,0.084427,392042,322779
1051.61,0.083934,389823,321317
1055.31,0.084745,388234,319410
1059,0.083785,387599,319593
1063.92,0.083307,386688,319193
1067.61,0.082744,386598,319533
1071.29,0.081753,387377,320908
1074.96,0.081528,388536,322035
1078.63,0.080652,389855,323781
1082.3,0.079965,391215,325425
1085.96,0.079103,393215,327738
1090.84,0.078296,396270,330899
1094.49,0.078153,398760,333088
1098.14,0.077471,400987,335474
1101.79,0.077512,403477,337526
1105.43,0.076580,406116,340463
1109.06,0.076191,407701,342098
1112.7,0.075579,409859,344394
1117.53,0.075076,412494,347010
1121.15,0.075562,414909,348651
1124.77,0.076188,416559,349533
1128.38,0.077170,418532,350396
1131.99,0.077884,419956,351010
1135.6,0.079790,421946,351129
1139.2,0.080768,423881,351946
1143.99,0.082837,426786,352674
1147.58,0.083592,428617,353572
1151.17,0.085036,431169,354496
1154.75,0.085811,433579,355842
1158.33,0.087022,436264,357049
1161.91,0.088182,439132,358437
1165.48,0.090502,442389,359172
1169.04,0.092902,446101,360190
1173.79,0.095820,451929,362452
1177.34,0.098706,456026,363315
1180.9,0.100420,461306,366074
1184.44,0.101895,467657,369856
1187.99,0.102934,473969,373952
1191.52,0.103323,479856,378258
1195.06,0.103047,487372,384427
1199.76,0.102933,497347,392398
1203.29,0.101950,504311,398794
1206.81,0.101118,511507,405260
1210.33,0.100747,519078,411610
1213.84,0.100270,527163,418480
1217.35,0.099181,534208,425137
1220.85,0.098803,540472,430497
1225.51,0.098806,549929,438027
1229.01,0.097751,556888,444649
1232.5,0.097596,562180,449034
1235.98,0.096381,567975,454934
1239.46,0.095314,574815,461545
1242.94,0.094401,582782,468927
1246.41,0.093707,591476,476684
1251.03,0.093896,604016,486578
1254.5,0.093765,612289,493391
1257.96,0.094246,619125,498347
1261.41,0.095000,624551,501843
1264.86,0.095335,629900,505751
1268.31,0.095691,634345,508903
1271.75,0.096336,638574,511535
1276.33,0.096904,642499,514006
1279.76,0.096579,645905,517118
1283.19,0.095853,648307,519910
1286.61,0.095858,650446,521619
1290.03,0.095444,652132,523470
1293.44,0.094804,653907,525669
1296.85,0.094865,655963,527247
1301.39,0.094898,657349,528321
1304.8,0.094387,657558,529111
1308.19,0.094361,658515,529913
1311.58,0.094536,658804,529932
1314.97,0.095397,659011,529049
1318.36,0.095958,658272,527773
1321.73,0.096118,658022,527378
1326.23,0.097597,657870,525464
1329.6,0.097784,656482,524130
1332.97,0.098776,654926,521695
1336.33,0.099809,653727,519502
1339.69,0.101186,652497,516883
1343.04,0.103388,649913,512233
1346.39,0.105001,647671,508573
1349.73,0.106877,645338,504557
1354.18,0.109827,641175,497909
1357.52,0.111748,638376,493547
1360.85,0.113865,635805,489169
1364.17,0.115740,633413,485229
1367.49,0.118285,631026,480576
1370.81,0.120386,628050,476001
1374.12,0.122796,625034,471094
1378.54,0.125369,620272,464743
1381.84,0.129019,616892,458342
1385.14,0.131550,613613,453257
1388.43,0.135758,611526,447360
1391.72,0.140164,610663,442219
1395.01,0.144240,610634,438067
1398.29,0.149019,611700,434030
1402.66,0.155970,614051,428780
1405.93,0.161288,616268,425091
1409.2,0.166338,617795,421217
1412.46,0.171028,618872,417420
1415.72,0.175095,619795,414146
1418.98,0.179208,620495,410705
1422.23,0.182601,621087,407898
1426.56,0.186314,621375,404613
1429.8,0.188884,621616,402382
1433.04,0.191781,622129,400036
1436.27,0.193694,621526,397892
1439.5,0.195553,621113,395929
1442.72,0.198051,620921,393537
1445.94,0.200433,620270,390974
1450.23,0.203874,618860,387007
1453.44,0.206668,617697,383802
1456.64,0.209895,616264,380077
1459.85,0.212197,614413,376932
1463.04,0.214333,612307,373797
1466.24,0.218034,610032,369248
1469.43,0.221562,607345,364648
1473.67,0.227167,603789,357864
1476.85,0.232946,601175,351605
1480.02,0.237567,597737,345894
1483.19,0.243912,594479,339019
1486.36,0.250162,591232,332350
1489.52,0.254323,587853,327300
1492.68,0.257100,583875,323013
1496.89,0.259184,578062,318266
1500.03,0.260351,574159,315269
1503.18,0.259989,570285,313403
1506.32,0.259156,565444,311339
1509.45,0.257938,560571,309523
1512.58,0.256185,555821,308141
1515.71,0.254256,550344,306463
1519.87,0.250967,543983,305224
1522.99,0.248925,538764,303720
1526.1,0.245762,533692,303060
1529.21,0.243596,527902,301271
1532.32,0.240404,521886,300035
1535.42,0.237075,515888,298869
1538.51,0.233489,509987,297900
1541.6,0.232212,503936,295232
1545.72,0.228128,494694,292556
1548.8,0.224697,488378,291111
1551.88,0.223000,481832,288334
1554.95,0.220694,474989,285752
1558.02,0.218206,467818,283055
1561.08,0.217131,460730,279457
1564.15,0.216788,454170,275696
1568.22,0.215992,444181,270127
1571.27,0.215116,436947,266264
1574.32,0.214272,429598,262295
1577.36,0.213551,422039,258108
1580.4,0.212464,414375,254056
1583.43,0.210076,406354,250512
1586.46,0.208614,398475,246483
1590.49,0.206779,388982,241630
1593.51,0.205104,380708,237404
1596.53,0.203212,372727,233442
1599.54,0.201245,365060,229678
1602.55,0.199068,357543,226079
1605.55,0.197814,349495,221629
1608.55,0.195066,341154,217713
1612.54,0.193763,330877,211789
1615.53,0.191340,322904,207842
1618.51,0.190367,315116,203284
1621.49,0.188900,307217,198859
1624.47,0.188411,299481,194070
1627.44,0.187890,292112,189522
1630.41,0.186789,284245,184886
1634.36,0.185059,274079,178985
1637.32,0.185224,266916,174241
1640.27,0.184034,259612,169938
1643.22,0.183892,251804,164881
1646.16,0.183027,244348,160318
1649.1,0.181021,236703,156021
1652.04,0.179183,228171,151035
1655.95,0.177267,215408,143217
1658.88,0.172933,204937,137622
1661.8,0.166958,193395,131670
1664.72,0.159712,179728,124424
1667.63,0.148057,163642,116369
1670.54,0.133956,146312,107479
1673.44,0.118021,128451,97885
1677.31,0.099600,105080,83545
1680.21,0.085793,88906,72969
1683.1,0.085827,75033,61578
1685.99,0.086456,63520,52054
1688.87,0.085590,53714,44106
1691.75,0.089592,45653,37143
1694.62,0.096211,39137,31360
1697.49,0.098985,33776,26892
1701.31,0.110591,28175,21841