File: samples/wool/wool-000811/Column 1_050590_20150331_121859.csv
Method:,Column 1,,
Host Date-Time:,31/3/15 @ 12:18:59,,
Header Version:,1,,
System Temp (C):,33.85,,
Detector Temp (C):,34.56,,
Humidity (%):,1.86,,
Lamp PD:,3819,,
Shift Vector Coefficients:,-10.5391,0.0761263,-0.000134223,,
Pixel to Wavelength Coefficients:,1775.68,-0.916766,-0.000235065,,
Serial Number:,5510004,,
Scan Config Name:,Column 1,,
Scan Config Type:,Slew,,
Section 1,,
Start wavelength (nm):,900,,
End wavelength (nm):,1700,,
Pattern Pixel Width (nm):,   7.03,,,,
Exposure (ms):,  0.635,,,,
Digital Resolution:,228,,
Num Repeats:,6,,
PGA Gain:,64,,
Total Measurement Time in sec:,  2.662,,
Wavelength (nm),Absorbance (AU),Reference Signal (unitless),Sample Signal (unitless)
901.51,0.071860,108485,91941
905.376,0.077408,121306,101502
909.237,0.077636,131909,110316
913.095,0.079828,143299,119238
916.948,0.080013,156982,130568
922.079,0.081334,179937,149206
925.923,0.081879,200504,166052
929.762,0.083741,222660,183612
933.597,0.083993,244426,201444
937.427,0.082069,263972,218519
941.254,0.081450,281845,233647
945.076,0.080445,297271,247006
950.165,0.079621,315605,262738
953.978,0.079223,328029,273331
957.786,0.079328,340470,283629
961.59,0.079454,352317,293413
965.389,0.079110,363056,302596
969.185,0.079791,373162,310532
972.976,0.079557,382632,318584
976.763,0.080372,391202,325109
981.806,0.080725,400190,332308
985.583,0.081270,406088,336783
989.355,0.081286,410162,340149
993.124,0.082332,412868,341570
996.888,0.082590,414263,342520
1000.65,0.083020,415476,343183
1004.4,0.084877,415479,341721
1009.41,0.085279,414358,340484
1013.15,0.085686,412923,338987
1016.89,0.086948,411526,336860
1020.63,0.086716,409066,335025
1024.36,0.086102,406777,333622
1028.09,0.086304,404427,331540
1031.82,0.086493,401911,329334
1036.78,0.085683,398410,327075
1040.49,0.085476,396204,325419
1044.2,0.086062,394236,323366
1047.91,0.085621,392042,321893
1051.61,0.085396,389823,320237
1055.31,0.084144,388234,319852
1059,0.083777,387599,319599
1063.92,0.083841,386688,318801
1067.61,0.082728,386598,319545
1071.29,0.082231,387377,320555
1074.96,0.081803,388536,321831
1078.63,0.081331,389855,323275
1082.3,0.079923,391215,325456
1085.96,0.080037,393215,327034
1090.84,0.078405,396270,330816
1094.49,0.077807,398760,333353
1098.14,0.077162,400987,335713
1101.79,0.077346,403477,337655
1105.43,0.077322,406116,339882
1109.06,0.076731,407701,341673
1112.7,0.076149,409859,343942
1117.53,0.075230,412494,346887
1121.15,0.076029,414909,348276
1124.77,0.076655,416559,349158
1128.38,0.077163,418532,350401
1131.99,0.078228,419956,350732
1135.6,0.079799,421946,351122
1139.2,0.081135,423881,351649
1143.99,0.083103,426786,352458
1147.58,0.083767,428617,353429
1151.17,0.084783,431169,354703
1154.75,0.085595,433579,356019
1158.33,0.087222,436264,356884
1161.91,0.088861,439132,357877
1165.48,0.090941,442389,358809
1169.04,0.093413,446101,359766
1173.79,0.096527,451929,361862
1177.34,0.098429,456026,363547
1180.9,0.100679,461306,365856
1184.44,0.102716,467657,369157
1187.99,0.103421,473969,373533
1191.52,0.103675,479856,377951
1195.06,0.103506,487372,384021
1199.76,0.103208,497347,392149
1203.29,0.101467,504311,399238
1206.81,0.101555,511507,404852
1210.33,0.100869,519078,411494
1213.84,0.100082,527163,418661
1217.35,0.099758,534208,424573
1220.85,0.099124,540472,430179
1225.51,0.098678,549929,438156
1229.01,0.097671,556888,444730
1232.5,0.097592,562180,449038
1235.98,0.096289,567975,455030
1239.46,0.095534,574815,461311
1242.94,0.094725,582782,468577
1246.41,0.094125,591476,476225
1251.03,0.094128,604016,486318
1254.5,0.094136,612289,492970
1257.96,0.094544,619125,498006
1261.41,0.095306,624551,501490
1264.86,0.095344,629900,505740
1268.31,0.096194,634345,508313
1271.75,0.096769,638574,511025
1276.33,0.096713,642499,514232
1279.76,0.096922,645905,516710
1283.19,0.096727,648307,518864
1286.61,0.096221,650446,521183
1290.03,0.095537,652132,523357
1293.44,0.095213,653907,525174
1296.85,0.095153,655963,526898
1301.39,0.094706,657349,528555
1304.8,0.095120,657558,528219
1308.19,0.095213,658515,528875
1311.58,0.095098,658804,529247
1314.97,0.095481,659011,528946
1318.36,0.095915,658272,527825
1321.73,0.096127,658022,527367
1326.23,0.097827,657870,525186
1329.6,0.098245,656482,523574
1332.97,0.099374,654926,520977
1336.33,0.100148,653727,519097
1339.69,0.101926,652497,516003
1343.04,0.103790,649913,511759
1346.39,0.105559,647671,507920
1349.73,0.107412,645338,503936
1354.18,0.110208,641175,497472
1357.52,0.112205,638376,493028
1360.85,0.114219,635805,488771
1364.17,0.116522,633413,484356
1367.49,0.118501,631026,480337
1370.81,0.120630,628050,475734
1374.12,0.122620,625034,471285
1378.54,0.125778,620272,464306
1381.84,0.128911,616892,458456
1385.14,0.132382,613613,452390
1388.43,0.136790,611526,446298
1391.72,0.141099,610663,441268
1395.01,0.145648,610634,436650
1398.29,0.150573,611700,432479
1402.66,0.157221,614051,427547
1405.93,0.162434,616268,423970
1409.2,0.167408,617795,420181
1412.46,0.172517,618872,415991
1415.72,0.176502,619795,412806
1418.98,0.180033,620495,409926
1422.23,0.183742,621087,406828
1426.56,0.187821,621375,403211
1429.8,0.190370,621616,401007
1433.04,0.193308,622129,398632
1436.27,0.195532,621526,396212
1439.5,0.197364,621113,394282
1442.72,0.199787,620921,391967
1445.94,0.201863,620270,389689
1450.23,0.205527,618860,385536
1453.44,0.207588,617697,382990
1456.64,0.210795,616264,379290
1459.85,0.212898,614413,376324
1463.04,0.215932,612307,372424
1466.24,0.219262,610032,368206
1469.43,0.222881,607345,363542
1473.67,0.228076,603789,357116
1476.85,0.233751,601175,350954
1480.02,0.239317,597737,344503
1483.19,0.244530,594479,338537
1486.36,0.250690,591232,331946
1489.52,0.255028,587853,326769
1492.68,0.258096,583875,322273
1496.89,0.259994,578062,317673
1500.03,0.260479,574159,315176
1503.18,0.260327,570285,313159
1506.32,0.260479,565444,310392
1509.45,0.258747,560571,308947
1512.58,0.257182,555821,307435
1515.71,0.254684,550344,306161
1519.87,0.251726,543983,304691
1522.99,0.249602,538764,303247
1526.1,0.246680,533692,302420
1529.21,0.244164,527902,300877
1532.32,0.240960,521886,299651
1535.42,0.237997,515888,298235
1538.51,0.235889,509987,296258
1541.6,0.232241,503936,295212
1545.72,0.228652,494694,292203
1548.8,0.225676,488378,290456
1551.88,0.223702,481832,287868
1554.95,0.221405,474989,285285
1558.02,0.219974,467818,281905
1561.08,0.219275,460730,278081
1564.15,0.217179,454170,275448
1568.22,0.216222,444181,269984
1571.27,0.216710,436947,265289
1574.32,0.215488,429598,261562
1577.36,0.214333,422039,257644
1580.4,0.212461,414375,254058
1583.43,0.211394,406354,249753
1586.46,0.210224,398475,245571
1590.49,0.208195,388982,240843
1593.51,0.205591,380708,237138
1596.53,0.203701,372727,233179
1599.54,0.202555,365060,228986
1602.55,0.199831,357543,225682
1605.55,0.197622,349495,221727
1608.55,0.196383,341154,217054
1612.54,0.195010,330877,211182
1615.53,0.191702,322904,207669
1618.51,0.190992,315116,202992
1621.49,0.189930,307217,198388
1624.47,0.189915,299481,193399
1627.44,0.189504,292112,188819
1630.41,0.186300,284245,185094
1634.36,0.185788,274079,178685
1637.32,0.185334,266916,174197
1640.27,0.184651,259612,169697
1643.22,0.183918,251804,164871
1646.16,0.183363,244348,160194
1649.1,0.182554,236703,155471
1652.04,0.180392,228171,150615
1655.95,0.177231,215408,143229
1658.88,0.173015,204937,137596
1661.8,0.169273,193395,130970
1664.72,0.161646,179728,123871
1667.63,0.150625,163642,115683
1670.54,0.135142,146312,107186
1673.44,0.122378,128451,96908
1677.31,0.099730,105080,83520
1680.21,0.088929,88906,72444
1683.1,0.086971,75033,61416
1685.99,0.088614,63520,51796
1688.87,0.091309,53714,43529
1691.75,0.093952,45653,36772
1694.62,0.094084,39137,31514
1697.49,0.099810,33776,26841
1701.31,0.115792,28175,21581