File: samples/wool/wool-000811/Column 1_050593_20150331_122016.csv
Method:,Column 1,,
Host Date-Time:,31/3/15 @ 12:20:16,,
Header Version:,1,,
System Temp (C):,33.93,,
Detector Temp (C):,34.64,,
Humidity (%):,1.76,,
Lamp PD:,3818,,
Shift Vector Coefficients:,-10.5391,0.0761263,-0.000134223,,
Pixel to Wavelength Coefficients:,1775.68,-0.916766,-0.000235065,,
Serial Number:,5510004,,
Scan Config Name:,Column 1,,
Scan Config Type:,Slew,,
Section 1,,
Start wavelength (nm):,900,,
End wavelength (nm):,1700,,
Pattern Pixel Width (nm):,   7.03,,,,
Exposure (ms):,  0.635,,,,
Digital Resolution:,228,,
Num Repeats:,6,,
PGA Gain:,64,,
Total Measurement Time in sec:,  2.679,,
Wavelength (nm),Absorbance (AU),Reference Signal (unitless),Sample Signal (unitless)
901.51,0.068178,108485,92724
905.376,0.074461,121306,102193
909.237,0.074803,131909,111038
913.095,0.077877,143299,119775
916.948,0.077724,156982,131258
922.079,0.079794,179937,149736
925.923,0.081704,200504,166119
929.762,0.082647,222660,184075
933.597,0.082467,244426,202153
937.427,0.080943,263972,219086
941.254,0.080457,281845,234182
945.076,0.078881,297271,247897
950.165,0.079520,315605,262799
953.978,0.077367,328029,274502
957.786,0.078626,340470,284088
961.59,0.078329,352317,294174
965.389,0.078054,363056,303333
969.185,0.078112,373162,311735
972.976,0.078332,382632,319484
976.763,0.079001,391202,326137
981.806,0.079647,400190,333134
985.583,0.080936,406088,337042
989.355,0.080680,410162,340624
993.124,0.081252,412868,342420
996.888,0.081692,414263,343229
1000.65,0.082392,415476,343680
1004.4,0.083582,415479,342742
1009.41,0.085211,414358,340537
1013.15,0.085924,412923,338801
1016.89,0.085586,411526,337918
1020.63,0.085574,409066,335907
1024.36,0.085715,406777,333919
1028.09,0.085812,404427,331916
1031.82,0.085291,401911,330247
1036.78,0.084621,398410,327876
1040.49,0.085082,396204,325714
1044.2,0.085229,394236,323987
1047.91,0.084347,392042,322839
1051.61,0.083743,389823,321458
1055.31,0.084087,388234,319894
1059,0.083311,387599,319942
1063.92,0.082372,386688,319881
1067.61,0.081472,386598,320470
1071.29,0.081702,387377,320946
1074.96,0.080763,388536,322603
1078.63,0.079909,389855,324335
1082.3,0.078987,391215,326158
1085.96,0.078967,393215,327841
1090.84,0.076975,396270,331907
1094.49,0.077612,398760,333503
1098.14,0.076496,400987,336228
1101.79,0.076186,403477,338558
1105.43,0.075894,406116,341001
1109.06,0.075012,407701,343028
1112.7,0.074813,409859,345002
1117.53,0.073806,412494,348026
1121.15,0.075359,414909,348814
1124.77,0.075313,416559,350238
1128.38,0.076358,418532,351051
1131.99,0.076840,419956,351855
1135.6,0.078915,421946,351837
1139.2,0.080119,423881,352472
1143.99,0.082155,426786,353228
1147.58,0.082734,428617,354271
1151.17,0.083693,431169,355594
1154.75,0.084715,433579,356741
1158.33,0.085939,436264,357940
1161.91,0.087844,439132,358716
1165.48,0.090045,442389,359550
1169.04,0.092587,446101,360451
1173.79,0.095531,451929,362693
1177.34,0.097322,456026,364475
1180.9,0.099857,461306,366549
1184.44,0.101619,467657,370091
1187.99,0.102484,473969,374340
1191.52,0.102243,479856,379200
1195.06,0.102425,487372,384978
1199.76,0.101483,497347,393710
1203.29,0.100998,504311,399669
1206.81,0.100623,511507,405722
1210.33,0.100186,519078,412142
1213.84,0.099562,527163,419163
1217.35,0.098881,534208,425431
1220.85,0.098098,540472,431196
1225.51,0.097748,549929,439095
1229.01,0.096939,556888,445481
1232.5,0.095943,562180,450747
1235.98,0.096307,567975,455011
1239.46,0.094772,574815,462121
1242.94,0.093987,582782,469374
1246.41,0.093617,591476,476782
1251.03,0.093398,604016,487136
1254.5,0.092898,612289,494377
1257.96,0.093968,619125,498667
1261.41,0.094269,624551,502688
1264.86,0.094644,629900,506556
1268.31,0.095244,634345,509427
1271.75,0.095828,638574,512134
1276.33,0.096030,642499,515042
1279.76,0.095862,645905,517972
1283.19,0.095477,648307,520360
1286.61,0.095117,650446,522510
1290.03,0.094993,652132,524013
1293.44,0.094636,653907,525872
1296.85,0.093890,655963,528432
1301.39,0.094170,657349,529208
1304.8,0.094021,657558,529558
1308.19,0.094043,658515,530301
1311.58,0.093874,658804,530741
1314.97,0.095119,659011,529387
1318.36,0.095336,658272,528530
1321.73,0.095787,658022,527780
1326.23,0.096377,657870,526942
1329.6,0.097894,656482,523997
1332.97,0.097886,654926,522765
1336.33,0.099269,653727,520148
1339.69,0.100645,652497,517528
1343.04,0.102171,649913,513670
1346.39,0.104273,647671,509426
1349.73,0.106444,645338,505060
1354.18,0.109254,641175,498566
1357.52,0.111105,638376,494278
1360.85,0.112760,635805,490415
1364.17,0.115016,633413,486039
1367.49,0.117099,631026,481890
1370.81,0.119563,628050,476904
1374.12,0.121939,625034,472025
1378.54,0.124845,620272,465304
1381.84,0.127811,616892,459619
1385.14,0.131075,613613,453753
1388.43,0.134809,611526,448338
1391.72,0.139258,610663,443143
1395.01,0.143857,610634,438454
1398.29,0.148391,611700,434658
1402.66,0.155145,614051,429595
1405.93,0.160336,616268,426024
1409.2,0.165510,617795,422021
1412.46,0.170059,618872,418352
1415.72,0.174689,619795,414533
1418.98,0.178067,620495,411786
1422.23,0.181610,621087,408830
1426.56,0.185404,621375,405462
1429.8,0.188473,621616,402763
1433.04,0.191061,622129,400700
1436.27,0.192931,621526,398592
1439.5,0.195280,621113,396178
1442.72,0.197313,620921,394206
1445.94,0.199877,620270,391475
1450.23,0.203427,618860,387405
1453.44,0.205314,617697,385001
1456.64,0.208257,616264,381513
1459.85,0.211038,614413,377940
1463.04,0.213639,612307,374395
1466.24,0.217503,610032,369700
1469.43,0.220308,607345,365702
1473.67,0.225994,603789,358832
1476.85,0.231589,601175,352705
1480.02,0.236982,597737,346360
1483.19,0.243197,594479,339578
1486.36,0.248993,591232,333246
1489.52,0.253831,587853,327671
1492.68,0.256451,583875,323496
1496.89,0.258327,578062,318895
1500.03,0.259188,574159,316114
1503.18,0.259482,570285,313769
1506.32,0.258270,565444,311975
1509.45,0.257022,560571,310176
1512.58,0.254829,555821,309105
1515.71,0.252926,550344,307403
1519.87,0.250318,543983,305680
1522.99,0.247542,538764,304689
1526.1,0.245640,533692,303145
1529.21,0.242043,527902,302350
1532.32,0.239197,521886,300870
1535.42,0.236899,515888,298990
1538.51,0.233755,509987,297717
1541.6,0.230635,503936,296306
1545.72,0.226973,494694,293335
1548.8,0.224171,488378,291464
1551.88,0.222159,481832,288893
1554.95,0.219858,474989,286303
1558.02,0.218094,467818,283128
1561.08,0.216586,460730,279808
1564.15,0.216541,454170,275853
1568.22,0.215494,444181,270437
1571.27,0.214350,436947,266734
1574.32,0.214178,429598,262352
1577.36,0.212748,422039,258586
1580.4,0.211199,414375,254797
1583.43,0.209485,406354,250853
1586.46,0.207994,398475,246835
1590.49,0.206137,388982,241987
1593.51,0.204223,380708,237886
1596.53,0.201750,372727,234229
1599.54,0.200733,365060,229949
1602.55,0.198235,357543,226513
1605.55,0.196873,349495,222110
1608.55,0.194707,341154,217893
1612.54,0.193275,330877,212027
1615.53,0.190482,322904,208253
1618.51,0.189277,315116,203795
1621.49,0.188516,307217,199035
1624.47,0.186103,299481,195104
1627.44,0.186364,292112,190189
1630.41,0.185515,284245,185429
1634.36,0.184419,274079,179249
1637.32,0.183699,266916,174854
1640.27,0.183286,259612,170231
1643.22,0.182015,251804,165595
1646.16,0.180956,244348,161084
1649.1,0.180907,236703,156062
1652.04,0.178086,228171,151417
1655.95,0.175008,215408,143964
1658.88,0.171373,204937,138117
1661.8,0.166902,193395,131687
1664.72,0.158802,179728,124685
1667.63,0.146534,163642,116778
1670.54,0.133129,146312,107684
1673.44,0.115778,128451,98392
1677.31,0.094540,105080,84524
1680.21,0.084984,88906,73105
1683.1,0.082175,75033,62098
1685.99,0.077971,63520,53081
1688.87,0.080470,53714,44629
1691.75,0.086714,45653,37390
1694.62,0.092598,39137,31622
1697.49,0.093959,33776,27205
1701.31,0.099965,28175,22382