File: samples/wool/wool-000811/Column 1_050610_20150331_122832.csv
Method:,Column 1,,
Host Date-Time:,31/3/15 @ 12:28:32,,
Header Version:,1,,
System Temp (C):,34.06,,
Detector Temp (C):,34.88,,
Humidity (%):,1.66,,
Lamp PD:,3818,,
Shift Vector Coefficients:,-10.5391,0.0761263,-0.000134223,,
Pixel to Wavelength Coefficients:,1775.68,-0.916766,-0.000235065,,
Serial Number:,5510004,,
Scan Config Name:,Column 1,,
Scan Config Type:,Slew,,
Section 1,,
Start wavelength (nm):,900,,
End wavelength (nm):,1700,,
Pattern Pixel Width (nm):,   7.03,,,,
Exposure (ms):,  0.635,,,,
Digital Resolution:,228,,
Num Repeats:,6,,
PGA Gain:,64,,
Total Measurement Time in sec:,  2.673,,
Wavelength (nm),Absorbance (AU),Reference Signal (unitless),Sample Signal (unitless)
901.51,0.068276,108485,92703
905.376,0.074737,121306,102128
909.237,0.078046,131909,110212
913.095,0.076169,143299,120247
916.948,0.078072,156982,131153
922.079,0.081468,179937,149160
925.923,0.082759,200504,165716
929.762,0.082787,222660,184016
933.597,0.082785,244426,202005
937.427,0.080680,263972,219219
941.254,0.079442,281845,234730
945.076,0.078613,297271,248050
950.165,0.078325,315605,263523
953.978,0.077829,328029,274210
957.786,0.077607,340470,284755
961.59,0.077209,352317,294934
965.389,0.077404,363056,303787
969.185,0.077932,373162,311864
972.976,0.077705,382632,319946
976.763,0.078584,391202,326450
981.806,0.078108,400190,334317
985.583,0.079386,406088,338247
989.355,0.080019,410162,341143
993.124,0.080440,412868,343061
996.888,0.080783,414263,343948
1000.65,0.081349,415476,344506
1004.4,0.081958,415479,344026
1009.41,0.083649,414358,341764
1013.15,0.084158,412923,340182
1016.89,0.084808,411526,338524
1020.63,0.084370,409066,336840
1024.36,0.084620,406777,334762
1028.09,0.084824,404427,332672
1031.82,0.084659,401911,330728
1036.78,0.084012,398410,328336
1040.49,0.084109,396204,326445
1044.2,0.084207,394236,324750
1047.91,0.083932,392042,323147
1051.61,0.083133,389823,321910
1055.31,0.082873,388234,320790
1059,0.082217,387599,320749
1063.92,0.081564,386688,320477
1067.61,0.080907,386598,320887
1071.29,0.080398,387377,321911
1074.96,0.080011,388536,323162
1078.63,0.079171,389855,324887
1082.3,0.078326,391215,326655
1085.96,0.077879,393215,328663
1090.84,0.076747,396270,332081
1094.49,0.076338,398760,334483
1098.14,0.075343,400987,337122
1101.79,0.075139,403477,339375
1105.43,0.075315,406116,341456
1109.06,0.074177,407701,343688
1112.7,0.073054,409859,346402
1117.53,0.073573,412494,348213
1121.15,0.073711,414909,350140
1124.77,0.074244,416559,351101
1128.38,0.074751,418532,352353
1131.99,0.075768,419956,352725
1135.6,0.077239,421946,353198
1139.2,0.078647,423881,353669
1143.99,0.080833,426786,354305
1147.58,0.081607,428617,355191
1151.17,0.082962,431169,356193
1154.75,0.083427,433579,357801
1158.33,0.084569,436264,359071
1161.91,0.086430,439132,359886
1165.48,0.088373,442389,360937
1169.04,0.090481,446101,362203
1173.79,0.094237,451929,363775
1177.34,0.096134,456026,365473
1180.9,0.098507,461306,367690
1184.44,0.099833,467657,371616
1187.99,0.101336,473969,375331
1191.52,0.101354,479856,379977
1195.06,0.101044,487372,386204
1199.76,0.100756,497347,394370
1203.29,0.099145,504311,401378
1206.81,0.099133,511507,407116
1210.33,0.098362,519078,413876
1213.84,0.097827,527163,420841
1217.35,0.097199,534208,427082
1220.85,0.096540,540472,432746
1225.51,0.095911,549929,440956
1229.01,0.095379,556888,447084
1232.5,0.094564,562180,452180
1235.98,0.094254,567975,457167
1239.46,0.093285,574815,463706
1242.94,0.092314,582782,471186
1246.41,0.091931,591476,478637
1251.03,0.091703,604016,489041
1254.5,0.091467,612289,496009
1257.96,0.092064,619125,500858
1261.41,0.092536,624551,504698
1264.86,0.093245,629900,508190
1268.31,0.093399,634345,511595
1271.75,0.094143,638574,514125
1276.33,0.094924,642499,516355
1279.76,0.094850,645905,519181
1283.19,0.093980,648307,522157
1286.61,0.093499,650446,524460
1290.03,0.093311,652132,526047
1293.44,0.092853,653907,528035
1296.85,0.092233,655963,530452
1301.39,0.091987,657349,531874
1304.8,0.092410,657558,531525
1308.19,0.092125,658515,532649
1311.58,0.092552,658804,532358
1314.97,0.093001,659011,531975
1318.36,0.092952,658272,531439
1321.73,0.093400,658022,530690
1326.23,0.094365,657870,529389
1329.6,0.095054,656482,527435
1332.97,0.095936,654926,525117
1336.33,0.096767,653727,523154
1339.69,0.098124,652497,520541
1343.04,0.099925,649913,516333
1346.39,0.101870,647671,512253
1349.73,0.103636,645338,508336
1354.18,0.106415,641175,501836
1357.52,0.108423,638376,497340
1360.85,0.110657,635805,492796
1364.17,0.112559,633413,488796
1367.49,0.114622,631026,484647
1370.81,0.117080,628050,479639
1374.12,0.119104,625034,475116
1378.54,0.121668,620272,468721
1381.84,0.124656,616892,462970
1385.14,0.127505,613613,457498
1388.43,0.131347,611526,451927
1391.72,0.135448,610663,447047
1395.01,0.139360,610634,443018
1398.29,0.143672,611700,439407
1402.66,0.149901,614051,434814
1405.93,0.155055,616268,431236
1409.2,0.159963,617795,427446
1412.46,0.164111,618872,424121
1415.72,0.167315,619795,421632
1418.98,0.170959,620495,418581
1422.23,0.174670,621087,415415
1426.56,0.178265,621375,412182
1429.8,0.180786,621616,409955
1433.04,0.183353,622129,407875
1436.27,0.185130,621526,405816
1439.5,0.187213,621113,403606
1442.72,0.190083,620921,400824
1445.94,0.192384,620270,398288
1450.23,0.195591,618860,394459
1453.44,0.198535,617697,391057
1456.64,0.201358,616264,387622
1459.85,0.204186,614413,383950
1463.04,0.207127,612307,380051
1466.24,0.210890,610032,375373
1469.43,0.214618,607345,370525
1473.67,0.220987,603789,362993
1476.85,0.226289,601175,357036
1480.02,0.232175,597737,350215
1483.19,0.238927,594479,342933
1486.36,0.244916,591232,336389
1489.52,0.249397,587853,331033
1492.68,0.252243,583875,326646
1496.89,0.255202,578062,321198
1500.03,0.255438,574159,318856
1503.18,0.255986,570285,316305
1506.32,0.254414,565444,314757
1509.45,0.253281,560571,312860
1512.58,0.252328,555821,310890
1515.71,0.249537,550344,309811
1519.87,0.246472,543983,308399
1522.99,0.244105,538764,307110
1526.1,0.241105,533692,306327
1529.21,0.239056,527902,304437
1532.32,0.235516,521886,303431
1535.42,0.232720,515888,301881
1538.51,0.230130,509987,300213
1541.6,0.226687,503936,299012
1545.72,0.223190,494694,295901
1548.8,0.220726,488378,293785
1551.88,0.218504,481832,291334
1554.95,0.215817,474989,288979
1558.02,0.214218,467818,285666
1561.08,0.213526,460730,281787
1564.15,0.212446,454170,278466
1568.22,0.211499,444181,272936
1571.27,0.211124,436947,268723
1574.32,0.209813,429598,265002
1577.36,0.208880,422039,260899
1580.4,0.207760,414375,256823
1583.43,0.206992,406354,252297
1586.46,0.204437,398475,248865
1590.49,0.203618,388982,243395
1593.51,0.201203,380708,239546
1596.53,0.199109,372727,235658
1599.54,0.197062,365060,231901
1602.55,0.195203,357543,228100
1605.55,0.193711,349495,223733
1608.55,0.190962,341154,219780
1612.54,0.189866,330877,213698
1615.53,0.188674,322904,209122
1618.51,0.186736,315116,204991
1621.49,0.185164,307217,200577
1624.47,0.185442,299481,195401
1627.44,0.184062,292112,191200
1630.41,0.184054,284245,186054
1634.36,0.182490,274079,180047
1637.32,0.180379,266916,176196
1640.27,0.179610,259612,171678
1643.22,0.178458,251804,166957
1646.16,0.178127,244348,162137
1649.1,0.177561,236703,157269
1652.04,0.177427,228171,151647
1655.95,0.172886,215408,144669
1658.88,0.170669,204937,138341
1661.8,0.164311,193395,132475
1664.72,0.156311,179728,125402
1667.63,0.144042,163642,117450
1670.54,0.130147,146312,108426
1673.44,0.113989,128451,98798
1677.31,0.095245,105080,84387
1680.21,0.082331,88906,73553
1683.1,0.073259,75033,63386
1685.99,0.075117,63520,53431
1688.87,0.077493,53714,44936
1691.75,0.082265,45653,37775
1694.62,0.087587,39137,31989
1697.49,0.091587,33776,27354
1701.31,0.104529,28175,22148