File: samples/wool/wool-000811/Column 1_050595_20150331_122107.csv
Method:,Column 1,,
Host Date-Time:,31/3/15 @ 12:21:7,,
Header Version:,1,,
System Temp (C):,33.9,,
Detector Temp (C):,34.72,,
Humidity (%):,1.76,,
Lamp PD:,3818,,
Shift Vector Coefficients:,-10.5391,0.0761263,-0.000134223,,
Pixel to Wavelength Coefficients:,1775.68,-0.916766,-0.000235065,,
Serial Number:,5510004,,
Scan Config Name:,Column 1,,
Scan Config Type:,Slew,,
Section 1,,
Start wavelength (nm):,900,,
End wavelength (nm):,1700,,
Pattern Pixel Width (nm):,   7.03,,,,
Exposure (ms):,  0.635,,,,
Digital Resolution:,228,,
Num Repeats:,6,,
PGA Gain:,64,,
Total Measurement Time in sec:,  2.725,,
Wavelength (nm),Absorbance (AU),Reference Signal (unitless),Sample Signal (unitless)
901.51,0.070827,108485,92160
905.376,0.075691,121306,101904
909.237,0.076531,131909,110597
913.095,0.077707,143299,119822
916.948,0.079860,156982,130614
922.079,0.081119,179937,149280
925.923,0.081798,200504,166083
929.762,0.083436,222660,183741
933.597,0.082386,244426,202191
937.427,0.081689,263972,218710
941.254,0.080861,281845,233964
945.076,0.080183,297271,247155
950.165,0.079970,315605,262527
953.978,0.078829,328029,273579
957.786,0.079074,340470,283795
961.59,0.078948,352317,293755
965.389,0.078897,363056,302745
969.185,0.078845,373162,311209
972.976,0.079358,382632,318730
976.763,0.079366,391202,325863
981.806,0.080035,400190,332837
985.583,0.080473,406088,337402
989.355,0.081293,410162,340144
993.124,0.081784,412868,342001
996.888,0.082031,414263,342961
1000.65,0.082736,415476,343408
1004.4,0.083811,415479,342561
1009.41,0.084372,414358,341196
1013.15,0.085034,412923,339496
1016.89,0.085396,411526,338066
1020.63,0.085079,409066,336290
1024.36,0.085869,406777,333801
1028.09,0.085454,404427,332190
1031.82,0.085824,401911,329842
1036.78,0.084676,398410,327834
1040.49,0.085126,396204,325681
1044.2,0.085053,394236,324118
1047.91,0.084908,392042,322422
1051.61,0.084137,389823,321167
1055.31,0.084218,388234,319798
1059,0.084357,387599,319173
1063.92,0.082785,386688,319577
1067.61,0.082271,386598,319881
1071.29,0.081437,387377,321142
1074.96,0.081364,388536,322157
1078.63,0.080472,389855,323915
1082.3,0.079784,391215,325560
1085.96,0.079654,393215,327323
1090.84,0.078323,396270,330878
1094.49,0.077661,398760,333465
1098.14,0.077705,400987,335294
1101.79,0.076770,403477,338103
1105.43,0.076317,406116,340669
1109.06,0.075732,407701,342460
1112.7,0.075145,409859,344738
1117.53,0.074966,412494,347098
1121.15,0.075517,414909,348687
1124.77,0.075678,416559,349944
1128.38,0.076756,418532,350730
1131.99,0.077388,419956,351411
1135.6,0.079345,421946,351489
1139.2,0.080204,423881,352403
1143.99,0.082292,426786,353117
1147.58,0.083434,428617,353700
1151.17,0.084045,431169,355306
1154.75,0.085082,433579,356440
1158.33,0.087005,436264,357063
1161.91,0.088135,439132,358476
1165.48,0.090273,442389,359361
1169.04,0.092510,446101,360515
1173.79,0.095660,451929,362585
1177.34,0.098372,456026,363595
1180.9,0.099906,461306,366508
1184.44,0.101944,467657,369814
1187.99,0.102828,473969,374043
1191.52,0.102981,479856,378556
1195.06,0.102800,487372,384645
1199.76,0.102047,497347,393199
1203.29,0.100785,504311,399865
1206.81,0.100727,511507,405625
1210.33,0.100312,519078,412022
1213.84,0.099587,527163,419139
1217.35,0.098974,534208,425340
1220.85,0.098398,540472,430899
1225.51,0.097747,549929,439096
1229.01,0.097167,556888,445247
1232.5,0.096350,562180,450324
1235.98,0.096133,567975,455194
1239.46,0.094853,574815,462035
1242.94,0.094093,582782,469260
1246.41,0.093416,591476,477003
1251.03,0.093496,604016,487026
1254.5,0.093494,612289,493699
1257.96,0.093910,619125,498733
1261.41,0.094676,624551,502217
1264.86,0.095089,629900,506037
1268.31,0.095308,634345,509352
1271.75,0.096044,638574,511879
1276.33,0.096002,642499,515075
1279.76,0.095966,645905,517849
1283.19,0.095476,648307,520361
1286.61,0.095541,650446,522000
1290.03,0.095049,652132,523946
1293.44,0.094161,653907,526447
1296.85,0.094213,655963,528039
1301.39,0.093699,657349,529782
1304.8,0.094148,657558,529402
1308.19,0.094107,658515,530223
1311.58,0.094428,658804,530064
1314.97,0.094955,659011,529588
1318.36,0.095322,658272,528547
1321.73,0.095598,658022,528010
1326.23,0.096612,657870,526657
1329.6,0.097077,656482,524984
1332.97,0.098168,654926,522425
1336.33,0.099032,653727,520432
1339.69,0.100843,652497,517292
1343.04,0.102637,649913,513119
1346.39,0.104207,647671,509504
1349.73,0.106213,645338,505329
1354.18,0.109090,641175,498754
1357.52,0.111378,638376,493968
1360.85,0.113218,635805,489898
1364.17,0.115018,633413,486037
1367.49,0.117283,631026,481686
1370.81,0.119749,628050,476700
1374.12,0.121670,625034,472317
1378.54,0.125066,620272,465068
1381.84,0.127529,616892,459918
1385.14,0.130786,613613,454055
1388.43,0.134580,611526,448575
1391.72,0.139302,610663,443098
1395.01,0.143875,610634,438436
1398.29,0.148520,611700,434529
1402.66,0.154647,614051,430088
1405.93,0.160444,616268,425918
1409.2,0.164919,617795,422596
1412.46,0.169776,618872,418625
1415.72,0.173925,619795,415263
1418.98,0.177351,620495,412465
1422.23,0.181849,621087,408605
1426.56,0.184869,621375,405961
1429.8,0.187751,621616,403433
1433.04,0.189743,622129,401918
1436.27,0.192793,621526,398718
1439.5,0.194084,621113,397271
1442.72,0.196452,620921,394988
1445.94,0.198611,620270,392618
1450.23,0.202900,618860,387876
1453.44,0.205342,617697,384976
1456.64,0.208207,616264,381557
1459.85,0.210662,614413,378267
1463.04,0.213270,612307,374713
1466.24,0.216499,610032,370556
1469.43,0.220033,607345,365934
1473.67,0.226235,603789,358633
1476.85,0.231392,601175,352865
1480.02,0.236907,597737,346420
1483.19,0.243054,594479,339690
1486.36,0.248210,591232,333847
1489.52,0.253117,587853,328210
1492.68,0.256173,583875,323703
1496.89,0.258770,578062,318570
1500.03,0.258484,574159,316627
1503.18,0.258890,570285,314197
1506.32,0.258591,565444,311744
1509.45,0.257181,560571,310063
1512.58,0.255888,555821,308352
1515.71,0.253294,550344,307143
1519.87,0.249728,543983,306096
1522.99,0.247952,538764,304401
1526.1,0.245456,533692,303274
1529.21,0.242107,527902,302306
1532.32,0.239373,521886,300748
1535.42,0.236762,515888,299084
1538.51,0.233506,509987,297888
1541.6,0.231195,503936,295924
1545.72,0.226413,494694,293713
1548.8,0.223753,488378,291745
1551.88,0.221730,481832,289178
1554.95,0.220820,474989,285669
1558.02,0.219160,467818,282434
1561.08,0.216526,460730,279847
1564.15,0.216487,454170,275887
1568.22,0.215439,444181,270471
1571.27,0.215345,436947,266124
1574.32,0.214037,429598,262437
1577.36,0.213171,422039,258334
1580.4,0.215024,414375,252563
1583.43,0.209671,406354,250746
1586.46,0.208834,398475,246358
1590.49,0.206168,388982,241970
1593.51,0.204353,380708,237815
1596.53,0.202175,372727,234000
1599.54,0.201283,365060,229658
1602.55,0.198429,357543,226412
1605.55,0.196832,349495,222131
1608.55,0.195539,341154,217476
1612.54,0.193064,330877,212130
1615.53,0.190687,322904,208155
1618.51,0.189224,315116,203820
1621.49,0.189291,307217,198680
1624.47,0.186074,299481,195117
1627.44,0.187002,292112,189910
1630.41,0.186418,284245,185044
1634.36,0.183998,274079,179423
1637.32,0.183960,266916,174749
1640.27,0.184050,259612,169932
1643.22,0.182412,251804,165444
1646.16,0.181358,244348,160935
1649.1,0.179964,236703,156401
1652.04,0.180136,228171,150704
1655.95,0.176840,215408,143358
1658.88,0.173811,204937,137344
1661.8,0.167127,193395,131619
1664.72,0.160148,179728,124299
1667.63,0.147931,163642,116403
1670.54,0.133149,146312,107679
1673.44,0.118146,128451,97857
1677.31,0.098058,105080,83842
1680.21,0.086120,88906,72914
1683.1,0.082259,75033,62086
1685.99,0.082619,63520,52516
1688.87,0.084754,53714,44191
1691.75,0.089475,45653,37153
1694.62,0.098085,39137,31225
1697.49,0.094455,33776,27174
1701.31,0.109995,28175,21871