File: samples/wool/wool-000811/Column 1_050552_20150331_120039.csv
Method:,Column 1,,
Host Date-Time:,31/3/15 @ 12:0:39,,
Header Version:,1,,
System Temp (C):,33.33,,
Detector Temp (C):,32.43,,
Humidity (%):,3.28,,
Lamp PD:,3820,,
Shift Vector Coefficients:,-10.5391,0.0761263,-0.000134223,,
Pixel to Wavelength Coefficients:,1775.68,-0.916766,-0.000235065,,
Serial Number:,5510004,,
Scan Config Name:,Column 1,,
Scan Config Type:,Slew,,
Section 1,,
Start wavelength (nm):,900,,
End wavelength (nm):,1700,,
Pattern Pixel Width (nm):,   7.03,,,,
Exposure (ms):,  0.635,,,,
Digital Resolution:,228,,
Num Repeats:,6,,
PGA Gain:,64,,
Total Measurement Time in sec:,  2.729,,
Wavelength (nm),Absorbance (AU),Reference Signal (unitless),Sample Signal (unitless)
901.51,0.033770,108485,100369
905.376,0.039629,121306,110727
909.237,0.041941,131909,119766
913.095,0.042280,143299,130006
916.948,0.044042,156982,141843
922.079,0.044540,179937,162398
925.923,0.044073,200504,181155
929.762,0.045660,222660,200439
933.597,0.045924,244426,219899
937.427,0.045940,263972,237475
941.254,0.046253,281845,253371
945.076,0.044958,297271,268037
950.165,0.045775,315605,284033
953.978,0.045198,328029,295607
957.786,0.045317,340470,306734
961.59,0.046642,352317,316440
965.389,0.046198,363056,326419
969.185,0.046376,373162,335368
972.976,0.046625,382632,343682
976.763,0.047652,391202,350549
981.806,0.048137,400190,358203
985.583,0.049167,406088,362621
989.355,0.049474,410162,366000
993.124,0.050225,412868,367778
996.888,0.050693,414263,368624
1000.65,0.051131,415476,369330
1004.4,0.052787,415479,367927
1009.41,0.053659,414358,366199
1013.15,0.054001,412923,364643
1016.89,0.054862,411526,362690
1020.63,0.054688,409066,360666
1024.36,0.055210,406777,358217
1028.09,0.054251,404427,356935
1031.82,0.054032,401911,354893
1036.78,0.053844,398410,351954
1040.49,0.053176,396204,350544
1044.2,0.053509,394236,348536
1047.91,0.053131,392042,346898
1051.61,0.052419,389823,345500
1055.31,0.051660,388234,344694
1059,0.051902,387599,343938
1063.92,0.050910,386688,343915
1067.61,0.049525,386598,344933
1071.29,0.049300,387377,345807
1074.96,0.048673,388536,347343
1078.63,0.047907,389855,349137
1082.3,0.047526,391215,350663
1085.96,0.046916,393215,352951
1090.84,0.046052,396270,356401
1094.49,0.045235,398760,359316
1098.14,0.045469,400987,361128
1101.79,0.044531,403477,364156
1105.43,0.045072,406116,366082
1109.06,0.044092,407701,368341
1112.7,0.044673,409859,369795
1117.53,0.044618,412494,372220
1121.15,0.044980,414909,374087
1124.77,0.045731,416559,374926
1128.38,0.047146,418532,375476
1131.99,0.048859,419956,375271
1135.6,0.050845,421946,375329
1139.2,0.051981,423881,376065
1143.99,0.054884,426786,376120
1147.58,0.055187,428617,377470
1151.17,0.056634,431169,378454
1154.75,0.058525,433579,378916
1158.33,0.060167,436264,379824
1161.91,0.062169,439132,380563
1165.48,0.064853,442389,381023
1169.04,0.067506,446101,381880
1173.79,0.071187,451929,383604
1177.34,0.073379,456026,385133
1180.9,0.075871,461306,387363
1184.44,0.077334,467657,391375
1187.99,0.078951,473969,395184
1191.52,0.078453,479856,400551
1195.06,0.078103,487372,407153
1199.76,0.076733,497347,416799
1203.29,0.076012,504311,423337
1206.81,0.075142,511507,430239
1210.33,0.074227,519078,437528
1213.84,0.073696,527163,444886
1217.35,0.072898,534208,451661
1220.85,0.071709,540472,458210
1225.51,0.070904,549929,467092
1229.01,0.070748,556888,473173
1232.5,0.069449,562180,479100
1235.98,0.069417,567975,484074
1239.46,0.068270,574815,491200
1242.94,0.067192,582782,499245
1246.41,0.066360,591476,507665
1251.03,0.066604,604016,518137
1254.5,0.066571,612289,525274
1257.96,0.066730,619125,530944
1261.41,0.067740,624551,534352
1264.86,0.068694,629900,537747
1268.31,0.068688,634345,541549
1271.75,0.069797,638574,543769
1276.33,0.069660,642499,547284
1279.76,0.069914,645905,549863
1283.19,0.068987,648307,553087
1286.61,0.069261,650446,554562
1290.03,0.068813,652132,556574
1293.44,0.068403,653907,558616
1296.85,0.068411,655963,560361
1301.39,0.068227,657349,561783
1304.8,0.068102,657558,562124
1308.19,0.068214,658515,562797
1311.58,0.068270,658804,562971
1314.97,0.069053,659011,562134
1318.36,0.069639,658272,560746
1321.73,0.070030,658022,560029
1326.23,0.070893,657870,558788
1329.6,0.072192,656482,555944
1332.97,0.073474,654926,552991
1336.33,0.074752,653727,550357
1339.69,0.076591,652497,547000
1343.04,0.078233,649913,542778
1346.39,0.080644,647671,537911
1349.73,0.082553,645338,533623
1354.18,0.086028,641175,525955
1357.52,0.088534,638376,520646
1360.85,0.090350,635805,516385
1364.17,0.092649,633413,511726
1367.49,0.095045,631026,506993
1370.81,0.097984,628050,501199
1374.12,0.099964,625034,496523
1378.54,0.103904,620272,488290
1381.84,0.107352,616892,481789
1385.14,0.111637,613613,474523
1388.43,0.116605,611526,467530
1391.72,0.121754,610663,461368
1395.01,0.126897,610634,455915
1398.29,0.133340,611700,449985
1402.66,0.141429,614051,443379
1405.93,0.148277,616268,438019
1409.2,0.153479,617795,433876
1412.46,0.159940,618872,428214
1415.72,0.164449,619795,424423
1418.98,0.169009,620495,420464
1422.23,0.173459,621087,416575
1426.56,0.178138,621375,412302
1429.8,0.181245,621616,409522
1433.04,0.184028,622129,407242
1436.27,0.186616,621526,404430
1439.5,0.189426,621113,401555
1442.72,0.191294,620921,399708
1445.94,0.194104,620270,396713
1450.23,0.197484,618860,392743
1453.44,0.200818,617697,389007
1456.64,0.203407,616264,385798
1459.85,0.206304,614413,382082
1463.04,0.208331,612307,378999
1466.24,0.211889,610032,374510
1469.43,0.215319,607345,369927
1473.67,0.220547,603789,363361
1476.85,0.225226,601175,357911
1480.02,0.230381,597737,351665
1483.19,0.236422,594479,344917
1486.36,0.242104,591232,338574
1489.52,0.246681,587853,333110
1492.68,0.249968,583875,328361
1496.89,0.252343,578062,323319
1500.03,0.253741,574159,320104
1503.18,0.253173,570285,318360
1506.32,0.251909,565444,316578
1509.45,0.250341,560571,314985
1512.58,0.249044,555821,313250
1515.71,0.246949,550344,311663
1519.87,0.243183,543983,310744
1522.99,0.240770,538764,309477
1526.1,0.237912,533692,308588
1529.21,0.235549,527902,306905
1532.32,0.232695,521886,305408
1535.42,0.229470,515888,304148
1538.51,0.226499,509987,302733
1541.6,0.223451,503936,301248
1545.72,0.218724,494694,298960
1548.8,0.215805,488378,297133
1551.88,0.212897,481832,295120
1554.95,0.211084,474989,292146
1558.02,0.208994,467818,289123
1561.08,0.207679,460730,285606
1564.15,0.207444,454170,281692
1568.22,0.205428,444181,276778
1571.27,0.204844,436947,272637
1574.32,0.203843,429598,268670
1577.36,0.202064,422039,265026
1580.4,0.200966,414375,260872
1583.43,0.198796,406354,257104
1586.46,0.197207,398475,253043
1590.49,0.195436,388982,248024
1593.51,0.193037,380708,244093
1596.53,0.190339,372727,240465
1599.54,0.188704,365060,236407
1602.55,0.186605,357543,232661
1605.55,0.184251,349495,228660
1608.55,0.182450,341154,224130
1612.54,0.180237,330877,218489
1615.53,0.177209,322904,214716
1618.51,0.176334,315116,209960
1621.49,0.174836,307217,205404
1624.47,0.173824,299481,200699
1627.44,0.173395,292112,195954
1630.41,0.171159,284245,191661
1634.36,0.169993,274079,185303
1637.32,0.169313,266916,180743
1640.27,0.168590,259612,176090
1643.22,0.166872,251804,171471
1646.16,0.166420,244348,166567
1649.1,0.165349,236703,161754
1652.04,0.163760,228171,156495
1655.95,0.161582,215408,148484
1658.88,0.159240,204937,142030
1661.8,0.157020,193395,134718
1664.72,0.153216,179728,126299
1667.63,0.141674,163642,118092
1670.54,0.131756,146312,108025
1673.44,0.122997,128451,96770
1677.31,0.113947,105080,80830
1680.21,0.108737,88906,69214
1683.1,0.107399,75033,58594
1685.99,0.112165,63520,49062
1688.87,0.117092,53714,41020
1691.75,0.126244,45653,34137
1694.62,0.129232,39137,29064
1697.49,0.127449,33776,25186
1701.31,0.136039,28175,20598