File: samples/wool/wool-000811/Column 1_050537_20150331_115338.csv
Method:,Column 1,,
Host Date-Time:,31/3/15 @ 11:53:38,,
Header Version:,1,,
System Temp (C):,31.69,,
Detector Temp (C):,30.16,,
Humidity (%):,3.51,,
Lamp PD:,3826,,
Shift Vector Coefficients:,-10.5391,0.0761263,-0.000134223,,
Pixel to Wavelength Coefficients:,1775.68,-0.916766,-0.000235065,,
Serial Number:,5510004,,
Scan Config Name:,Column 1,,
Scan Config Type:,Slew,,
Section 1,,
Start wavelength (nm):,900,,
End wavelength (nm):,1700,,
Pattern Pixel Width (nm):,   7.03,,,,
Exposure (ms):,  0.635,,,,
Digital Resolution:,228,,
Num Repeats:,6,,
PGA Gain:,64,,
Total Measurement Time in sec:,  2.726,,
Wavelength (nm),Absorbance (AU),Reference Signal (unitless),Sample Signal (unitless)
901.51,0.043732,108485,98093
905.376,0.049679,121306,108194
909.237,0.051977,131909,117030
913.095,0.051227,143299,127355
916.948,0.050265,156982,139825
922.079,0.051397,179937,159854
925.923,0.050947,200504,178310
929.762,0.051267,222660,197868
933.597,0.052762,244426,216464
937.427,0.052685,263972,233815
941.254,0.053109,281845,249403
945.076,0.053050,297271,263089
950.165,0.052880,315605,279424
953.978,0.053201,328029,290209
957.786,0.053339,340470,301120
961.59,0.054485,352317,310777
965.389,0.054112,363056,320525
969.185,0.055070,373162,328721
972.976,0.055435,382632,336780
976.763,0.055989,391202,343884
981.806,0.056401,400190,351451
985.583,0.057535,406088,355701
989.355,0.058424,410162,358535
993.124,0.058661,412868,360703
996.888,0.059510,414263,361215
1000.65,0.060352,415476,361571
1004.4,0.060828,415479,361178
1009.41,0.062841,414358,358538
1013.15,0.063197,412923,357003
1016.89,0.064108,411526,355050
1020.63,0.063721,409066,353242
1024.36,0.063453,406777,351482
1028.09,0.062812,404427,349968
1031.82,0.062609,401911,347953
1036.78,0.061739,398410,345614
1040.49,0.061730,396204,343707
1044.2,0.061103,394236,342494
1047.91,0.060529,392042,341039
1051.61,0.059677,389823,339774
1055.31,0.059331,388234,338659
1059,0.058992,387599,338369
1063.92,0.057447,386688,338777
1067.61,0.056222,386598,339655
1071.29,0.055817,387377,340657
1074.96,0.054748,388536,342518
1078.63,0.054297,389855,344038
1082.3,0.053467,391215,345898
1085.96,0.052417,393215,348508
1090.84,0.051726,396270,351775
1094.49,0.051977,398760,353781
1098.14,0.051349,400987,356272
1101.79,0.050594,403477,359108
1105.43,0.051347,406116,360830
1109.06,0.050085,407701,363293
1112.7,0.050452,409859,364907
1117.53,0.050346,412494,367343
1121.15,0.051070,414909,368878
1124.77,0.051920,416559,369621
1128.38,0.053295,418532,370198
1131.99,0.054552,419956,370384
1135.6,0.057313,421946,369780
1139.2,0.059236,423881,369835
1143.99,0.062505,426786,369577
1147.58,0.063390,428617,370407
1151.17,0.064605,431169,371572
1154.75,0.065317,433579,373036
1158.33,0.068037,436264,373003
1161.91,0.070031,439132,373735
1165.48,0.073723,442389,373320
1169.04,0.076215,446101,374299
1173.79,0.080415,451929,375539
1177.34,0.083137,456026,376576
1180.9,0.085889,461306,378530
1184.44,0.087761,467657,382091
1187.99,0.088480,473969,386607
1191.52,0.087948,479856,391889
1195.06,0.087323,487372,398600
1199.76,0.085765,497347,408220
1203.29,0.084533,504311,415112
1206.81,0.083392,511507,422143
1210.33,0.082334,519078,429436
1213.84,0.081092,527163,437374
1217.35,0.080115,534208,444217
1220.85,0.079081,540472,450497
1225.51,0.077334,549929,460228
1229.01,0.076635,556888,466802
1232.5,0.076036,562180,471889
1235.98,0.075530,567975,477309
1239.46,0.073900,574815,484873
1242.94,0.072982,582782,492634
1246.41,0.072149,591476,500943
1251.03,0.071696,604016,512097
1254.5,0.071867,612289,518907
1257.96,0.072049,619125,524480
1261.41,0.072559,624551,528456
1264.86,0.073254,629900,532130
1268.31,0.073667,634345,535376
1271.75,0.074393,638574,538044
1276.33,0.074955,642499,540652
1279.76,0.074822,645905,543684
1283.19,0.074283,648307,546384
1286.61,0.073658,650446,548976
1290.03,0.073235,652132,550935
1293.44,0.072700,653907,553116
1296.85,0.072889,655963,554613
1301.39,0.072627,657349,556121
1304.8,0.072673,657558,556238
1308.19,0.073010,658515,556616
1311.58,0.073176,658804,556648
1314.97,0.073950,659011,555831
1318.36,0.074680,658272,554275
1321.73,0.074762,658022,553960
1326.23,0.075941,657870,552330
1329.6,0.076866,656482,549992
1332.97,0.077962,654926,547306
1336.33,0.079445,653727,544442
1339.69,0.081413,652497,540961
1343.04,0.083571,649913,536148
1346.39,0.085838,647671,531516
1349.73,0.088430,645338,526450
1354.18,0.092096,641175,518657
1357.52,0.094315,638376,513762
1360.85,0.096875,635805,508685
1364.17,0.099365,633413,503874
1367.49,0.102372,631026,498512
1370.81,0.104845,628050,493343
1374.12,0.107947,625034,487480
1378.54,0.111304,620272,480041
1381.84,0.115606,616892,472719
1385.14,0.120190,613613,465270
1388.43,0.125442,611526,458113
1391.72,0.131680,610663,450943
1395.01,0.137550,610634,444868
1398.29,0.143632,611700,439447
1402.66,0.152661,614051,432059
1405.93,0.160092,616268,426263
1409.2,0.166566,617795,420996
1412.46,0.172623,618872,415889
1415.72,0.178084,619795,411305
1418.98,0.182940,620495,407191
1422.23,0.187126,621087,403670
1426.56,0.192215,621375,399152
1429.8,0.195407,621616,396383
1433.04,0.198073,622129,394282
1436.27,0.201033,621526,391225
1439.5,0.203159,621113,389056
1442.72,0.206078,620921,386330
1445.94,0.208342,620270,383918
1450.23,0.212295,618860,379575
1453.44,0.215326,617697,376227
1456.64,0.217873,616264,373159
1459.85,0.220414,614413,369868
1463.04,0.223205,612307,366239
1466.24,0.225725,610032,362767
1469.43,0.229254,607345,358246
1473.67,0.234328,603789,352012
1476.85,0.238958,601175,346771
1480.02,0.244107,597737,340724
1483.19,0.250576,594479,333857
1486.36,0.255973,591232,327933
1489.52,0.260778,587853,322471
1492.68,0.264619,583875,317469
1496.89,0.267198,578062,312447
1500.03,0.268529,574159,309388
1503.18,0.268856,570285,307069
1506.32,0.268170,565444,304944
1509.45,0.267361,560571,302879
1512.58,0.266234,555821,301093
1515.71,0.263364,550344,300103
1519.87,0.260257,543983,298764
1522.99,0.257513,538764,297773
1526.1,0.255417,533692,296397
1529.21,0.251309,527902,295968
1532.32,0.249092,521886,294092
1535.42,0.245769,515888,292945
1538.51,0.241870,509987,292206
1541.6,0.238515,503936,290978
1545.72,0.234280,494694,288441
1548.8,0.230179,488378,287460
1551.88,0.227078,481832,285639
1554.95,0.225408,474989,282667
1558.02,0.223433,467818,279669
1561.08,0.222301,460730,276150
1564.15,0.221320,454170,272834
1568.22,0.219414,444181,268007
1571.27,0.219017,436947,263883
1574.32,0.218142,429598,259968
1577.36,0.216328,422039,256463
1580.4,0.214771,414375,252710
1583.43,0.212801,406354,248945
1586.46,0.211093,398475,245080
1590.49,0.208582,388982,240629
1593.51,0.206260,380708,236773
1596.53,0.203724,372727,233167
1599.54,0.201985,365060,229287
1602.55,0.198836,357543,226200
1605.55,0.196703,349495,222197
1608.55,0.194138,341154,218179
1612.54,0.192083,330877,212610
1615.53,0.188547,322904,209183
1618.51,0.187155,315116,204793
1621.49,0.187180,307217,199648
1624.47,0.184490,299481,195830
1627.44,0.183614,292112,191397
1630.41,0.182518,284245,186713
1634.36,0.180272,274079,180969
1637.32,0.179728,266916,176460
1640.27,0.178196,259612,172238
1643.22,0.177419,251804,167357
1646.16,0.176413,244348,162778
1649.1,0.176058,236703,157814
1652.04,0.174603,228171,152636
1655.95,0.173971,215408,144308
1658.88,0.173763,204937,137359
1661.8,0.170818,193395,130505
1664.72,0.170218,179728,121450
1667.63,0.164816,163642,111964
1670.54,0.161738,146312,100819
1673.44,0.159762,128451,88915
1677.31,0.153870,105080,73731
1680.21,0.158182,88906,61766
1683.1,0.158456,75033,52095
1685.99,0.169220,63520,43022
1688.87,0.170923,53714,36238
1691.75,0.172359,45653,30698
1694.62,0.180682,39137,25817
1697.49,0.181610,33776,22233
1701.31,0.197764,28175,17869