File: samples/wool/wool-000811/Column 1_050598_20150331_122250.csv
Method:,Column 1,,
Host Date-Time:,31/3/15 @ 12:22:50,,
Header Version:,1,,
System Temp (C):,34,,
Detector Temp (C):,34.69,,
Humidity (%):,1.76,,
Lamp PD:,3818,,
Shift Vector Coefficients:,-10.5391,0.0761263,-0.000134223,,
Pixel to Wavelength Coefficients:,1775.68,-0.916766,-0.000235065,,
Serial Number:,5510004,,
Scan Config Name:,Column 1,,
Scan Config Type:,Slew,,
Section 1,,
Start wavelength (nm):,900,,
End wavelength (nm):,1700,,
Pattern Pixel Width (nm):,   7.03,,,,
Exposure (ms):,  0.635,,,,
Digital Resolution:,228,,
Num Repeats:,6,,
PGA Gain:,64,,
Total Measurement Time in sec:,  2.670,,
Wavelength (nm),Absorbance (AU),Reference Signal (unitless),Sample Signal (unitless)
901.51,0.069458,108485,92451
905.376,0.077870,121306,101394
909.237,0.077963,131909,110233
913.095,0.078211,143299,119683
916.948,0.079963,156982,130583
922.079,0.081317,179937,149212
925.923,0.082494,200504,165817
929.762,0.082678,222660,184062
933.597,0.083033,244426,201890
937.427,0.081548,263972,218781
941.254,0.081679,281845,233524
945.076,0.080037,297271,247238
950.165,0.079624,315605,262736
953.978,0.078070,328029,274058
957.786,0.078984,340470,283854
961.59,0.078551,352317,294024
965.389,0.078511,363056,303014
969.185,0.078561,373162,311413
972.976,0.078865,382632,319092
976.763,0.079976,391202,325406
981.806,0.080629,400190,332382
985.583,0.080636,406088,337275
989.355,0.081637,410162,339874
993.124,0.081491,412868,342232
996.888,0.081449,414263,343421
1000.65,0.082402,415476,343672
1004.4,0.083564,415479,342756
1009.41,0.085131,414358,340600
1013.15,0.085215,412923,339355
1016.89,0.085756,411526,337786
1020.63,0.086144,409066,335467
1024.36,0.086384,406777,333405
1028.09,0.085690,404427,332009
1031.82,0.085749,401911,329899
1036.78,0.085038,398410,327561
1040.49,0.085587,396204,325336
1044.2,0.084180,394236,324770
1047.91,0.084252,392042,322909
1051.61,0.084418,389823,320959
1055.31,0.084211,388234,319803
1059,0.083883,387599,319521
1063.92,0.082792,386688,319572
1067.61,0.082006,386598,320076
1071.29,0.081544,387377,321063
1074.96,0.081125,388536,322334
1078.63,0.080282,389855,324057
1082.3,0.079210,391215,325991
1085.96,0.078298,393215,328346
1090.84,0.077688,396270,331362
1094.49,0.077206,398760,333815
1098.14,0.077044,400987,335804
1101.79,0.076485,403477,338325
1105.43,0.076450,406116,340565
1109.06,0.074946,407701,343080
1112.7,0.075405,409859,344532
1117.53,0.074667,412494,347337
1121.15,0.075393,414909,348787
1124.77,0.075563,416559,350037
1128.38,0.076070,418532,351284
1131.99,0.077542,419956,351287
1135.6,0.078736,421946,351982
1139.2,0.080219,423881,352391
1143.99,0.082317,426786,353096
1147.58,0.083023,428617,354035
1151.17,0.083683,431169,355602
1154.75,0.084378,433579,357018
1158.33,0.086516,436264,357465
1161.91,0.087915,439132,358658
1165.48,0.089724,442389,359816
1169.04,0.092054,446101,360894
1173.79,0.095959,451929,362336
1177.34,0.097335,456026,364464
1180.9,0.099641,461306,366731
1184.44,0.101478,467657,370211
1187.99,0.102441,473969,374377
1191.52,0.102688,479856,378811
1195.06,0.102067,487372,385295
1199.76,0.101813,497347,393411
1203.29,0.100749,504311,399898
1206.81,0.100836,511507,405523
1210.33,0.099737,519078,412568
1213.84,0.099332,527163,419385
1217.35,0.098858,534208,425454
1220.85,0.098447,540472,430850
1225.51,0.097397,549929,439450
1229.01,0.096864,556888,445558
1232.5,0.096155,562180,450527
1235.98,0.095530,567975,455826
1239.46,0.094710,574815,462187
1242.94,0.093792,582782,469585
1246.41,0.093111,591476,477338
1251.03,0.092506,604016,488138
1254.5,0.093023,612289,494235
1257.96,0.093356,619125,499370
1261.41,0.094220,624551,502745
1264.86,0.094829,629900,506341
1268.31,0.095127,634345,509564
1271.75,0.095851,638574,512107
1276.33,0.096048,642499,515020
1279.76,0.096106,645905,517681
1283.19,0.095613,648307,520197
1286.61,0.095055,650446,522584
1290.03,0.094518,652132,524587
1293.44,0.094023,653907,526615
1296.85,0.093977,655963,528326
1301.39,0.093544,657349,529971
1304.8,0.093444,657558,530262
1308.19,0.094044,658515,530300
1311.58,0.093845,658804,530776
1314.97,0.094459,659011,530192
1318.36,0.094952,658272,528997
1321.73,0.095526,658022,528098
1326.23,0.095925,657870,527491
1329.6,0.096916,656482,525178
1332.97,0.097955,654926,522682
1336.33,0.098839,653727,520664
1339.69,0.100175,652497,518088
1343.04,0.101605,649913,514340
1346.39,0.103385,647671,510469
1349.73,0.105673,645338,505958
1354.18,0.108672,641175,499234
1357.52,0.110831,638376,494590
1360.85,0.112666,635805,490521
1364.17,0.114678,633413,486417
1367.49,0.117082,631026,481909
1370.81,0.119088,628050,477426
1374.12,0.121403,625034,472607
1378.54,0.124017,620272,466192
1381.84,0.126703,616892,460793
1385.14,0.130335,613613,454527
1388.43,0.134374,611526,448788
1391.72,0.138350,610663,444070
1395.01,0.142730,610634,439593
1398.29,0.147742,611700,435308
1402.66,0.153506,614051,431220
1405.93,0.158964,616268,427372
1409.2,0.163418,617795,424059
1412.46,0.167983,618872,420357
1415.72,0.172262,619795,416856
1418.98,0.176170,620495,413588
1422.23,0.179193,621087,411111
1426.56,0.183308,621375,407423
1429.8,0.186266,621616,404815
1433.04,0.188607,622129,402971
1436.27,0.190833,621526,400522
1439.5,0.192755,621113,398488
1442.72,0.194947,620921,396360
1445.94,0.197420,620270,393696
1450.23,0.200611,618860,389925
1453.44,0.204000,617697,386167
1456.64,0.206740,616264,382848
1459.85,0.208857,614413,379842
1463.04,0.211835,612307,375954
1466.24,0.214803,610032,372006
1469.43,0.218890,607345,366898
1473.67,0.224549,603789,360028
1476.85,0.230250,601175,353794
1480.02,0.235877,597737,347243
1483.19,0.241898,594479,340595
1486.36,0.248057,591232,333965
1489.52,0.252737,587853,328497
1492.68,0.255520,583875,324190
1496.89,0.258302,578062,318913
1500.03,0.257802,574159,317125
1503.18,0.258919,570285,314176
1506.32,0.256913,565444,312951
1509.45,0.256053,560571,310869
1512.58,0.254785,555821,309136
1515.71,0.251985,550344,308070
1519.87,0.249013,543983,306600
1522.99,0.246713,538764,305271
1526.1,0.243752,533692,304466
1529.21,0.240932,527902,303125
1532.32,0.239384,521886,300740
1535.42,0.234942,515888,300340
1538.51,0.233040,509987,298208
1541.6,0.229692,503936,296950
1545.72,0.226665,494694,293543
1548.8,0.223546,488378,291884
1551.88,0.220547,481832,289967
1554.95,0.219070,474989,286823
1558.02,0.217702,467818,283384
1561.08,0.216262,460730,280017
1564.15,0.215481,454170,276527
1568.22,0.215178,444181,270634
1571.27,0.214271,436947,266783
1574.32,0.213014,429598,263056
1577.36,0.211741,422039,259186
1580.4,0.211189,414375,254803
1583.43,0.209828,406354,250655
1586.46,0.207412,398475,247166
1590.49,0.205460,388982,242365
1593.51,0.203776,380708,238131
1596.53,0.202621,372727,233760
1599.54,0.199232,365060,230745
1602.55,0.197683,357543,226801
1605.55,0.195703,349495,222709
1608.55,0.193720,341154,218389
1612.54,0.193429,330877,211952
1615.53,0.190513,322904,208238
1618.51,0.188887,315116,203978
1621.49,0.188132,307217,199211
1624.47,0.186903,299481,194745
1627.44,0.186478,292112,190139
1630.41,0.184897,284245,185693
1634.36,0.184170,274079,179352
1637.32,0.183615,266916,174888
1640.27,0.181888,259612,170780
1643.22,0.181572,251804,165764
1646.16,0.181815,244348,160766
1649.1,0.180459,236703,156223
1652.04,0.178933,228171,151122
1655.95,0.175575,215408,143776
1658.88,0.171738,204937,138001
1661.8,0.166850,193395,131703
1664.72,0.157702,179728,125001
1667.63,0.147438,163642,116535
1670.54,0.132275,146312,107896
1673.44,0.116989,128451,98118
1677.31,0.096791,105080,84087
1680.21,0.086096,88906,72918
1683.1,0.080764,75033,62300
1685.99,0.084010,63520,52348
1688.87,0.081708,53714,44502
1691.75,0.091397,45653,36989
1694.62,0.096960,39137,31306
1697.49,0.102162,33776,26696
1701.31,0.097952,28175,22486