File: samples/wool/wool-000811/Column 1_050603_20150331_122449.csv
Method:,Column 1,,
Host Date-Time:,31/3/15 @ 12:24:49,,
Header Version:,1,,
System Temp (C):,34.03,,
Detector Temp (C):,34.77,,
Humidity (%):,1.76,,
Lamp PD:,3818,,
Shift Vector Coefficients:,-10.5391,0.0761263,-0.000134223,,
Pixel to Wavelength Coefficients:,1775.68,-0.916766,-0.000235065,,
Serial Number:,5510004,,
Scan Config Name:,Column 1,,
Scan Config Type:,Slew,,
Section 1,,
Start wavelength (nm):,900,,
End wavelength (nm):,1700,,
Pattern Pixel Width (nm):,   7.03,,,,
Exposure (ms):,  0.635,,,,
Digital Resolution:,228,,
Num Repeats:,6,,
PGA Gain:,64,,
Total Measurement Time in sec:,  2.675,,
Wavelength (nm),Absorbance (AU),Reference Signal (unitless),Sample Signal (unitless)
901.51,0.068393,108485,92678
905.376,0.076088,121306,101811
909.237,0.076865,131909,110512
913.095,0.078537,143299,119593
916.948,0.078045,156982,131161
922.079,0.079788,179937,149738
925.923,0.081725,200504,166111
929.762,0.082973,222660,183937
933.597,0.082936,244426,201935
937.427,0.080565,263972,219277
941.254,0.080492,281845,234163
945.076,0.079021,297271,247817
950.165,0.078611,315605,263350
953.978,0.077981,328029,274114
957.786,0.078077,340470,284447
961.59,0.077041,352317,295048
965.389,0.077851,363056,303475
969.185,0.078113,373162,311734
972.976,0.077973,382632,319748
976.763,0.079239,391202,325958
981.806,0.079272,400190,333422
985.583,0.080202,406088,337612
989.355,0.080177,410162,341019
993.124,0.080694,412868,342860
996.888,0.081244,414263,343583
1000.65,0.081964,415476,344019
1004.4,0.083221,415479,343027
1009.41,0.084133,414358,341384
1013.15,0.084573,412923,339857
1016.89,0.085508,411526,337979
1020.63,0.084937,409066,336400
1024.36,0.085367,406777,334187
1028.09,0.084979,404427,332553
1031.82,0.084654,401911,330732
1036.78,0.084254,398410,328153
1040.49,0.084082,396204,326465
1044.2,0.083663,394236,325157
1047.91,0.084265,392042,322900
1051.61,0.083005,389823,322005
1055.31,0.083367,388234,320425
1059,0.082942,387599,320214
1063.92,0.081732,386688,320353
1067.61,0.080668,386598,321064
1071.29,0.080672,387377,321708
1074.96,0.080230,388536,322999
1078.63,0.079202,389855,324864
1082.3,0.078624,391215,326431
1085.96,0.078117,393215,328483
1090.84,0.077176,396270,331753
1094.49,0.076662,398760,334233
1098.14,0.075962,400987,336642
1101.79,0.075373,403477,339192
1105.43,0.075565,406116,341260
1109.06,0.074614,407701,343343
1112.7,0.073703,409859,345885
1117.53,0.073351,412494,348391
1121.15,0.074297,414909,349668
1124.77,0.074489,416559,350903
1128.38,0.075407,418532,351821
1131.99,0.076476,419956,352150
1135.6,0.077891,421946,352668
1139.2,0.078684,423881,353639
1143.99,0.081688,426786,353608
1147.58,0.081974,428617,354891
1151.17,0.083567,431169,355697
1154.75,0.084126,433579,357225
1158.33,0.085184,436264,358563
1161.91,0.086815,439132,359567
1165.48,0.088956,442389,360453
1169.04,0.090965,446101,361800
1173.79,0.095387,451929,362813
1177.34,0.096253,456026,365373
1180.9,0.098956,461306,367310
1184.44,0.100286,467657,371229
1187.99,0.101340,473969,375327
1191.52,0.102159,479856,379273
1195.06,0.101444,487372,385848
1199.76,0.101319,497347,393859
1203.29,0.099966,504311,400620
1206.81,0.099980,511507,406323
1210.33,0.099168,519078,413109
1213.84,0.098833,527163,419867
1217.35,0.098021,534208,426275
1220.85,0.097624,540472,431667
1225.51,0.096676,549929,440180
1229.01,0.096268,556888,446169
1232.5,0.095486,562180,451221
1235.98,0.094857,567975,456533
1239.46,0.093775,574815,463183
1242.94,0.092686,582782,470782
1246.41,0.092477,591476,478036
1251.03,0.092783,604016,487826
1254.5,0.092631,612289,494681
1257.96,0.092509,619125,500345
1261.41,0.093606,624551,503457
1264.86,0.093889,629900,507437
1268.31,0.094363,634345,510461
1271.75,0.094969,638574,513148
1276.33,0.095547,642499,515615
1279.76,0.095037,645905,518957
1283.19,0.094638,648307,521366
1286.61,0.094227,650446,523581
1290.03,0.093442,652132,525888
1293.44,0.093238,653907,527568
1296.85,0.092914,655963,529621
1301.39,0.092989,657349,530648
1304.8,0.092949,657558,530866
1308.19,0.092897,658515,531702
1311.58,0.093078,658804,531714
1314.97,0.093932,659011,530836
1318.36,0.094247,658272,529857
1321.73,0.094283,658022,529611
1326.23,0.095265,657870,528293
1329.6,0.096220,656482,526021
1332.97,0.096551,654926,524374
1336.33,0.097698,653727,522034
1339.69,0.099269,652497,519170
1343.04,0.100739,649913,515367
1346.39,0.102885,647671,511057
1349.73,0.104615,645338,507192
1354.18,0.107733,641175,500315
1357.52,0.109576,638376,496022
1360.85,0.111595,635805,491732
1364.17,0.113919,633413,487268
1367.49,0.115851,631026,483277
1370.81,0.117178,628050,479531
1374.12,0.120055,625034,474077
1378.54,0.122505,620272,467818
1381.84,0.125765,616892,461790
1385.14,0.128932,613613,455998
1388.43,0.132497,611526,450731
1391.72,0.137071,610663,445380
1395.01,0.140761,610634,441591
1398.29,0.145424,611700,437637
1402.66,0.152126,614051,432592
1405.93,0.156890,616268,429417
1409.2,0.161752,617795,425689
1412.46,0.166264,618872,422024
1415.72,0.170185,619795,418854
1418.98,0.173656,620495,415989
1422.23,0.176787,621087,413395
1426.56,0.181167,621375,409437
1429.8,0.183223,621616,407661
1433.04,0.186139,622129,405267
1436.27,0.188211,621526,402947
1439.5,0.190249,621113,400794
1442.72,0.192938,620921,398197
1445.94,0.194827,620270,396053
1450.23,0.198244,618860,392056
1453.44,0.200973,617697,388868
1456.64,0.204188,616264,385105
1459.85,0.206568,614413,381850
1463.04,0.209397,612307,378070
1466.24,0.213377,610032,373229
1469.43,0.217231,607345,368302
1473.67,0.222507,603789,361725
1476.85,0.228318,601175,355372
1480.02,0.233912,597737,348817
1483.19,0.240340,594479,341819
1486.36,0.246160,591232,335427
1489.52,0.251116,587853,329726
1492.68,0.254268,583875,325126
1496.89,0.256531,578062,320216
1500.03,0.257063,574159,317665
1503.18,0.257302,570285,315348
1506.32,0.255799,565444,313755
1509.45,0.254690,560571,311846
1512.58,0.253071,555821,310359
1515.71,0.251254,550344,308589
1519.87,0.247760,543983,307486
1522.99,0.245371,538764,306216
1526.1,0.242836,533692,305109
1529.21,0.239885,527902,303856
1532.32,0.237261,521886,302214
1535.42,0.234517,515888,300634
1538.51,0.231434,509987,299313
1541.6,0.228241,503936,297944
1545.72,0.224316,494694,295135
1548.8,0.222057,488378,292886
1551.88,0.218965,481832,291025
1554.95,0.217208,474989,288055
1558.02,0.215638,467818,284734
1561.08,0.214901,460730,280896
1564.15,0.213425,454170,277839
1568.22,0.212717,444181,272172
1571.27,0.212529,436947,267855
1574.32,0.211806,429598,263789
1577.36,0.209870,422039,260305
1580.4,0.209639,414375,255714
1583.43,0.207371,406354,252077
1586.46,0.206037,398475,247950
1590.49,0.204248,388982,243042
1593.51,0.201980,380708,239118
1596.53,0.200645,372727,234826
1599.54,0.198564,365060,231100
1602.55,0.196347,357543,227500
1605.55,0.194391,349495,223383
1608.55,0.192798,341154,218853
1612.54,0.190881,330877,213199
1615.53,0.188867,322904,209029
1618.51,0.187913,315116,204436
1621.49,0.186622,307217,199905
1624.47,0.186542,299481,194907
1627.44,0.184509,292112,191003
1630.41,0.184455,284245,185882
1634.36,0.181755,274079,180352
1637.32,0.182375,266916,175388
1640.27,0.181181,259612,171058
1643.22,0.179941,251804,166388
1646.16,0.180094,244348,161404
1649.1,0.179021,236703,156741
1652.04,0.178051,228171,151429
1655.95,0.174008,215408,144296
1658.88,0.170227,204937,138482
1661.8,0.166833,193395,131708
1664.72,0.157723,179728,124995
1667.63,0.145568,163642,117038
1670.54,0.130018,146312,108458
1673.44,0.115306,128451,98499
1677.31,0.097215,105080,84005
1680.21,0.085138,88906,73079
1683.1,0.080569,75033,62328
1685.99,0.075833,63520,53343
1688.87,0.084361,53714,44231
1691.75,0.082265,45653,37775
1694.62,0.089464,39137,31851
1697.49,0.099373,33776,26868
1701.31,0.099674,28175,22397