File: samples/wool/wool-000811/Column 1_050618_20150331_123211.csv
Method:,Column 1,,
Host Date-Time:,31/3/15 @ 12:32:11,,
Header Version:,1,,
System Temp (C):,34.16,,
Detector Temp (C):,34.98,,
Humidity (%):,1.66,,
Lamp PD:,3818,,
Shift Vector Coefficients:,-10.5391,0.0761263,-0.000134223,,
Pixel to Wavelength Coefficients:,1775.68,-0.916766,-0.000235065,,
Serial Number:,5510004,,
Scan Config Name:,Column 1,,
Scan Config Type:,Slew,,
Section 1,,
Start wavelength (nm):,900,,
End wavelength (nm):,1700,,
Pattern Pixel Width (nm):,   7.03,,,,
Exposure (ms):,  0.635,,,,
Digital Resolution:,228,,
Num Repeats:,6,,
PGA Gain:,64,,
Total Measurement Time in sec:,  2.672,,
Wavelength (nm),Absorbance (AU),Reference Signal (unitless),Sample Signal (unitless)
901.51,0.069646,108485,92411
905.376,0.076139,121306,101799
909.237,0.078069,131909,110206
913.095,0.078439,143299,119620
916.948,0.079538,156982,130711
922.079,0.081381,179937,149190
925.923,0.083018,200504,165617
929.762,0.083389,222660,183761
933.597,0.082115,244426,202317
937.427,0.080735,263972,219191
941.254,0.080670,281845,234067
945.076,0.079693,297271,247434
950.165,0.078340,315605,263514
953.978,0.076916,328029,274787
957.786,0.077307,340470,284952
961.59,0.077763,352317,294558
965.389,0.077755,363056,303542
969.185,0.077737,373162,312004
972.976,0.077717,382632,319937
976.763,0.078192,391202,326745
981.806,0.078695,400190,333865
985.583,0.079764,406088,337953
989.355,0.079926,410162,341216
993.124,0.080124,412868,343311
996.888,0.080864,414263,343884
1000.65,0.081745,415476,344192
1004.4,0.082472,415479,343619
1009.41,0.083652,414358,341762
1013.15,0.084288,412923,340080
1016.89,0.084426,411526,338822
1020.63,0.084486,409066,336750
1024.36,0.084395,406777,334936
1028.09,0.084598,404427,332845
1031.82,0.084165,401911,331104
1036.78,0.083706,398410,328567
1040.49,0.083948,396204,326566
1044.2,0.084016,394236,324893
1047.91,0.083189,392042,323701
1051.61,0.083314,389823,321776
1055.31,0.082792,388234,320850
1059,0.082350,387599,320651
1063.92,0.081991,386688,320162
1067.61,0.081070,386598,320767
1071.29,0.080526,387377,321816
1074.96,0.079639,388536,323439
1078.63,0.079522,389855,324624
1082.3,0.078342,391215,326643
1085.96,0.077579,393215,328890
1090.84,0.076714,396270,332106
1094.49,0.075885,398760,334832
1098.14,0.075574,400987,336943
1101.79,0.075353,403477,339208
1105.43,0.075192,406116,341553
1109.06,0.074260,407701,343623
1112.7,0.073553,409859,346004
1117.53,0.073282,412494,348446
1121.15,0.073607,414909,350224
1124.77,0.073992,416559,351305
1128.38,0.074809,418532,352306
1131.99,0.075813,419956,352688
1135.6,0.077507,421946,352980
1139.2,0.078600,423881,353707
1143.99,0.080897,426786,354253
1147.58,0.081323,428617,355424
1151.17,0.082761,431169,356358
1154.75,0.082893,433579,358241
1158.33,0.084707,436264,358957
1161.91,0.085984,439132,360256
1165.48,0.088161,442389,361113
1169.04,0.090404,446101,362267
1173.79,0.093722,451929,364207
1177.34,0.095696,456026,365842
1180.9,0.097976,461306,368140
1184.44,0.099825,467657,371623
1187.99,0.101357,473969,375312
1191.52,0.100849,479856,380419
1195.06,0.100886,487372,386344
1199.76,0.100389,497347,394703
1203.29,0.099693,504311,400872
1206.81,0.099476,511507,406795
1210.33,0.098586,519078,413663
1213.84,0.098300,527163,420383
1217.35,0.097423,534208,426862
1220.85,0.096651,540472,432636
1225.51,0.095834,549929,441035
1229.01,0.095409,556888,447053
1232.5,0.094688,562180,452051
1235.98,0.094485,567975,456924
1239.46,0.093115,574815,463888
1242.94,0.091841,582782,471699
1246.41,0.091469,591476,479146
1251.03,0.091408,604016,489374
1254.5,0.091886,612289,495531
1257.96,0.092259,619125,500633
1261.41,0.092332,624551,504935
1264.86,0.093046,629900,508423
1268.31,0.093504,634345,511472
1271.75,0.094634,638574,513543
1276.33,0.094594,642499,516748
1279.76,0.094392,645905,519729
1283.19,0.093991,648307,522143
1286.61,0.093578,650446,524364
1290.03,0.092707,652132,526779
1293.44,0.092575,653907,528373
1296.85,0.092528,655963,530092
1301.39,0.092022,657349,531832
1304.8,0.092013,657558,532011
1308.19,0.092564,658515,532110
1311.58,0.091828,658804,533247
1314.97,0.092866,659011,532141
1318.36,0.093178,658272,531163
1321.73,0.092989,658022,531192
1326.23,0.094107,657870,529704
1329.6,0.094725,656482,527834
1332.97,0.095639,654926,525476
1336.33,0.096301,653727,523716
1339.69,0.097939,652497,520762
1343.04,0.099170,649913,517232
1346.39,0.101059,647671,513210
1349.73,0.103339,645338,508684
1354.18,0.106032,641175,502279
1357.52,0.107865,638376,497980
1360.85,0.110038,635805,493499
1364.17,0.111930,633413,489505
1367.49,0.114159,631026,485164
1370.81,0.116554,628050,480220
1374.12,0.118464,625034,475817
1378.54,0.121206,620272,469220
1381.84,0.124026,616892,463642
1385.14,0.127359,613613,457652
1388.43,0.130702,611526,452598
1391.72,0.134531,610663,447992
1395.01,0.138655,610634,443737
1398.29,0.142811,611700,440278
1402.66,0.148619,614051,436099
1405.93,0.153413,616268,432869
1409.2,0.157701,617795,429678
1412.46,0.162034,618872,426154
1415.72,0.165904,619795,423004
1418.98,0.169435,620495,420052
1422.23,0.172976,621087,417039
1426.56,0.176417,621375,413939
1429.8,0.178914,621616,411726
1433.04,0.181792,622129,409344
1436.27,0.183664,621526,407188
1439.5,0.185321,621113,405368
1442.72,0.188156,620921,402606
1445.94,0.190759,620270,399781
1450.23,0.193973,618860,395931
1453.44,0.197203,617697,392259
1456.64,0.199838,616264,388981
1459.85,0.202696,614413,385269
1463.04,0.205755,612307,381254
1466.24,0.209208,610032,376829
1469.43,0.213132,607345,371795
1473.67,0.219397,603789,364324
1476.85,0.225027,601175,358075
1480.02,0.231257,597737,350956
1483.19,0.238032,594479,343641
1486.36,0.243655,591232,337367
1489.52,0.248569,587853,331665
1492.68,0.251468,583875,327229
1496.89,0.254151,578062,321976
1500.03,0.254669,574159,319421
1503.18,0.254752,570285,317205
1506.32,0.254456,565444,314727
1509.45,0.253039,560571,313034
1512.58,0.250682,555821,312071
1515.71,0.248401,550344,310623
1519.87,0.245384,543983,309173
1522.99,0.243153,538764,307784
1526.1,0.240376,533692,306842
1529.21,0.237359,527902,305629
1532.32,0.234972,521886,303811
1535.42,0.231834,515888,302497
1538.51,0.228821,509987,301119
1541.6,0.226558,503936,299101
1545.72,0.222601,494694,296303
1548.8,0.219516,488378,294605
1551.88,0.217177,481832,292226
1554.95,0.214227,474989,290039
1558.02,0.213529,467818,286120
1561.08,0.212380,460730,282531
1564.15,0.212158,454170,278651
1568.22,0.210706,444181,273435
1571.27,0.210512,436947,269102
1574.32,0.208958,429598,265524
1577.36,0.209127,422039,260751
1580.4,0.207829,414375,256782
1583.43,0.205662,406354,253071
1586.46,0.204493,398475,248833
1590.49,0.202595,388982,243969
1593.51,0.200636,380708,239859
1596.53,0.198359,372727,236065
1599.54,0.196700,365060,232094
1602.55,0.195312,357543,228043
1605.55,0.193210,349495,223991
1608.55,0.190976,341154,219773
1612.54,0.189462,330877,213897
1615.53,0.186949,322904,209954
1618.51,0.186503,315116,205101
1621.49,0.185177,307217,200571
1624.47,0.183677,299481,196197
1627.44,0.183859,292112,191289
1630.41,0.182797,284245,186593
1634.36,0.180627,274079,180821
1637.32,0.180393,266916,176190
1640.27,0.179350,259612,171781
1643.22,0.178552,251804,166921
1646.16,0.177637,244348,162320
1649.1,0.176667,236703,157593
1652.04,0.175886,228171,152186
1655.95,0.173517,215408,144459
1658.88,0.167772,204937,139267
1661.8,0.163777,193395,132638
1664.72,0.155540,179728,125625
1667.63,0.143225,163642,117671
1670.54,0.127185,146312,109168
1673.44,0.113137,128451,98992
1677.31,0.092745,105080,84874
1680.21,0.077417,88906,74390
1683.1,0.073444,75033,63359
1685.99,0.075190,63520,53422
1688.87,0.079071,53714,44773
1691.75,0.084501,45653,37581
1694.62,0.087315,39137,32009
1697.49,0.095383,33776,27116
1701.31,0.101559,28175,22300