File: samples/wool/wool-000811/Column 1_050616_20150331_123120.csv
Method:,Column 1,,
Host Date-Time:,31/3/15 @ 12:31:20,,
Header Version:,1,,
System Temp (C):,34.11,,
Detector Temp (C):,35.01,,
Humidity (%):,1.66,,
Lamp PD:,3817,,
Shift Vector Coefficients:,-10.5391,0.0761263,-0.000134223,,
Pixel to Wavelength Coefficients:,1775.68,-0.916766,-0.000235065,,
Serial Number:,5510004,,
Scan Config Name:,Column 1,,
Scan Config Type:,Slew,,
Section 1,,
Start wavelength (nm):,900,,
End wavelength (nm):,1700,,
Pattern Pixel Width (nm):,   7.03,,,,
Exposure (ms):,  0.635,,,,
Digital Resolution:,228,,
Num Repeats:,6,,
PGA Gain:,64,,
Total Measurement Time in sec:,  2.672,,
Wavelength (nm),Absorbance (AU),Reference Signal (unitless),Sample Signal (unitless)
901.51,0.069186,108485,92509
905.376,0.073476,121306,102425
909.237,0.077778,131909,110280
913.095,0.077663,143299,119834
916.948,0.078506,156982,131022
922.079,0.079771,179937,149744
925.923,0.082546,200504,165797
929.762,0.082093,222660,184310
933.597,0.082551,244426,202114
937.427,0.081794,263972,218657
941.254,0.080486,281845,234166
945.076,0.079633,297271,247468
950.165,0.078342,315605,263513
953.978,0.077055,328029,274699
957.786,0.077765,340470,284652
961.59,0.077658,352317,294629
965.389,0.077552,363056,303684
969.185,0.077672,373162,312051
972.976,0.078276,382632,319525
976.763,0.078781,391202,326302
981.806,0.079019,400190,333616
985.583,0.079181,406088,338407
989.355,0.079453,410162,341588
993.124,0.080151,412868,343289
996.888,0.080129,414263,344467
1000.65,0.081300,415476,344545
1004.4,0.082877,415479,343299
1009.41,0.083679,414358,341741
1013.15,0.084372,412923,340014
1016.89,0.085035,411526,338347
1020.63,0.084878,409066,336446
1024.36,0.084283,406777,335022
1028.09,0.084412,404427,332988
1031.82,0.084152,401911,331114
1036.78,0.084062,398410,328298
1040.49,0.083798,396204,326679
1044.2,0.083974,394236,324924
1047.91,0.083462,392042,323497
1051.61,0.083406,389823,321708
1055.31,0.082908,388234,320764
1059,0.082514,387599,320530
1063.92,0.081348,386688,320636
1067.61,0.080875,386598,320911
1071.29,0.080135,387377,322106
1074.96,0.079608,388536,323462
1078.63,0.079012,389855,325006
1082.3,0.077983,391215,326913
1085.96,0.077255,393215,329136
1090.84,0.076521,396270,332254
1094.49,0.076108,398760,334660
1098.14,0.075034,400987,337362
1101.79,0.075162,403477,339357
1105.43,0.074613,406116,342009
1109.06,0.073748,407701,344028
1112.7,0.073458,409859,346080
1117.53,0.073641,412494,348158
1121.15,0.072833,414909,350849
1124.77,0.073087,416559,352038
1128.38,0.074695,418532,352398
1131.99,0.075705,419956,352776
1135.6,0.077178,421946,353247
1139.2,0.078560,423881,353740
1143.99,0.081016,426786,354156
1147.58,0.081843,428617,354998
1151.17,0.082332,431169,356710
1154.75,0.083762,433579,357525
1158.33,0.084325,436264,359273
1161.91,0.086314,439132,359982
1165.48,0.088469,442389,360857
1169.04,0.090532,446101,362161
1173.79,0.093958,451929,364009
1177.34,0.095852,456026,365711
1180.9,0.098029,461306,368095
1184.44,0.099694,467657,371735
1187.99,0.101145,473969,375496
1191.52,0.100482,479856,380740
1195.06,0.100614,487372,386586
1199.76,0.100050,497347,395011
1203.29,0.099421,504311,401123
1206.81,0.099249,511507,407008
1210.33,0.098083,519078,414142
1213.84,0.098218,527163,420462
1217.35,0.097270,534208,427012
1220.85,0.096753,540472,432534
1225.51,0.095835,549929,441034
1229.01,0.095485,556888,446975
1232.5,0.094500,562180,452247
1235.98,0.094008,567975,457426
1239.46,0.093304,574815,463686
1242.94,0.092136,582782,471379
1246.41,0.091744,591476,478843
1251.03,0.091492,604016,489279
1254.5,0.091504,612289,495967
1257.96,0.091904,619125,501042
1261.41,0.092485,624551,504758
1264.86,0.092943,629900,508544
1268.31,0.093634,634345,511319
1271.75,0.094248,638574,514000
1276.33,0.093955,642499,517509
1279.76,0.094348,645905,519781
1283.19,0.093541,648307,522685
1286.61,0.093618,650446,524316
1290.03,0.092971,652132,526459
1293.44,0.092450,653907,528525
1296.85,0.092253,655963,530428
1301.39,0.091939,657349,531933
1304.8,0.091973,657558,532060
1308.19,0.092107,658515,532670
1311.58,0.092123,658804,532885
1314.97,0.092466,659011,532631
1318.36,0.092909,658272,531492
1321.73,0.093049,658022,531118
1326.23,0.094252,657870,529527
1329.6,0.094850,656482,527683
1332.97,0.095577,654926,525551
1336.33,0.096316,653727,523697
1339.69,0.098094,652497,520577
1343.04,0.098801,649913,517671
1346.39,0.101385,647671,512825
1349.73,0.103113,645338,508949
1354.18,0.106001,641175,502314
1357.52,0.108550,638376,497195
1360.85,0.110274,635805,493231
1364.17,0.111828,633413,489620
1367.49,0.114160,631026,485163
1370.81,0.116436,628050,480350
1374.12,0.118620,625034,475646
1378.54,0.121258,620272,469163
1381.84,0.124148,616892,463512
1385.14,0.127296,613613,457719
1388.43,0.130944,611526,452346
1391.72,0.135259,610663,447242
1395.01,0.138496,610634,443900
1398.29,0.142990,611700,440097
1402.66,0.148663,614051,436055
1405.93,0.153451,616268,432831
1409.2,0.157990,617795,429392
1412.46,0.161976,618872,426211
1415.72,0.166629,619795,422298
1418.98,0.169618,620495,419875
1422.23,0.173649,621087,416393
1426.56,0.176565,621375,413798
1429.8,0.179164,621616,411489
1433.04,0.181855,622129,409285
1436.27,0.184015,621526,406859
1439.5,0.185749,621113,404969
1442.72,0.188673,620921,402127
1445.94,0.190682,620270,399852
1450.23,0.194423,618860,395521
1453.44,0.197436,617697,392048
1456.64,0.200272,616264,388593
1459.85,0.203053,614413,384953
1463.04,0.205348,612307,381611
1466.24,0.209373,610032,376686
1469.43,0.213128,607345,371798
1473.67,0.219676,603789,364090
1476.85,0.224834,601175,358234
1480.02,0.231303,597737,350919
1483.19,0.238000,594479,343666
1486.36,0.243766,591232,337281
1489.52,0.248463,587853,331746
1492.68,0.252165,583875,326704
1496.89,0.254171,578062,321961
1500.03,0.254828,574159,319304
1503.18,0.255074,570285,316970
1506.32,0.253965,565444,315083
1509.45,0.252765,560571,313232
1512.58,0.250932,555821,311891
1515.71,0.248990,550344,310202
1519.87,0.245182,543983,309317
1522.99,0.243206,538764,307746
1526.1,0.240771,533692,306563
1529.21,0.237889,527902,305256
1532.32,0.234885,521886,303872
1535.42,0.232139,515888,302285
1538.51,0.229245,509987,300825
1541.6,0.226008,503936,299480
1545.72,0.221947,494694,296749
1548.8,0.218956,488378,294985
1551.88,0.217204,481832,292208
1554.95,0.215374,474989,289274
1558.02,0.213397,467818,286207
1561.08,0.211958,460730,282806
1564.15,0.211437,454170,279114
1568.22,0.210412,444181,273620
1571.27,0.210463,436947,269132
1574.32,0.209526,429598,265177
1577.36,0.207894,422039,261492
1580.4,0.207817,414375,256789
1583.43,0.205443,406354,253199
1586.46,0.204275,398475,248958
1590.49,0.202266,388982,244154
1593.51,0.200057,380708,240179
1596.53,0.197912,372727,236308
1599.54,0.197731,365060,231544
1602.55,0.195037,357543,228187
1605.55,0.193367,349495,223910
1608.55,0.191524,341154,219496
1612.54,0.189054,330877,214098
1615.53,0.187276,322904,209796
1618.51,0.185783,315116,205441
1621.49,0.185574,307217,200388
1624.47,0.184038,299481,196034
1627.44,0.183016,292112,191661
1630.41,0.182128,284245,186881
1634.36,0.181031,274079,180653
1637.32,0.180024,266916,176340
1640.27,0.180038,259612,171509
1643.22,0.178338,251804,167003
1646.16,0.179686,244348,161556
1649.1,0.176918,236703,157502
1652.04,0.174880,228171,152539
1655.95,0.173358,215408,144512
1658.88,0.167782,204937,139264
1661.8,0.164397,193395,132449
1664.72,0.155225,179728,125716
1667.63,0.142904,163642,117758
1670.54,0.127547,146312,109077
1673.44,0.112173,128451,99212
1677.31,0.092142,105080,84992
1680.21,0.082667,88906,73496
1683.1,0.076160,75033,62964
1685.99,0.075394,63520,53397
1688.87,0.076566,53714,45032
1691.75,0.082449,45653,37759
1694.62,0.088416,39137,31928
1697.49,0.091524,33776,27358
1701.31,0.100975,28175,22330