File: samples/wool/wool-000811/Column 1_050626_20150331_123548.csv
Method:,Column 1,,
Host Date-Time:,31/3/15 @ 12:35:48,,
Header Version:,1,,
System Temp (C):,34.15,,
Detector Temp (C):,35.02,,
Humidity (%):,1.56,,
Lamp PD:,3818,,
Shift Vector Coefficients:,-10.5391,0.0761263,-0.000134223,,
Pixel to Wavelength Coefficients:,1775.68,-0.916766,-0.000235065,,
Serial Number:,5510004,,
Scan Config Name:,Column 1,,
Scan Config Type:,Slew,,
Section 1,,
Start wavelength (nm):,900,,
End wavelength (nm):,1700,,
Pattern Pixel Width (nm):,   7.03,,,,
Exposure (ms):,  0.635,,,,
Digital Resolution:,228,,
Num Repeats:,6,,
PGA Gain:,64,,
Total Measurement Time in sec:,  2.672,,
Wavelength (nm),Absorbance (AU),Reference Signal (unitless),Sample Signal (unitless)
901.51,0.069284,108485,92488
905.376,0.075687,121306,101905
909.237,0.077734,131909,110291
913.095,0.077902,143299,119768
916.948,0.077979,156982,131181
922.079,0.081462,179937,149162
925.923,0.081233,200504,166299
929.762,0.083639,222660,183655
933.597,0.082781,244426,202007
937.427,0.080539,263972,219290
941.254,0.080151,281845,234347
945.076,0.079156,297271,247740
950.165,0.077879,315605,263794
953.978,0.077696,328029,274294
957.786,0.077307,340470,284952
961.59,0.077692,352317,294606
965.389,0.077317,363056,303848
969.185,0.076896,373162,312609
972.976,0.077520,382632,320082
976.763,0.078196,391202,326742
981.806,0.078593,400190,333944
985.583,0.079245,406088,338357
989.355,0.079889,410162,341245
993.124,0.080846,412868,342740
996.888,0.080299,414263,344332
1000.65,0.080927,415476,344841
1004.4,0.082092,415479,343920
1009.41,0.083577,414358,341821
1013.15,0.083637,412923,340590
1016.89,0.084691,411526,338615
1020.63,0.084472,409066,336761
1024.36,0.084474,406777,334875
1028.09,0.083790,404427,333465
1031.82,0.083819,401911,331368
1036.78,0.084087,398410,328279
1040.49,0.083775,396204,326696
1044.2,0.083576,394236,325222
1047.91,0.083658,392042,323351
1051.61,0.082563,389823,322333
1055.31,0.082330,388234,321191
1059,0.082361,387599,320643
1063.92,0.081523,386688,320507
1067.61,0.080994,386598,320823
1071.29,0.079999,387377,322207
1074.96,0.080030,388536,323148
1078.63,0.078838,389855,325136
1082.3,0.078619,391215,326435
1085.96,0.076854,393215,329440
1090.84,0.076520,396270,332255
1094.49,0.075834,398760,334871
1098.14,0.074777,400987,337562
1101.79,0.074387,403477,339963
1105.43,0.074630,406116,341995
1109.06,0.073430,407701,344280
1112.7,0.073129,409859,346342
1117.53,0.073053,412494,348630
1121.15,0.073386,414909,350402
1124.77,0.073077,416559,352046
1128.38,0.074859,418532,352265
1131.99,0.075903,419956,352615
1135.6,0.076661,421946,353668
1139.2,0.077941,423881,354244
1143.99,0.080648,426786,354456
1147.58,0.080567,428617,356043
1151.17,0.082084,431169,356914
1154.75,0.082397,433579,358650
1158.33,0.084389,436264,359220
1161.91,0.085359,439132,360775
1165.48,0.088170,442389,361106
1169.04,0.089898,446101,362690
1173.79,0.093689,451929,364235
1177.34,0.096048,456026,365546
1180.9,0.097846,461306,368250
1184.44,0.099534,467657,371872
1187.99,0.100574,473969,375990
1191.52,0.100662,479856,380583
1195.06,0.100994,487372,386248
1199.76,0.099919,497347,395130
1203.29,0.098657,504311,401829
1206.81,0.098442,511507,407765
1210.33,0.097437,519078,414759
1213.84,0.097524,527163,421135
1217.35,0.097436,534208,426849
1220.85,0.096233,540472,433052
1225.51,0.095484,549929,441390
1229.01,0.095184,556888,447285
1232.5,0.094329,562180,452425
1235.98,0.093822,567975,457622
1239.46,0.092865,574815,464155
1242.94,0.091240,582782,472352
1246.41,0.091018,591476,479644
1251.03,0.091083,604016,489740
1254.5,0.090798,612289,496773
1257.96,0.091794,619125,501169
1261.41,0.092419,624551,504834
1264.86,0.092813,629900,508696
1268.31,0.092901,634345,512182
1271.75,0.093586,638574,514784
1276.33,0.094154,642499,517271
1279.76,0.094095,645905,520084
1283.19,0.093451,648307,522793
1286.61,0.093155,650446,524876
1290.03,0.092683,652132,526808
1293.44,0.091904,653907,529190
1296.85,0.092097,655963,530618
1301.39,0.091149,657349,532901
1304.8,0.091277,657558,532914
1308.19,0.091568,658515,533332
1311.58,0.091792,658804,533291
1314.97,0.092314,659011,532818
1318.36,0.092474,658272,532024
1321.73,0.092651,658022,531606
1326.23,0.093617,657870,530302
1329.6,0.094077,656482,528623
1332.97,0.094976,654926,526279
1336.33,0.096045,653727,524024
1339.69,0.096741,652497,522201
1343.04,0.098922,649913,517527
1346.39,0.100699,647671,513636
1349.73,0.102687,645338,509449
1354.18,0.105599,641175,502780
1357.52,0.107837,638376,498012
1360.85,0.109283,635805,494357
1364.17,0.111140,633413,490396
1367.49,0.113641,631026,485743
1370.81,0.115800,628050,481054
1374.12,0.117731,625034,476620
1378.54,0.120452,620272,470035
1381.84,0.123231,616892,464492
1385.14,0.126090,613613,458991
1388.43,0.129901,611526,453434
1391.72,0.133909,610663,448634
1395.01,0.137518,610634,444901
1398.29,0.141803,611700,441302
1402.66,0.147201,614051,437526
1405.93,0.152402,616268,433878
1409.2,0.156589,617795,430780
1412.46,0.160484,618872,427678
1415.72,0.164625,619795,424251
1418.98,0.168032,620495,421411
1422.23,0.170948,621087,418991
1426.56,0.174513,621375,415758
1429.8,0.177472,621616,413095
1433.04,0.179787,622129,411238
1436.27,0.181989,621526,408762
1439.5,0.183969,621113,406632
1442.72,0.186162,620921,404459
1445.94,0.189083,620270,401326
1450.23,0.192722,618860,397073
1453.44,0.195241,617697,394035
1456.64,0.198091,616264,390549
1459.85,0.200306,614413,387395
1463.04,0.204132,612307,382681
1466.24,0.207760,610032,378088
1469.43,0.211098,607345,373540
1473.67,0.217656,603789,365788
1476.85,0.223672,601175,359194
1480.02,0.230592,597737,351494
1483.19,0.236576,594479,344795
1486.36,0.243658,591232,337365
1489.52,0.248260,587853,331901
1492.68,0.251101,583875,327506
1496.89,0.253574,578062,322404
1500.03,0.253679,574159,320150
1503.18,0.254017,570285,317742
1506.32,0.253302,565444,315564
1509.45,0.252106,560571,313707
1512.58,0.249832,555821,312682
1515.71,0.247505,550344,311264
1519.87,0.244364,543983,309900
1522.99,0.241922,538764,308657
1526.1,0.239543,533692,307431
1529.21,0.236938,527902,305925
1532.32,0.234150,521886,304387
1535.42,0.230504,515888,303425
1538.51,0.228126,509987,301601
1541.6,0.225390,503936,299906
1545.72,0.220949,494694,297432
1548.8,0.218366,488378,295386
1551.88,0.215972,481832,293038
1554.95,0.214109,474989,290118
1558.02,0.212625,467818,286716
1561.08,0.211462,460730,283129
1564.15,0.209744,454170,280204
1568.22,0.209474,444181,274212
1571.27,0.209933,436947,269461
1574.32,0.208514,429598,265796
1577.36,0.207643,422039,261643
1580.4,0.205286,414375,258290
1583.43,0.205278,406354,253295
1586.46,0.202777,398475,249818
1590.49,0.202159,388982,244214
1593.51,0.199408,380708,240538
1596.53,0.198168,372727,236169
1599.54,0.195191,365060,232902
1602.55,0.194100,357543,228680
1605.55,0.191774,349495,224733
1608.55,0.190106,341154,220214
1612.54,0.187598,330877,214817
1615.53,0.186354,322904,210242
1618.51,0.185323,315116,205659
1621.49,0.184048,307217,201093
1624.47,0.182653,299481,196660
1627.44,0.182144,292112,192046
1630.41,0.180476,284245,187593
1634.36,0.179885,274079,181130
1637.32,0.179635,266916,176498
1640.27,0.178423,259612,172148
1643.22,0.178039,251804,167118
1646.16,0.176878,244348,162604
1649.1,0.177293,236703,157366
1652.04,0.175159,228171,152441
1655.95,0.172068,215408,144942
1658.88,0.167532,204937,139344
1661.8,0.162261,193395,133102
1664.72,0.155927,179728,125513
1667.63,0.142532,163642,117859
1670.54,0.128069,146312,108946
1673.44,0.110439,128451,99609
1677.31,0.089869,105080,85438
1680.21,0.076361,88906,74571
1683.1,0.070868,75033,63736
1685.99,0.071684,63520,53855
1688.87,0.070970,53714,45616
1691.75,0.084247,45653,37603
1694.62,0.082485,39137,32367
1697.49,0.086866,33776,27653
1701.31,0.101423,28175,22307