File: samples/wool/wool-000811/Column 1_050559_20150331_120416.csv
Method:,Column 1,,
Host Date-Time:,31/3/15 @ 12:4:16,,
Header Version:,1,,
System Temp (C):,33.62,,
Detector Temp (C):,33.11,,
Humidity (%):,2.15,,
Lamp PD:,3819,,
Shift Vector Coefficients:,-10.5391,0.0761263,-0.000134223,,
Pixel to Wavelength Coefficients:,1775.68,-0.916766,-0.000235065,,
Serial Number:,5510004,,
Scan Config Name:,Column 1,,
Scan Config Type:,Slew,,
Section 1,,
Start wavelength (nm):,900,,
End wavelength (nm):,1700,,
Pattern Pixel Width (nm):,   7.03,,,,
Exposure (ms):,  0.635,,,,
Digital Resolution:,228,,
Num Repeats:,6,,
PGA Gain:,64,,
Total Measurement Time in sec:,  2.729,,
Wavelength (nm),Absorbance (AU),Reference Signal (unitless),Sample Signal (unitless)
901.51,0.033364,108485,100463
905.376,0.039982,121306,110637
909.237,0.042518,131909,119607
913.095,0.043457,143299,129654
916.948,0.043837,156982,141910
922.079,0.045858,179937,161906
925.923,0.046670,200504,180075
929.762,0.047460,222660,199610
933.597,0.047882,244426,218910
937.427,0.047117,263972,236832
941.254,0.046747,281845,253083
945.076,0.046334,297271,267189
950.165,0.046409,315605,283619
953.978,0.045834,328029,295174
957.786,0.046400,340470,305970
961.59,0.046126,352317,316816
965.389,0.046503,363056,326190
969.185,0.046693,373162,335123
972.976,0.046980,382632,343401
976.763,0.047761,391202,350461
981.806,0.048067,400190,358261
985.583,0.049997,406088,361929
989.355,0.049521,410162,365961
993.124,0.049910,412868,368045
996.888,0.050800,414263,368533
1000.65,0.050767,415476,369640
1004.4,0.052423,415479,368236
1009.41,0.053608,414358,366242
1013.15,0.054633,412923,364113
1016.89,0.055096,411526,362494
1020.63,0.054485,409066,360835
1024.36,0.054368,406777,358912
1028.09,0.054867,404427,356429
1031.82,0.054216,401911,354743
1036.78,0.053767,398410,352017
1040.49,0.053124,396204,350586
1044.2,0.053745,394236,348346
1047.91,0.053091,392042,346930
1051.61,0.052051,389823,345793
1055.31,0.051831,388234,344558
1059,0.051173,387599,344516
1063.92,0.050364,386688,344347
1067.61,0.049898,386598,344637
1071.29,0.049031,387377,346021
1074.96,0.048514,388536,347470
1078.63,0.047739,389855,349272
1082.3,0.047417,391215,350751
1085.96,0.046172,393215,353556
1090.84,0.045460,396270,356887
1094.49,0.045134,398760,359400
1098.14,0.045175,400987,361373
1101.79,0.044941,403477,363813
1105.43,0.044872,406116,366250
1109.06,0.044216,407701,368236
1112.7,0.044172,409859,370222
1117.53,0.044213,412494,372567
1121.15,0.045023,414909,374050
1124.77,0.045428,416559,375188
1128.38,0.046651,418532,375905
1131.99,0.048086,419956,375939
1135.6,0.050398,421946,375715
1139.2,0.051700,423881,376308
1143.99,0.054218,426786,376697
1147.58,0.055159,428617,377494
1151.17,0.056382,431169,378674
1154.75,0.057845,433579,379510
1158.33,0.059419,436264,380479
1161.91,0.062269,439132,380475
1165.48,0.064325,442389,381487
1169.04,0.066780,446101,382519
1173.79,0.070784,451929,383960
1177.34,0.073002,456026,385467
1180.9,0.075240,461306,387926
1184.44,0.077557,467657,391174
1187.99,0.077741,473969,396286
1191.52,0.077428,479856,401498
1195.06,0.077763,487372,407472
1199.76,0.076454,497347,417067
1203.29,0.075260,504311,424071
1206.81,0.074854,511507,430524
1210.33,0.073921,519078,437836
1213.84,0.073270,527163,445323
1217.35,0.072400,534208,452179
1220.85,0.071432,540472,458502
1225.51,0.070366,549929,467671
1229.01,0.070295,556888,473667
1232.5,0.069889,562180,478615
1235.98,0.068601,567975,484985
1239.46,0.067687,574815,491859
1242.94,0.066742,582782,499763
1246.41,0.065961,591476,508132
1251.03,0.065831,604016,519060
1254.5,0.066016,612289,525945
1257.96,0.067120,619125,530467
1261.41,0.066877,624551,535416
1264.86,0.067927,629900,538697
1268.31,0.068495,634345,541789
1271.75,0.068933,638574,544852
1276.33,0.069220,642499,547838
1279.76,0.069491,645905,550399
1283.19,0.068830,648307,553287
1286.61,0.068588,650446,555422
1290.03,0.068120,652132,557462
1293.44,0.067478,653907,559806
1296.85,0.067574,655963,561442
1301.39,0.067146,657349,563184
1304.8,0.067369,657558,563073
1308.19,0.067488,658515,563739
1311.58,0.067521,658804,563943
1314.97,0.068467,659011,562893
1318.36,0.069264,658272,561231
1321.73,0.069043,658022,561303
1326.23,0.070130,657870,559770
1329.6,0.070904,656482,557595
1332.97,0.072207,654926,554607
1336.33,0.073329,653727,552163
1339.69,0.075443,652497,548448
1343.04,0.077165,649913,544115
1346.39,0.079052,647671,539887
1349.73,0.081219,645338,535264
1354.18,0.084415,641175,527912
1357.52,0.086930,638376,522572
1360.85,0.088910,635805,518100
1364.17,0.091136,633413,513513
1367.49,0.093480,631026,508824
1370.81,0.096539,628050,502869
1374.12,0.098920,625034,497718
1378.54,0.102253,620272,490150
1381.84,0.105810,616892,483503
1385.14,0.109505,613613,476858
1388.43,0.113963,611526,470383
1391.72,0.119023,610663,464279
1395.01,0.124502,610634,458436
1398.29,0.129686,611700,453787
1402.66,0.137483,614051,447426
1405.93,0.143237,616268,443132
1409.2,0.149174,617795,438198
1412.46,0.155000,618872,433113
1415.72,0.158958,619795,429823
1418.98,0.163717,620495,425619
1422.23,0.167004,621087,422813
1426.56,0.171113,621375,419026
1429.8,0.174928,621616,415522
1433.04,0.177065,622129,413824
1436.27,0.179533,621526,411080
1439.5,0.181865,621113,408607
1442.72,0.184735,620921,405790
1445.94,0.187042,620270,403217
1450.23,0.190883,618860,398758
1453.44,0.193439,617697,395673
1456.64,0.196326,616264,392140
1459.85,0.199070,614413,388499
1463.04,0.202346,612307,384258
1466.24,0.205618,610032,379957
1469.43,0.208957,607345,375386
1473.67,0.214315,603789,368613
1476.85,0.220146,601175,362122
1480.02,0.225842,597737,355360
1483.19,0.232041,594479,348414
1486.36,0.238368,591232,341499
1489.52,0.243149,587853,335830
1492.68,0.246909,583875,330682
1496.89,0.249313,578062,325583
1500.03,0.249660,574159,323126
1503.18,0.249596,570285,320993
1506.32,0.248972,565444,318726
1509.45,0.247832,560571,316810
1512.58,0.246139,555821,315352
1515.71,0.243171,550344,314386
1519.87,0.240791,543983,312460
1522.99,0.238037,538764,311431
1526.1,0.235232,533692,310498
1529.21,0.232069,527902,309374
1532.32,0.229045,521886,307986
1535.42,0.225167,515888,307177
1538.51,0.223232,509987,305019
1541.6,0.220079,503936,303596
1545.72,0.215839,494694,300952
1548.8,0.211898,488378,299818
1551.88,0.209271,481832,297594
1554.95,0.207193,474989,294775
1558.02,0.205410,467818,291519
1561.08,0.204464,460730,287728
1564.15,0.203681,454170,284143
1568.22,0.202459,444181,278677
1571.27,0.201744,436947,274590
1574.32,0.200399,429598,270809
1577.36,0.199444,422039,266630
1580.4,0.197431,414375,263004
1583.43,0.195940,406354,258800
1586.46,0.194248,398475,254773
1590.49,0.192092,388982,249941
1593.51,0.190464,380708,245543
1596.53,0.187525,372727,242028
1599.54,0.185554,365060,238128
1602.55,0.182506,357543,234867
1605.55,0.180053,349495,230881
1608.55,0.178013,341154,226432
1612.54,0.177455,330877,219893
1615.53,0.175088,322904,215767
1618.51,0.173670,315116,211252
1621.49,0.171632,307217,206925
1624.47,0.170333,299481,202319
1627.44,0.170288,292112,197361
1630.41,0.169427,284245,192427
1634.36,0.166476,274079,186810
1637.32,0.166611,266916,181871
1640.27,0.165440,259612,177372
1643.22,0.163624,251804,172758
1646.16,0.164744,244348,167211
1649.1,0.162712,236703,162739
1652.04,0.162106,228171,157092
1655.95,0.158667,215408,149484
1658.88,0.155768,204937,143170
1661.8,0.152067,193395,136263
1664.72,0.147179,179728,128067
1667.63,0.136531,163642,119499
1670.54,0.127415,146312,109110
1673.44,0.114887,128451,98594
1677.31,0.100500,105080,83372
1680.21,0.096677,88906,71163
1683.1,0.092608,75033,60624
1685.99,0.097971,63520,50692
1688.87,0.103152,53714,42358
1691.75,0.106133,45653,35755
1694.62,0.112020,39137,30239
1697.49,0.120470,33776,25594
1701.31,0.124800,28175,21138