File: samples/wool/wool-000811/Column 1_050627_20150331_123628.csv
Method:,Column 1,,
Host Date-Time:,31/3/15 @ 12:36:28,,
Header Version:,1,,
System Temp (C):,34.12,,
Detector Temp (C):,35.06,,
Humidity (%):,1.56,,
Lamp PD:,3818,,
Shift Vector Coefficients:,-10.5391,0.0761263,-0.000134223,,
Pixel to Wavelength Coefficients:,1775.68,-0.916766,-0.000235065,,
Serial Number:,5510004,,
Scan Config Name:,Column 1,,
Scan Config Type:,Slew,,
Section 1,,
Start wavelength (nm):,900,,
End wavelength (nm):,1700,,
Pattern Pixel Width (nm):,   7.03,,,,
Exposure (ms):,  0.635,,,,
Digital Resolution:,228,,
Num Repeats:,6,,
PGA Gain:,64,,
Total Measurement Time in sec:,  2.669,,
Wavelength (nm),Absorbance (AU),Reference Signal (unitless),Sample Signal (unitless)
901.51,0.067897,108485,92784
905.376,0.074648,121306,102149
909.237,0.075280,131909,110916
913.095,0.076932,143299,120036
916.948,0.080013,156982,130568
922.079,0.080459,179937,149507
925.923,0.081675,200504,166130
929.762,0.082298,222660,184223
933.597,0.082519,244426,202129
937.427,0.080826,263972,219145
941.254,0.079294,281845,234810
945.076,0.078739,297271,247978
950.165,0.077650,315605,263933
953.978,0.076505,328029,275047
957.786,0.077498,340470,284827
961.59,0.078043,352317,294368
965.389,0.077440,363056,303762
969.185,0.076975,373162,312552
972.976,0.077789,382632,319884
976.763,0.078200,391202,326739
981.806,0.078922,400190,333691
985.583,0.078882,406088,338640
989.355,0.079580,410162,341488
993.124,0.080049,412868,343370
996.888,0.080421,414263,344235
1000.65,0.081384,415476,344478
1004.4,0.082188,415479,343844
1009.41,0.083826,414358,341625
1013.15,0.083535,412923,340670
1016.89,0.084526,411526,338744
1020.63,0.084340,409066,336863
1024.36,0.084782,406777,334637
1028.09,0.083940,404427,333350
1031.82,0.083739,401911,331429
1036.78,0.083334,398410,328849
1040.49,0.083750,396204,326715
1044.2,0.083479,394236,325295
1047.91,0.083278,392042,323634
1051.61,0.082021,389823,322735
1055.31,0.082424,388234,321122
1059,0.081645,387599,321172
1063.92,0.081445,386688,320565
1067.61,0.080738,386598,321012
1071.29,0.079390,387377,322659
1074.96,0.079542,388536,323511
1078.63,0.079024,389855,324997
1082.3,0.077999,391215,326901
1085.96,0.077384,393215,329038
1090.84,0.076298,396270,332425
1094.49,0.075171,398760,335383
1098.14,0.075195,400987,337237
1101.79,0.074460,403477,339906
1105.43,0.074222,406116,342317
1109.06,0.072809,407701,344773
1112.7,0.072910,409859,346517
1117.53,0.073507,412494,348266
1121.15,0.073489,414909,350319
1124.77,0.073455,416559,351740
1128.38,0.074928,418532,352209
1131.99,0.075301,419956,353104
1135.6,0.077010,421946,353384
1139.2,0.078555,423881,353744
1143.99,0.080498,426786,354578
1147.58,0.080561,428617,356048
1151.17,0.082047,431169,356944
1154.75,0.082388,433579,358658
1158.33,0.083612,436264,359863
1161.91,0.085483,439132,360672
1165.48,0.087724,442389,361477
1169.04,0.089638,446101,362907
1173.79,0.093485,451929,364406
1177.34,0.095744,456026,365802
1180.9,0.097861,461306,368238
1184.44,0.099298,467657,372074
1187.99,0.100342,473969,376191
1191.52,0.099955,479856,381203
1195.06,0.100796,487372,386424
1199.76,0.099834,497347,395208
1203.29,0.099152,504311,401371
1206.81,0.098655,511507,407565
1210.33,0.097875,519078,414341
1213.84,0.097234,527163,421416
1217.35,0.096645,534208,427627
1220.85,0.095869,540472,433415
1225.51,0.095051,549929,441830
1229.01,0.094977,556888,447498
1232.5,0.094453,562180,452296
1235.98,0.093724,567975,457726
1239.46,0.092276,574815,464785
1242.94,0.091789,582782,471756
1246.41,0.091014,591476,479649
1251.03,0.090916,604016,489928
1254.5,0.091299,612289,496201
1257.96,0.091671,619125,501311
1261.41,0.091792,624551,505564
1264.86,0.092265,629900,509339
1268.31,0.093212,634345,511816
1271.75,0.093251,638574,515182
1276.33,0.093917,642499,517554
1279.76,0.093851,645905,520376
1283.19,0.093205,648307,523089
1286.61,0.092302,650446,525907
1290.03,0.092674,652132,526819
1293.44,0.092137,653907,528907
1296.85,0.092047,655963,530679
1301.39,0.091509,657349,532460
1304.8,0.091591,657558,532529
1308.19,0.091926,658515,532892
1311.58,0.091565,658804,533570
1314.97,0.091810,659011,533436
1318.36,0.092162,658272,532406
1321.73,0.092956,658022,531232
1326.23,0.093340,657870,530640
1329.6,0.094170,656482,528509
1332.97,0.094866,654926,526412
1336.33,0.096045,653727,524024
1339.69,0.097273,652497,521561
1343.04,0.098425,649913,518120
1346.39,0.100647,647671,513697
1349.73,0.102412,645338,509771
1354.18,0.105333,641175,503087
1357.52,0.107191,638376,498753
1360.85,0.109228,635805,494420
1364.17,0.111407,633413,490095
1367.49,0.113847,631026,485512
1370.81,0.115716,628050,481147
1374.12,0.117989,625034,476337
1378.54,0.120226,620272,470280
1381.84,0.122940,616892,464803
1385.14,0.126693,613613,458355
1388.43,0.129590,611526,453759
1391.72,0.133131,610663,449439
1395.01,0.137647,610634,444768
1398.29,0.141280,611700,441833
1402.66,0.146983,614051,437745
1405.93,0.151942,616268,434338
1409.2,0.155779,617795,431584
1412.46,0.160670,618872,427495
1415.72,0.163839,619795,425020
1418.98,0.167385,620495,422040
1422.23,0.170150,621087,419761
1426.56,0.174563,621375,415710
1429.8,0.176895,621616,413644
1433.04,0.179637,622129,411380
1436.27,0.181671,621526,409061
1439.5,0.183877,621113,406718
1442.72,0.186019,620921,404592
1445.94,0.188403,620270,401955
1450.23,0.192237,618860,397517
1453.44,0.194959,617697,394291
1456.64,0.197649,616264,390947
1459.85,0.201317,614413,386495
1463.04,0.203767,612307,383003
1466.24,0.206813,610032,378913
1469.43,0.211170,607345,373478
1473.67,0.218104,603789,365411
1476.85,0.223108,601175,359661
1480.02,0.229880,597737,352071
1483.19,0.236836,594479,344588
1486.36,0.242537,591232,338237
1489.52,0.247456,587853,332516
1492.68,0.250839,583875,327703
1496.89,0.253196,578062,322685
1500.03,0.253884,574159,319999
1503.18,0.253665,570285,318000
1506.32,0.252534,565444,316123
1509.45,0.251020,560571,314493
1512.58,0.250088,555821,312498
1515.71,0.247657,550344,311155
1519.87,0.244622,543983,309716
1522.99,0.242211,538764,308452
1526.1,0.239465,533692,307486
1529.21,0.237092,527902,305817
1532.32,0.233733,521886,304679
1535.42,0.231349,515888,302835
1538.51,0.227588,509987,301975
1541.6,0.224688,503936,300391
1545.72,0.220993,494694,297402
1548.8,0.218046,488378,295604
1551.88,0.216027,481832,293001
1554.95,0.213328,474989,290640
1558.02,0.212740,467818,286640
1561.08,0.211254,460730,283265
1564.15,0.211228,454170,279248
1568.22,0.209733,444181,274048
1571.27,0.209083,436947,269989
1574.32,0.208413,429598,265858
1577.36,0.207232,422039,261891
1580.4,0.206714,414375,257442
1583.43,0.203589,406354,254282
1586.46,0.203174,398475,249590
1590.49,0.200903,388982,244921
1593.51,0.199529,380708,240471
1596.53,0.196798,372727,236915
1599.54,0.195624,365060,232670
1602.55,0.193099,357543,229208
1605.55,0.191365,349495,224945
1608.55,0.190960,341154,219781
1612.54,0.188316,330877,214462
1615.53,0.185638,322904,210589
1618.51,0.184696,315116,205956
1621.49,0.183923,307217,201151
1624.47,0.183064,299481,196474
1627.44,0.182221,292112,192012
1630.41,0.180215,284245,187706
1634.36,0.179234,274079,181402
1637.32,0.179145,266916,176697
1640.27,0.178870,259612,171971
1643.22,0.176988,251804,167523
1646.16,0.177693,244348,162299
1649.1,0.175154,236703,158143
1652.04,0.173796,228171,152920
1655.95,0.170769,215408,145376
1658.88,0.167230,204937,139441
1661.8,0.162940,193395,132894
1664.72,0.155799,179728,125550
1667.63,0.140800,163642,118330
1670.54,0.126994,146312,109216
1673.44,0.111390,128451,99391
1677.31,0.091703,105080,85078
1680.21,0.079171,88906,74090
1683.1,0.070330,75033,63815
1685.99,0.072136,63520,53799
1688.87,0.073032,53714,45400
1691.75,0.081495,45653,37842
1694.62,0.085920,39137,32112
1697.49,0.089039,33776,27515
1701.31,0.093647,28175,22710