File: samples/wool/wool-000811/Column 1_050576_20150331_121214.csv
Method:,Column 1,,
Host Date-Time:,31/3/15 @ 12:12:14,,
Header Version:,1,,
System Temp (C):,33.84,,
Detector Temp (C):,34.57,,
Humidity (%):,2.74,,
Lamp PD:,3819,,
Shift Vector Coefficients:,-10.5391,0.0761263,-0.000134223,,
Pixel to Wavelength Coefficients:,1775.68,-0.916766,-0.000235065,,
Serial Number:,5510004,,
Scan Config Name:,Column 1,,
Scan Config Type:,Slew,,
Section 1,,
Start wavelength (nm):,900,,
End wavelength (nm):,1700,,
Pattern Pixel Width (nm):,   7.03,,,,
Exposure (ms):,  0.635,,,,
Digital Resolution:,228,,
Num Repeats:,6,,
PGA Gain:,64,,
Total Measurement Time in sec:,  2.678,,
Wavelength (nm),Absorbance (AU),Reference Signal (unitless),Sample Signal (unitless)
901.51,0.072234,108485,91862
905.376,0.079118,121306,101103
909.237,0.081400,131909,109364
913.095,0.082023,143299,118637
916.948,0.083134,156982,129633
922.079,0.082690,179937,148741
925.923,0.085290,200504,164753
929.762,0.085704,222660,182784
933.597,0.085695,244426,200656
937.427,0.084143,263972,217478
941.254,0.083791,281845,232391
945.076,0.083473,297271,245290
950.165,0.081501,315605,261603
953.978,0.081608,328029,271834
957.786,0.081250,340470,282377
961.59,0.081445,352317,292071
965.389,0.082053,363056,300553
969.185,0.081614,373162,309231
972.976,0.081533,382632,317138
976.763,0.082418,391202,323581
981.806,0.083272,400190,330365
985.583,0.083626,406088,334961
989.355,0.084032,410162,338005
993.124,0.084222,412868,340086
996.888,0.084835,414263,340754
1000.65,0.085811,415476,340985
1004.4,0.086868,415479,340158
1009.41,0.088836,414358,337707
1013.15,0.088493,412923,336803
1016.89,0.088747,411526,335467
1020.63,0.088754,409066,333457
1024.36,0.088712,406777,331623
1028.09,0.088990,404427,329496
1031.82,0.088896,401911,327517
1036.78,0.088148,398410,325224
1040.49,0.088296,396204,323313
1044.2,0.087869,394236,322023
1047.91,0.087926,392042,320189
1051.61,0.087533,389823,318665
1055.31,0.086709,388234,317969
1059,0.086725,387599,317437
1063.92,0.085542,386688,317555
1067.61,0.085620,386598,317424
1071.29,0.084430,387377,318936
1074.96,0.084903,388536,319542
1078.63,0.083599,389855,321591
1082.3,0.082731,391215,323359
1085.96,0.082317,393215,325322
1090.84,0.081377,396270,328560
1094.49,0.081346,398760,330648
1098.14,0.080279,400987,333312
1101.79,0.079688,403477,335839
1105.43,0.079636,406116,338076
1109.06,0.079017,407701,339879
1112.7,0.079264,409859,341484
1117.53,0.078351,412494,344403
1121.15,0.079084,414909,345835
1124.77,0.079178,416559,347135
1128.38,0.080398,418532,347801
1131.99,0.080804,419956,348658
1135.6,0.083099,421946,348464
1139.2,0.084531,423881,348910
1143.99,0.086048,426786,350076
1147.58,0.086866,428617,350916
1151.17,0.087787,431169,352258
1154.75,0.088534,433579,353618
1158.33,0.090626,436264,354098
1161.91,0.092478,439132,354909
1165.48,0.094847,442389,355596
1169.04,0.096806,446101,356966
1173.79,0.100349,451929,358692
1177.34,0.102041,456026,360536
1180.9,0.104363,461306,362766
1184.44,0.106005,467657,366372
1187.99,0.107195,473969,370301
1191.52,0.106894,479856,375160
1195.06,0.107141,487372,380820
1199.76,0.106082,497347,389563
1203.29,0.105839,504311,395239
1206.81,0.104659,511507,401969
1210.33,0.104141,519078,408406
1213.84,0.103623,527163,415262
1217.35,0.103269,534208,421154
1220.85,0.102546,540472,426803
1225.51,0.102338,549929,434479
1229.01,0.101501,556888,440826
1232.5,0.100731,562180,445804
1235.98,0.100333,567975,450813
1239.46,0.099247,574815,457384
1242.94,0.098518,582782,464503
1246.41,0.097465,591476,472576
1251.03,0.097617,604016,482427
1254.5,0.097515,612289,489149
1257.96,0.097963,619125,494100
1261.41,0.098611,624551,497688
1264.86,0.098864,629900,501658
1268.31,0.099561,634345,504388
1271.75,0.100479,638574,506678
1276.33,0.100559,642499,509699
1279.76,0.100689,645905,512247
1283.19,0.100280,648307,514637
1286.61,0.099736,650446,516982
1290.03,0.099259,652132,518892
1293.44,0.098893,653907,520743
1296.85,0.098505,655963,522847
1301.39,0.098261,657349,524246
1304.8,0.098394,657558,524252
1308.19,0.098706,658515,524638
1311.58,0.099066,658804,524433
1314.97,0.099672,659011,523866
1318.36,0.099817,658272,523104
1321.73,0.100253,658022,522381
1326.23,0.101573,657870,520675
1329.6,0.102367,656482,518628
1332.97,0.103494,654926,516058
1336.33,0.104896,653727,513453
1339.69,0.106570,652497,510515
1343.04,0.108032,649913,506784
1346.39,0.110198,647671,502524
1349.73,0.112312,645338,498282
1354.18,0.115335,641175,491634
1357.52,0.117034,638376,487576
1360.85,0.119178,635805,483221
1364.17,0.121246,633413,479116
1367.49,0.123380,631026,474971
1370.81,0.125826,628050,470076
1374.12,0.127948,625034,465539
1378.54,0.130927,620272,458834
1381.84,0.134775,616892,452308
1385.14,0.138357,613613,446208
1388.43,0.143461,611526,439495
1391.72,0.148352,610663,433960
1395.01,0.153202,610634,429120
1398.29,0.158686,611700,424475
1402.66,0.166939,614051,418086
1405.93,0.172949,616268,413829
1409.2,0.179133,617795,408989
1412.46,0.184610,618872,404567
1415.72,0.189376,619795,400749
1418.98,0.193762,620495,397170
1422.23,0.198008,621087,393681
1426.56,0.202450,621375,389856
1429.8,0.205682,621616,387115
1433.04,0.208489,622129,384939
1436.27,0.210041,621526,383194
1439.5,0.212617,621113,380674
1442.72,0.214687,620921,378747
1445.94,0.217186,620270,376179
1450.23,0.220607,618860,372379
1453.44,0.223588,617697,369137
1456.64,0.225388,616264,366757
1459.85,0.228196,614413,363299
1463.04,0.230851,612307,359847
1466.24,0.233525,610032,356310
1469.43,0.235956,607345,352760
1473.67,0.241063,603789,346595
1476.85,0.244972,601175,342002
1480.02,0.249910,597737,336202
1483.19,0.254861,594479,330579
1486.36,0.259710,591232,325123
1489.52,0.263645,587853,320349
1492.68,0.266436,583875,316143
1496.89,0.267992,578062,311876
1500.03,0.268957,574159,309083
1503.18,0.269044,570285,306936
1506.32,0.267808,565444,305198
1509.45,0.266385,560571,303561
1512.58,0.264694,555821,302163
1515.71,0.262975,550344,300372
1519.87,0.260020,543983,298927
1522.99,0.257691,538764,297651
1526.1,0.255212,533692,296537
1529.21,0.252873,527902,294904
1532.32,0.249871,521886,293565
1535.42,0.247244,515888,291952
1538.51,0.244356,509987,290538
1541.6,0.241353,503936,289083
1545.72,0.237392,494694,286381
1548.8,0.234347,488378,284714
1551.88,0.232603,481832,282028
1554.95,0.230264,474989,279524
1558.02,0.229250,467818,275948
1561.08,0.227200,460730,273053
1564.15,0.226222,454170,269772
1568.22,0.225441,444181,264313
1571.27,0.224076,436947,260827
1574.32,0.223373,429598,256856
1577.36,0.222515,422039,252835
1580.4,0.220626,414375,249326
1583.43,0.218740,406354,245564
1586.46,0.217669,398475,241397
1590.49,0.215647,388982,236746
1593.51,0.213628,380708,232790
1596.53,0.211089,372727,229246
1599.54,0.210773,365060,224694
1602.55,0.208321,357543,221313
1605.55,0.205527,349495,217728
1608.55,0.203422,341154,213564
1612.54,0.201758,330877,207926
1615.53,0.199905,322904,203783
1618.51,0.198419,315116,199550
1621.49,0.198017,307217,194728
1624.47,0.196698,299481,190402
1627.44,0.194575,292112,186627
1630.41,0.194140,284245,181783
1634.36,0.192590,274079,175908
1637.32,0.192455,266916,171364
1640.27,0.191242,259612,167141
1643.22,0.189224,251804,162869
1646.16,0.188849,244348,158183
1649.1,0.188361,236703,153406
1652.04,0.186718,228171,148437
1655.95,0.184625,215408,140811
1658.88,0.180727,204937,135174
1661.8,0.174931,193395,129275
1664.72,0.166675,179728,122445
1667.63,0.155776,163642,114319
1670.54,0.141748,146312,105568
1673.44,0.125084,128451,96306
1677.31,0.107489,105080,82041
1680.21,0.095708,88906,71322
1683.1,0.091242,75033,60815
1685.99,0.090000,63520,51631
1688.87,0.094342,53714,43226
1691.75,0.100749,45653,36201
1694.62,0.110071,39137,30375
1697.49,0.116467,33776,25831
1701.31,0.121505,28175,21299