File: samples/wool/wool-000811/Column 1_050551_20150331_120019.csv
Method:,Column 1,,
Host Date-Time:,31/3/15 @ 12:0:19,,
Header Version:,1,,
System Temp (C):,33.28,,
Detector Temp (C):,32.45,,
Humidity (%):,3.82,,
Lamp PD:,3820,,
Shift Vector Coefficients:,-10.5391,0.0761263,-0.000134223,,
Pixel to Wavelength Coefficients:,1775.68,-0.916766,-0.000235065,,
Serial Number:,5510004,,
Scan Config Name:,Column 1,,
Scan Config Type:,Slew,,
Section 1,,
Start wavelength (nm):,900,,
End wavelength (nm):,1700,,
Pattern Pixel Width (nm):,   7.03,,,,
Exposure (ms):,  0.635,,,,
Digital Resolution:,228,,
Num Repeats:,6,,
PGA Gain:,64,,
Total Measurement Time in sec:,  2.681,,
Wavelength (nm),Absorbance (AU),Reference Signal (unitless),Sample Signal (unitless)
901.51,0.033195,108485,100502
905.376,0.039637,121306,110725
909.237,0.042184,131909,119699
913.095,0.042554,143299,129924
916.948,0.042694,156982,142284
922.079,0.043487,179937,162792
925.923,0.044752,200504,180872
929.762,0.044824,222660,200825
933.597,0.045681,244426,220022
937.427,0.045510,263972,237710
941.254,0.045645,281845,253726
945.076,0.045045,297271,267983
950.165,0.044488,315605,284876
953.978,0.044751,328029,295911
957.786,0.045113,340470,306878
961.59,0.046120,352317,316821
965.389,0.045333,363056,327070
969.185,0.045706,373162,335886
972.976,0.046467,382632,343807
976.763,0.047510,391202,350664
981.806,0.048070,400190,358258
985.583,0.048337,406088,363315
989.355,0.049298,410162,366149
993.124,0.049935,412868,368024
996.888,0.049699,414263,369468
1000.65,0.050860,415476,369561
1004.4,0.051876,415479,368700
1009.41,0.053157,414358,366622
1013.15,0.053793,412923,364818
1016.89,0.054950,411526,362616
1020.63,0.054816,409066,360560
1024.36,0.054309,406777,358961
1028.09,0.054205,404427,356973
1031.82,0.053943,401911,354966
1036.78,0.053638,398410,352121
1040.49,0.053161,396204,350556
1044.2,0.053235,394236,348756
1047.91,0.052598,392042,347324
1051.61,0.051973,389823,345855
1055.31,0.051738,388234,344632
1059,0.051138,387599,344544
1063.92,0.049921,386688,344699
1067.61,0.049205,386598,345187
1071.29,0.048689,387377,346294
1074.96,0.048270,388536,347665
1078.63,0.047361,389855,349576
1082.3,0.046514,391215,351481
1085.96,0.046211,393215,353524
1090.84,0.045302,396270,357017
1094.49,0.044889,398760,359602
1098.14,0.044617,400987,361837
1101.79,0.044540,403477,364149
1105.43,0.044427,406116,366626
1109.06,0.044503,407701,367992
1112.7,0.043866,409859,370483
1117.53,0.044325,412494,372471
1121.15,0.045101,414909,373983
1124.77,0.045411,416559,375202
1128.38,0.045903,418532,376553
1131.99,0.048070,419956,375953
1135.6,0.049664,421946,376351
1139.2,0.051743,423881,376271
1143.99,0.054499,426786,376453
1147.58,0.055055,428617,377585
1151.17,0.056951,431169,378178
1154.75,0.058384,433579,379039
1158.33,0.059943,436264,380020
1161.91,0.061750,439132,380930
1165.48,0.064179,442389,381615
1169.04,0.066803,446101,382499
1173.79,0.070784,451929,383960
1177.34,0.072909,456026,385550
1180.9,0.075341,461306,387836
1184.44,0.077247,467657,391454
1187.99,0.077949,473969,396096
1191.52,0.078071,479856,400904
1195.06,0.077583,487372,407641
1199.76,0.076563,497347,416962
1203.29,0.075302,504311,424030
1206.81,0.075197,511507,430184
1210.33,0.073537,519078,438223
1213.84,0.073674,527163,444909
1217.35,0.072643,534208,451926
1220.85,0.071641,540472,458281
1225.51,0.070673,549929,467341
1229.01,0.070321,556888,473638
1232.5,0.069750,562180,478768
1235.98,0.068957,567975,484588
1239.46,0.067696,574815,491849
1242.94,0.066939,582782,499536
1246.41,0.066229,591476,507818
1251.03,0.065823,604016,519070
1254.5,0.066198,612289,525725
1257.96,0.066398,619125,531349
1261.41,0.067248,624551,534958
1264.86,0.068102,629900,538480
1268.31,0.068472,634345,541818
1271.75,0.069457,638574,544195
1276.33,0.069803,642499,547104
1279.76,0.069710,645905,550122
1283.19,0.069048,648307,553010
1286.61,0.068943,650446,554968
1290.03,0.068345,652132,557173
1293.44,0.068026,653907,559101
1296.85,0.067824,655963,561120
1301.39,0.067870,657349,562246
1304.8,0.067629,657558,562736
1308.19,0.068156,658515,562872
1311.58,0.068037,658804,563274
1314.97,0.068884,659011,562352
1318.36,0.069659,658272,560720
1321.73,0.069984,658022,560088
1326.23,0.071013,657870,558634
1329.6,0.072111,656482,556047
1332.97,0.073148,654926,553407
1336.33,0.074266,653727,550973
1339.69,0.076572,652497,547024
1343.04,0.077827,649913,543286
1346.39,0.080366,647671,538255
1349.73,0.082806,645338,533312
1354.18,0.085780,641175,526255
1357.52,0.087647,638376,521710
1360.85,0.090019,635805,516779
1364.17,0.092514,633413,511886
1367.49,0.095187,631026,506828
1370.81,0.097291,628050,501999
1374.12,0.099869,625034,496632
1378.54,0.103599,620272,488633
1381.84,0.107709,616892,481393
1385.14,0.111976,613613,474153
1388.43,0.116072,611526,468105
1391.72,0.122032,610663,461073
1395.01,0.127157,610634,455642
1398.29,0.132871,611700,450472
1402.66,0.141542,614051,443264
1405.93,0.147762,616268,438538
1409.2,0.153888,617795,433467
1412.46,0.159967,618872,428187
1415.72,0.164953,619795,423931
1418.98,0.169681,620495,419814
1422.23,0.173495,621087,416541
1426.56,0.178548,621375,411913
1429.8,0.181835,621616,408966
1433.04,0.185009,622129,406323
1436.27,0.187197,621526,403889
1439.5,0.189760,621113,401246
1442.72,0.192608,620921,398500
1445.94,0.194545,620270,396311
1450.23,0.198735,618860,391613
1453.44,0.201680,617697,388236
1456.64,0.204460,616264,384864
1459.85,0.206890,614413,381567
1463.04,0.209507,612307,377974
1466.24,0.212983,610032,373568
1469.43,0.215652,607345,369644
1473.67,0.221125,603789,362878
1476.85,0.225415,601175,357755
1480.02,0.230724,597737,351387
1483.19,0.237000,594479,344458
1486.36,0.242640,591232,338157
1489.52,0.246489,587853,333257
1492.68,0.249951,583875,328374
1496.89,0.252081,578062,323514
1500.03,0.253391,574159,320362
1503.18,0.253752,570285,317936
1506.32,0.252212,565444,316357
1509.45,0.251054,560571,314468
1512.58,0.249577,555821,312866
1515.71,0.247037,550344,311600
1519.87,0.244084,543983,310100
1522.99,0.241163,538764,309197
1526.1,0.238605,533692,308096
1529.21,0.235405,527902,307007
1532.32,0.232685,521886,305415
1535.42,0.230134,515888,303684
1538.51,0.226614,509987,302653
1541.6,0.224609,503936,300446
1545.72,0.218763,494694,298933
1548.8,0.215805,488378,297133
1551.88,0.212437,481832,295433
1554.95,0.211131,474989,292114
1558.02,0.209717,467818,288642
1561.08,0.207574,460730,285675
1564.15,0.207609,454170,281585
1568.22,0.205326,444181,276843
1571.27,0.205761,436947,272062
1574.32,0.204013,429598,268565
1577.36,0.202718,422039,264627
1580.4,0.201968,414375,260271
1583.43,0.199274,406354,256821
1586.46,0.198585,398475,252241
1590.49,0.195168,388982,248177
1593.51,0.193119,380708,244047
1596.53,0.190668,372727,240283
1599.54,0.189127,365060,236177
1602.55,0.186948,357543,232477
1605.55,0.184636,349495,228457
1608.55,0.181833,341154,224449
1612.54,0.179260,330877,218981
1615.53,0.177306,322904,214668
1618.51,0.175974,315116,210134
1621.49,0.174663,307217,205486
1624.47,0.172964,299481,201097
1627.44,0.172642,292112,196294
1630.41,0.171883,284245,191342
1634.36,0.169235,274079,185627
1637.32,0.168137,266916,181233
1640.27,0.168316,259612,176201
1643.22,0.166535,251804,171604
1646.16,0.165966,244348,166741
1649.1,0.166085,236703,161480
1652.04,0.164755,228171,156137
1655.95,0.161503,215408,148511
1658.88,0.158870,204937,142151
1661.8,0.156305,193395,134940
1664.72,0.148313,179728,127733
1667.63,0.142657,163642,117825
1670.54,0.132114,146312,107936
1673.44,0.123491,128451,96660
1677.31,0.109697,105080,81625
1680.21,0.107303,88906,69443
1683.1,0.107814,75033,58538
1685.99,0.107954,63520,49540
1688.87,0.116489,53714,41077
1691.75,0.118515,45653,34750
1694.62,0.122972,39137,29486
1697.49,0.127484,33776,25184
1701.31,0.127851,28175,20990