File: samples/wool/wool-000811/Column 1_050564_20150331_120644.csv
Method:,Column 1,,
Host Date-Time:,31/3/15 @ 12:6:44,,
Header Version:,1,,
System Temp (C):,33.87,,
Detector Temp (C):,33.69,,
Humidity (%):,1.95,,
Lamp PD:,3818,,
Shift Vector Coefficients:,-10.5391,0.0761263,-0.000134223,,
Pixel to Wavelength Coefficients:,1775.68,-0.916766,-0.000235065,,
Serial Number:,5510004,,
Scan Config Name:,Column 1,,
Scan Config Type:,Slew,,
Section 1,,
Start wavelength (nm):,900,,
End wavelength (nm):,1700,,
Pattern Pixel Width (nm):,   7.03,,,,
Exposure (ms):,  0.635,,,,
Digital Resolution:,228,,
Num Repeats:,6,,
PGA Gain:,64,,
Total Measurement Time in sec:,  2.727,,
Wavelength (nm),Absorbance (AU),Reference Signal (unitless),Sample Signal (unitless)
901.51,0.034337,108485,100238
905.376,0.039319,121306,110806
909.237,0.043306,131909,119390
913.095,0.042751,143299,129865
916.948,0.044070,156982,141834
922.079,0.046459,179937,161682
925.923,0.047744,200504,179630
929.762,0.048253,222660,199246
933.597,0.047866,244426,218918
937.427,0.047596,263972,236571
941.254,0.047543,281845,252620
945.076,0.046783,297271,266913
950.165,0.046289,315605,283697
953.978,0.045265,328029,295561
957.786,0.046295,340470,306044
961.59,0.046561,352317,316499
965.389,0.046707,363056,326037
969.185,0.046031,373162,335634
972.976,0.047343,382632,343114
976.763,0.047449,391202,350713
981.806,0.048109,400190,358226
985.583,0.049022,406088,362742
989.355,0.049686,410162,365822
993.124,0.049881,412868,368070
996.888,0.050579,414263,368720
1000.65,0.050979,415476,369460
1004.4,0.051978,415479,368613
1009.41,0.053513,414358,366322
1013.15,0.053555,412923,365018
1016.89,0.054855,411526,362696
1020.63,0.054910,409066,360482
1024.36,0.054835,406777,358527
1028.09,0.054606,404427,356643
1031.82,0.054256,401911,354710
1036.78,0.054106,398410,351742
1040.49,0.052787,396204,350858
1044.2,0.052862,394236,349055
1047.91,0.052362,392042,347513
1051.61,0.051652,389823,346111
1055.31,0.051394,388234,344905
1059,0.051828,387599,343997
1063.92,0.049836,386688,344766
1067.61,0.049774,386598,344735
1071.29,0.048584,387377,346378
1074.96,0.048394,388536,347566
1078.63,0.047624,389855,349365
1082.3,0.046748,391215,351291
1085.96,0.046200,393215,353533
1090.84,0.045312,396270,357009
1094.49,0.044800,398760,359676
1098.14,0.044841,400987,361651
1101.79,0.044355,403477,364304
1105.43,0.044752,406116,366352
1109.06,0.044069,407701,368360
1112.7,0.043779,409859,370557
1117.53,0.043972,412494,372774
1121.15,0.045106,414909,373979
1124.77,0.045170,416559,375411
1128.38,0.046730,418532,375836
1131.99,0.047719,419956,376257
1135.6,0.049559,421946,376442
1139.2,0.051951,423881,376091
1143.99,0.053633,426786,377205
1147.58,0.054834,428617,377777
1151.17,0.056341,431169,378710
1154.75,0.057047,433579,380208
1158.33,0.059123,436264,380738
1161.91,0.061206,439132,381407
1165.48,0.064173,442389,381620
1169.04,0.066120,446101,383101
1173.79,0.070039,451929,384619
1177.34,0.072880,456026,385576
1180.9,0.074491,461306,388596
1184.44,0.076096,467657,392493
1187.99,0.077021,473969,396944
1191.52,0.077539,479856,401395
1195.06,0.076636,487372,408531
1199.76,0.075760,497347,417734
1203.29,0.074779,504311,424541
1206.81,0.074794,511507,430584
1210.33,0.073352,519078,438410
1213.84,0.072569,527163,446042
1217.35,0.071976,534208,452621
1220.85,0.071351,540472,458588
1225.51,0.070064,549929,467997
1229.01,0.069874,556888,474126
1232.5,0.068992,562180,479605
1235.98,0.068433,567975,485173
1239.46,0.067115,574815,492508
1242.94,0.066245,582782,500335
1246.41,0.065832,591476,508282
1251.03,0.065434,604016,519534
1254.5,0.065495,612289,526577
1257.96,0.066139,619125,531667
1261.41,0.066527,624551,535847
1264.86,0.067294,629900,539483
1268.31,0.068043,634345,542353
1271.75,0.068918,638574,544870
1276.33,0.069108,642499,547980
1279.76,0.068688,645905,551418
1283.19,0.068527,648307,553674
1286.61,0.068004,650446,556169
1290.03,0.067971,652132,557654
1293.44,0.066982,653907,560446
1296.85,0.067164,655963,561973
1301.39,0.066605,657349,563886
1304.8,0.066362,657558,564380
1308.19,0.066960,658515,564424
1311.58,0.067269,658804,564270
1314.97,0.067583,659011,564040
1318.36,0.068250,658272,562543
1321.73,0.068722,658022,561718
1326.23,0.069695,657870,560331
1329.6,0.070347,656482,558311
1332.97,0.071400,654926,555639
1336.33,0.072569,653727,553130
1339.69,0.074345,652497,549836
1343.04,0.076076,649913,545480
1346.39,0.078516,647671,540553
1349.73,0.080712,645338,535889
1354.18,0.083674,641175,528814
1357.52,0.085916,638376,523794
1360.85,0.088197,635805,518952
1364.17,0.090324,633413,514474
1367.49,0.092853,631026,509559
1370.81,0.095315,628050,504289
1374.12,0.097946,625034,498836
1378.54,0.100944,620272,491630
1381.84,0.104592,616892,484861
1385.14,0.108266,613613,478221
1388.43,0.112744,611526,471706
1391.72,0.117721,610663,465672
1395.01,0.122823,610634,460212
1398.29,0.127710,611700,455857
1402.66,0.135139,614051,449848
1405.93,0.141001,616268,445419
1409.2,0.146586,617795,440817
1412.46,0.151534,618872,436583
1415.72,0.156543,619795,432220
1418.98,0.160466,620495,428817
1422.23,0.164224,621087,425528
1426.56,0.168094,621375,421949
1429.8,0.171432,621616,418881
1433.04,0.173981,622129,416773
1436.27,0.176193,621526,414254
1439.5,0.178428,621113,411853
1442.72,0.181330,620921,408984
1445.94,0.184209,620270,405856
1450.23,0.186737,618860,402583
1453.44,0.189839,617697,398967
1456.64,0.192844,616264,395296
1459.85,0.196078,614413,391185
1463.04,0.199082,612307,387157
1466.24,0.202634,610032,382577
1469.43,0.205883,607345,378053
1473.67,0.211734,603789,370810
1476.85,0.217852,601175,364040
1480.02,0.223413,597737,357353
1483.19,0.229942,594479,350102
1486.36,0.236382,591232,343065
1489.52,0.241522,587853,337091
1492.68,0.244681,583875,332383
1496.89,0.247267,578062,327120
1500.03,0.247733,574159,324563
1503.18,0.247772,570285,322344
1506.32,0.247269,565444,319978
1509.45,0.246497,560571,317785
1512.58,0.244351,555821,316653
1515.71,0.241974,550344,315254
1519.87,0.238786,543983,313906
1522.99,0.236437,538764,312580
1526.1,0.233261,533692,311910
1529.21,0.230524,527902,310477
1532.32,0.227381,521886,309168
1535.42,0.224534,515888,307625
1538.51,0.221263,509987,306405
1541.6,0.217919,503936,305110
1545.72,0.213463,494694,302603
1548.8,0.210293,488378,300928
1551.88,0.208649,481832,298021
1554.95,0.205951,474989,295619
1558.02,0.203329,467818,292919
1561.08,0.202565,460730,288989
1564.15,0.202503,454170,284915
1568.22,0.201278,444181,279436
1571.27,0.200307,436947,275500
1574.32,0.198610,429598,271927
1577.36,0.197779,422039,267654
1580.4,0.196030,414375,263854
1583.43,0.194416,406354,259710
1586.46,0.193131,398475,255429
1590.49,0.190251,388982,251003
1593.51,0.188039,380708,246918
1596.53,0.185738,372727,243026
1599.54,0.183369,365060,239329
1602.55,0.180764,357543,235811
1605.55,0.179746,349495,231044
1608.55,0.177336,341154,226785
1612.54,0.173936,330877,221682
1615.53,0.172750,322904,216932
1618.51,0.172458,315116,211842
1621.49,0.170662,307217,207388
1624.47,0.168629,299481,203114
1627.44,0.167896,292112,198451
1630.41,0.166431,284245,193759
1634.36,0.164969,274079,187459
1637.32,0.163667,266916,183108
1640.27,0.163242,259612,178272
1643.22,0.162638,251804,173151
1646.16,0.161646,244348,168408
1649.1,0.161348,236703,163251
1652.04,0.160231,228171,157772
1655.95,0.156520,215408,150225
1658.88,0.153397,204937,143954
1661.8,0.150035,193395,136902
1664.72,0.144060,179728,128990
1667.63,0.134247,163642,120129
1670.54,0.120877,146312,110765
1673.44,0.108616,128451,100028
1677.31,0.095620,105080,84314
1680.21,0.085745,88906,72977
1683.1,0.083821,75033,61863
1685.99,0.084500,63520,52289
1688.87,0.091219,53714,43538
1691.75,0.094153,45653,36755
1694.62,0.104121,39137,30794
1697.49,0.103286,33776,26627
1701.31,0.111089,28175,21816