File: samples/wool/wool-000811/Column 1_050558_20150331_120353.csv
Method:,Column 1,,
Host Date-Time:,31/3/15 @ 12:3:53,,
Header Version:,1,,
System Temp (C):,33.61,,
Detector Temp (C):,33.01,,
Humidity (%):,2.25,,
Lamp PD:,3819,,
Shift Vector Coefficients:,-10.5391,0.0761263,-0.000134223,,
Pixel to Wavelength Coefficients:,1775.68,-0.916766,-0.000235065,,
Serial Number:,5510004,,
Scan Config Name:,Column 1,,
Scan Config Type:,Slew,,
Section 1,,
Start wavelength (nm):,900,,
End wavelength (nm):,1700,,
Pattern Pixel Width (nm):,   7.03,,,,
Exposure (ms):,  0.635,,,,
Digital Resolution:,228,,
Num Repeats:,6,,
PGA Gain:,64,,
Total Measurement Time in sec:,  2.726,,
Wavelength (nm),Absorbance (AU),Reference Signal (unitless),Sample Signal (unitless)
901.51,0.033415,108485,100451
905.376,0.039950,121306,110645
909.237,0.042264,131909,119677
913.095,0.043678,143299,129588
916.948,0.043476,156982,142028
922.079,0.044508,179937,162410
925.923,0.045935,200504,180380
929.762,0.047195,222660,199732
933.597,0.046691,244426,219511
937.427,0.046778,263972,237017
941.254,0.046584,281845,253178
945.076,0.046275,297271,267225
950.165,0.045625,315605,284131
953.978,0.044827,328029,295859
957.786,0.046291,340470,306047
961.59,0.045636,352317,317174
965.389,0.046105,363056,326489
969.185,0.046419,373162,335335
972.976,0.047383,382632,343082
976.763,0.047649,391202,350552
981.806,0.047709,400190,358556
985.583,0.048428,406088,363239
989.355,0.049185,410162,366244
993.124,0.050113,412868,367873
996.888,0.050119,414263,369111
1000.65,0.051291,415476,369194
1004.4,0.052730,415479,367976
1009.41,0.054090,414358,365835
1013.15,0.054051,412923,364601
1016.89,0.054936,411526,362628
1020.63,0.054629,409066,360715
1024.36,0.055028,406777,358367
1028.09,0.054206,404427,356972
1031.82,0.054265,401911,354703
1036.78,0.054146,398410,351710
1040.49,0.053244,396204,350489
1044.2,0.052768,394236,349131
1047.91,0.053111,392042,346914
1051.61,0.051844,389823,345958
1055.31,0.051948,388234,344465
1059,0.050848,387599,344774
1063.92,0.050643,386688,344126
1067.61,0.049652,386598,344832
1071.29,0.049303,387377,345805
1074.96,0.048272,388536,347664
1078.63,0.047702,389855,349302
1082.3,0.046215,391215,351723
1085.96,0.046937,393215,352934
1090.84,0.045701,396270,356689
1094.49,0.045704,398760,358928
1098.14,0.045221,400987,361334
1101.79,0.044138,403477,364486
1105.43,0.044606,406116,366475
1109.06,0.044192,407701,368256
1112.7,0.043962,409859,370401
1117.53,0.043811,412494,372912
1121.15,0.045038,414909,374037
1124.77,0.045700,416559,374953
1128.38,0.046782,418532,375791
1131.99,0.047919,419956,376084
1135.6,0.050194,421946,375892
1139.2,0.051624,423881,376374
1143.99,0.054369,426786,376566
1147.58,0.055090,428617,377554
1151.17,0.056680,431169,378414
1154.75,0.058049,433579,379332
1158.33,0.059338,436264,380550
1161.91,0.061457,439132,381187
1165.48,0.064007,442389,381766
1169.04,0.066395,446101,382858
1173.79,0.070482,451929,384227
1177.34,0.072419,456026,385985
1180.9,0.075068,461306,388080
1184.44,0.076636,467657,392005
1187.99,0.077547,473969,396463
1191.52,0.077352,479856,401568
1195.06,0.076740,487372,408433
1199.76,0.076011,497347,417492
1203.29,0.075011,504311,424314
1206.81,0.074815,511507,430563
1210.33,0.073528,519078,438233
1213.84,0.072898,527163,445704
1217.35,0.072088,534208,452504
1220.85,0.071019,540472,458938
1225.51,0.070527,549929,467498
1229.01,0.069896,556888,474102
1232.5,0.069558,562180,478980
1235.98,0.068595,567975,484992
1239.46,0.067229,574815,492379
1242.94,0.066913,582782,499566
1246.41,0.066167,591476,507890
1251.03,0.065833,604016,519057
1254.5,0.066208,612289,525713
1257.96,0.066700,619125,530980
1261.41,0.067014,624551,535247
1264.86,0.067828,629900,538820
1268.31,0.068398,634345,541910
1271.75,0.068878,638574,544920
1276.33,0.068859,642499,548294
1279.76,0.069339,645905,550592
1283.19,0.068671,648307,553490
1286.61,0.068280,650446,555816
1290.03,0.068213,652132,557343
1293.44,0.067886,653907,559281
1296.85,0.067492,655963,561548
1301.39,0.067254,657349,563044
1304.8,0.067006,657558,563544
1308.19,0.067668,658515,563505
1311.58,0.067561,658804,563891
1314.97,0.068150,659011,563304
1318.36,0.068475,658272,562251
1321.73,0.069143,658022,561174
1326.23,0.069566,657870,560498
1329.6,0.071257,656482,557142
1332.97,0.072155,654926,554673
1336.33,0.073424,653727,552042
1339.69,0.075191,652497,548766
1343.04,0.076812,649913,544557
1346.39,0.079350,647671,539516
1349.73,0.081490,645338,534930
1354.18,0.084657,641175,527618
1357.52,0.086547,638376,523033
1360.85,0.089327,635805,517603
1364.17,0.091341,633413,513270
1367.49,0.094028,631026,508182
1370.81,0.096079,628050,503402
1374.12,0.098392,625034,498324
1378.54,0.102499,620272,489873
1381.84,0.105635,616892,483698
1385.14,0.109747,613613,476593
1388.43,0.114371,611526,469942
1391.72,0.119691,610663,463565
1395.01,0.124355,610634,458591
1398.29,0.129753,611700,453717
1402.66,0.137684,614051,447219
1405.93,0.143797,616268,442560
1409.2,0.149136,617795,438236
1412.46,0.155012,618872,433101
1415.72,0.159445,619795,429342
1418.98,0.163957,620495,425384
1422.23,0.167253,621087,422571
1426.56,0.171920,621375,418248
1429.8,0.175376,621616,415094
1433.04,0.177659,622129,413258
1436.27,0.180334,621526,410322
1439.5,0.182167,621113,408323
1442.72,0.184659,620921,405861
1445.94,0.187936,620270,402388
1450.23,0.190842,618860,398796
1453.44,0.194167,617697,395010
1456.64,0.197065,616264,391473
1459.85,0.199685,614413,387950
1463.04,0.202007,612307,384558
1466.24,0.205861,610032,379745
1469.43,0.209108,607345,375256
1473.67,0.214806,603789,368196
1476.85,0.220261,601175,362026
1480.02,0.226266,597737,355013
1483.19,0.232517,594479,348032
1486.36,0.238731,591232,341214
1489.52,0.243325,587853,335694
1492.68,0.246666,583875,330867
1496.89,0.249322,578062,325576
1500.03,0.250368,574159,322600
1503.18,0.250517,570285,320313
1506.32,0.249141,565444,318602
1509.45,0.247389,560571,317133
1512.58,0.246183,555821,315320
1515.71,0.243947,550344,313825
1519.87,0.240017,543983,313017
1522.99,0.237712,538764,311664
1526.1,0.234986,533692,310674
1529.21,0.231737,527902,309611
1532.32,0.229647,521886,307559
1535.42,0.226077,515888,306534
1538.51,0.222222,509987,305729
1541.6,0.220208,503936,303506
1545.72,0.214908,494694,301598
1548.8,0.212256,488378,299571
1551.88,0.209952,481832,297128
1554.95,0.207358,474989,294663
1558.02,0.206130,467818,291036
1561.08,0.204114,460730,287960
1564.15,0.203871,454170,284019
1568.22,0.201825,444181,279084
1571.27,0.201406,436947,274804
1574.32,0.200088,429598,271003
1577.36,0.199277,422039,266732
1580.4,0.197747,414375,262813
1583.43,0.195816,406354,258874
1586.46,0.193878,398475,254990
1590.49,0.191889,388982,250058
1593.51,0.189680,380708,245987
1596.53,0.187434,372727,242079
1599.54,0.185775,365060,238007
1602.55,0.183406,357543,234381
1605.55,0.180930,349495,230415
1608.55,0.178606,341154,226123
1612.54,0.176396,330877,220430
1615.53,0.174057,322904,216280
1618.51,0.173133,315116,211513
1621.49,0.171397,307217,207037
1624.47,0.170809,299481,202097
1627.44,0.169567,292112,197689
1630.41,0.167776,284245,193160
1634.36,0.166594,274079,186759
1637.32,0.167503,266916,181498
1640.27,0.165273,259612,177440
1643.22,0.164513,251804,172405
1646.16,0.163300,244348,167768
1649.1,0.162131,236703,162957
1652.04,0.161239,228171,157406
1655.95,0.158760,215408,149452
1658.88,0.156470,204937,142939
1661.8,0.151873,193395,136324
1664.72,0.146260,179728,128338
1667.63,0.137939,163642,119112
1670.54,0.126648,146312,109303
1673.44,0.113893,128451,98820
1677.31,0.101371,105080,83205
1680.21,0.098818,88906,70813
1683.1,0.093318,75033,60525
1685.99,0.100170,63520,50436
1688.87,0.101688,53714,42501
1691.75,0.109192,45653,35504
1694.62,0.111532,39137,30273
1697.49,0.111751,33776,26113
1701.31,0.121729,28175,21288