File: samples/wool/wool-000811/Column 1_050563_20150331_120604.csv
Method:,Column 1,,
Host Date-Time:,31/3/15 @ 12:6:4,,
Header Version:,1,,
System Temp (C):,33.82,,
Detector Temp (C):,33.55,,
Humidity (%):,1.95,,
Lamp PD:,3819,,
Shift Vector Coefficients:,-10.5391,0.0761263,-0.000134223,,
Pixel to Wavelength Coefficients:,1775.68,-0.916766,-0.000235065,,
Serial Number:,5510004,,
Scan Config Name:,Column 1,,
Scan Config Type:,Slew,,
Section 1,,
Start wavelength (nm):,900,,
End wavelength (nm):,1700,,
Pattern Pixel Width (nm):,   7.03,,,,
Exposure (ms):,  0.635,,,,
Digital Resolution:,228,,
Num Repeats:,6,,
PGA Gain:,64,,
Total Measurement Time in sec:,  2.670,,
Wavelength (nm),Absorbance (AU),Reference Signal (unitless),Sample Signal (unitless)
901.51,0.035639,108485,99938
905.376,0.040748,121306,110442
909.237,0.042845,131909,119517
913.095,0.043313,143299,129697
916.948,0.043662,156982,141967
922.079,0.046386,179937,161709
925.923,0.047131,200504,179884
929.762,0.047621,222660,199536
933.597,0.047941,244426,218880
937.427,0.047094,263972,236845
941.254,0.047491,281845,252650
945.076,0.047113,297271,266710
950.165,0.046511,315605,283552
953.978,0.045819,328029,295184
957.786,0.046145,340470,306150
961.59,0.046077,352317,316852
965.389,0.046307,363056,326337
969.185,0.046666,373162,335144
972.976,0.047348,382632,343110
976.763,0.047122,391202,350977
981.806,0.047987,400190,358327
985.583,0.048685,406088,363024
989.355,0.049540,410162,365945
993.124,0.050041,412868,367934
996.888,0.050310,414263,368949
1000.65,0.050926,415476,369505
1004.4,0.052406,415479,368250
1009.41,0.053451,414358,366374
1013.15,0.054344,412923,364355
1016.89,0.054651,411526,362866
1020.63,0.055248,409066,360201
1024.36,0.054313,406777,358958
1028.09,0.053717,404427,357374
1031.82,0.054090,401911,354846
1036.78,0.053413,398410,352304
1040.49,0.052997,396204,350689
1044.2,0.053237,394236,348754
1047.91,0.053261,392042,346794
1051.61,0.051923,389823,345895
1055.31,0.051757,388234,344617
1059,0.050516,387599,345038
1063.92,0.049647,386688,344916
1067.61,0.049437,386598,345003
1071.29,0.048411,387377,346516
1074.96,0.047817,388536,348028
1078.63,0.047784,389855,349236
1082.3,0.047170,391215,350950
1085.96,0.046355,393215,353407
1090.84,0.045451,396270,356895
1094.49,0.045366,398760,359208
1098.14,0.044211,400987,362176
1101.79,0.044512,403477,364172
1105.43,0.044153,406116,366857
1109.06,0.044158,407701,368285
1112.7,0.044094,409859,370289
1117.53,0.044324,412494,372472
1121.15,0.045073,414909,374007
1124.77,0.044945,416559,375605
1128.38,0.046370,418532,376148
1131.99,0.047790,419956,376196
1135.6,0.049643,421946,376369
1139.2,0.051981,423881,376065
1143.99,0.054111,426786,376790
1147.58,0.054920,428617,377702
1151.17,0.055882,431169,379110
1154.75,0.057472,433579,379836
1158.33,0.059469,436264,380435
1161.91,0.061403,439132,381234
1165.48,0.063298,442389,382390
1169.04,0.066620,446101,382660
1173.79,0.069730,451929,384893
1177.34,0.072715,456026,385722
1180.9,0.074837,461306,388286
1184.44,0.076460,467657,392164
1187.99,0.077342,473969,396650
1191.52,0.077152,479856,401753
1195.06,0.076883,487372,408298
1199.76,0.076177,497347,417333
1203.29,0.074871,504311,424451
1206.81,0.074377,511507,430997
1210.33,0.073366,519078,438396
1213.84,0.072760,527163,445846
1217.35,0.071709,534208,452899
1220.85,0.070996,540472,458962
1225.51,0.070205,549929,467845
1229.01,0.069894,556888,474104
1232.5,0.068779,562180,479840
1235.98,0.068891,567975,484661
1239.46,0.067443,574815,492136
1242.94,0.066441,582782,500109
1246.41,0.065868,591476,508240
1251.03,0.065521,604016,519431
1254.5,0.065679,612289,526353
1257.96,0.066266,619125,531511
1261.41,0.066534,624551,535838
1264.86,0.067672,629900,539014
1268.31,0.067825,634345,542626
1271.75,0.068616,638574,545249
1276.33,0.068906,642499,548235
1279.76,0.069069,645905,550934
1283.19,0.068751,648307,553388
1286.61,0.068269,650446,555830
1290.03,0.067571,652132,558168
1293.44,0.067290,653907,560049
1296.85,0.067097,655963,562060
1301.39,0.067068,657349,563285
1304.8,0.066759,657558,563865
1308.19,0.066803,658515,564628
1311.58,0.067617,658804,563818
1314.97,0.067738,659011,563838
1318.36,0.068091,658272,562749
1321.73,0.068547,658022,561944
1326.23,0.069486,657870,560601
1329.6,0.070582,656482,558009
1332.97,0.071735,654926,555210
1336.33,0.072769,653727,552876
1339.69,0.074473,652497,549675
1343.04,0.076499,649913,544949
1346.39,0.078707,647671,540316
1349.73,0.080426,645338,536243
1354.18,0.083829,641175,528625
1357.52,0.086117,638376,523552
1360.85,0.088545,635805,518536
1364.17,0.090729,633413,513994
1367.49,0.093202,631026,509149
1370.81,0.095189,628050,504435
1374.12,0.097835,625034,498963
1378.54,0.101406,620272,491107
1381.84,0.104806,616892,484622
1385.14,0.108661,613613,477786
1388.43,0.113211,611526,471198
1391.72,0.118334,610663,465016
1395.01,0.123019,610634,460004
1398.29,0.127899,611700,455658
1402.66,0.135813,614051,449150
1405.93,0.141369,616268,445042
1409.2,0.147320,617795,440073
1412.46,0.152257,618872,435857
1415.72,0.156432,619795,432331
1418.98,0.161162,620495,428131
1422.23,0.164579,621087,425181
1426.56,0.169227,621375,420849
1429.8,0.171807,621616,418519
1433.04,0.174981,622129,415814
1436.27,0.176874,621526,413605
1439.5,0.179386,621113,410946
1442.72,0.182124,620921,408237
1445.94,0.184637,620270,405456
1450.23,0.187950,618860,401460
1453.44,0.190835,617697,398053
1456.64,0.193809,616264,394419
1459.85,0.196814,614413,390523
1463.04,0.199420,612307,386856
1466.24,0.202807,610032,382424
1469.43,0.206477,607345,377536
1473.67,0.212405,603789,370237
1476.85,0.218069,601175,363858
1480.02,0.223680,597737,357133
1483.19,0.231279,594479,349026
1486.36,0.236741,591232,342781
1489.52,0.242116,587853,336630
1492.68,0.244790,583875,332300
1496.89,0.247986,578062,326579
1500.03,0.248525,574159,323972
1503.18,0.248413,570285,321869
1506.32,0.247504,565444,319805
1509.45,0.246432,560571,317833
1512.58,0.244740,555821,316370
1515.71,0.242474,550344,314891
1519.87,0.239177,543983,313623
1522.99,0.236582,538764,312476
1526.1,0.234068,533692,311331
1529.21,0.230713,527902,310342
1532.32,0.228054,521886,308689
1535.42,0.224500,515888,307649
1538.51,0.221187,509987,306459
1541.6,0.218751,503936,304526
1545.72,0.213476,494694,302594
1548.8,0.211019,488378,300426
1551.88,0.207964,481832,298491
1554.95,0.205655,474989,295821
1558.02,0.203803,467818,292600
1561.08,0.202594,460730,288970
1564.15,0.202229,454170,285095
1568.22,0.200490,444181,279943
1571.27,0.200755,436947,275216
1574.32,0.198787,429598,271816
1577.36,0.198193,422039,267399
1580.4,0.196652,414375,263476
1583.43,0.194571,406354,259617
1586.46,0.193066,398475,255467
1590.49,0.191436,388982,250319
1593.51,0.188844,380708,246461
1596.53,0.185911,372727,242929
1599.54,0.183808,365060,239087
1602.55,0.182578,357543,234828
1605.55,0.179966,349495,230927
1608.55,0.177568,341154,226664
1612.54,0.174389,330877,221451
1615.53,0.172494,322904,217060
1618.51,0.172133,315116,212001
1621.49,0.171227,307217,207118
1624.47,0.169411,299481,202749
1627.44,0.168849,292112,198016
1630.41,0.166671,284245,193652
1634.36,0.165881,274079,187066
1637.32,0.164986,266916,182553
1640.27,0.163849,259612,178023
1643.22,0.162623,251804,173157
1646.16,0.162516,244348,168071
1649.1,0.162445,236703,162839
1652.04,0.160041,228171,157841
1655.95,0.157779,215408,149790
1658.88,0.155529,204937,143249
1661.8,0.150877,193395,136637
1664.72,0.144521,179728,128853
1667.63,0.133712,163642,120277
1670.54,0.121309,146312,110655
1673.44,0.111653,128451,99331
1677.31,0.096332,105080,84176
1680.21,0.089013,88906,72430
1683.1,0.083913,75033,61850
1685.99,0.088497,63520,51810
1688.87,0.094182,53714,43242
1691.75,0.099898,45653,36272
1694.62,0.106242,39137,30644
1697.49,0.107745,33776,26355
1701.31,0.119552,28175,21395