File: samples/wool/wool-000811/Column 1_050536_20150331_115312.csv
Method:,Column 1,,
Host Date-Time:,31/3/15 @ 11:53:12,,
Header Version:,1,,
System Temp (C):,31.5,,
Detector Temp (C):,30.11,,
Humidity (%):,3.71,,
Lamp PD:,3827,,
Shift Vector Coefficients:,-10.5391,0.0761263,-0.000134223,,
Pixel to Wavelength Coefficients:,1775.68,-0.916766,-0.000235065,,
Serial Number:,5510004,,
Scan Config Name:,Column 1,,
Scan Config Type:,Slew,,
Section 1,,
Start wavelength (nm):,900,,
End wavelength (nm):,1700,,
Pattern Pixel Width (nm):,   7.03,,,,
Exposure (ms):,  0.635,,,,
Digital Resolution:,228,,
Num Repeats:,6,,
PGA Gain:,64,,
Total Measurement Time in sec:,  2.737,,
Wavelength (nm),Absorbance (AU),Reference Signal (unitless),Sample Signal (unitless)
901.51,0.042229,108485,98433
905.376,0.047948,121306,108626
909.237,0.050847,131909,117335
913.095,0.048674,143299,128106
916.948,0.048783,156982,140303
922.079,0.049870,179937,160417
925.923,0.049690,200504,178827
929.762,0.049884,222660,198499
933.597,0.050922,244426,217383
937.427,0.051026,263972,234710
941.254,0.051562,281845,250293
945.076,0.051682,297271,263919
950.165,0.051546,315605,280284
953.978,0.051362,328029,291441
957.786,0.052151,340470,301945
961.59,0.053141,352317,311740
965.389,0.053283,363056,321137
969.185,0.054058,373162,329488
972.976,0.053764,382632,338078
976.763,0.055039,391202,344637
981.806,0.055447,400190,352224
985.583,0.056591,406088,356475
989.355,0.057230,410162,359522
993.124,0.057513,412868,361658
996.888,0.058032,414263,362447
1000.65,0.058521,415476,363099
1004.4,0.059825,415479,362013
1009.41,0.060842,414358,360192
1013.15,0.061604,412923,358315
1016.89,0.062394,411526,356454
1020.63,0.062238,409066,354450
1024.36,0.061638,406777,352954
1028.09,0.061934,404427,350676
1031.82,0.060814,401911,349394
1036.78,0.060319,398410,346746
1040.49,0.060185,396204,344932
1044.2,0.059492,394236,343767
1047.91,0.059218,392042,342070
1051.61,0.058354,389823,340811
1055.31,0.058006,388234,339694
1059,0.057617,387599,339442
1063.92,0.056160,386688,339782
1067.61,0.055074,386598,340554
1071.29,0.053968,387377,342110
1074.96,0.053993,388536,343114
1078.63,0.052878,389855,345164
1082.3,0.052245,391215,346873
1085.96,0.051070,393215,349591
1090.84,0.050715,396270,352595
1094.49,0.050458,398760,355021
1098.14,0.049916,400987,357449
1101.79,0.049563,403477,359961
1105.43,0.049504,406116,362365
1109.06,0.048856,407701,364322
1112.7,0.048815,409859,366285
1117.53,0.049215,412494,368301
1121.15,0.050368,414909,369475
1124.77,0.050489,416559,370841
1128.38,0.051851,418532,371431
1131.99,0.053744,419956,371073
1135.6,0.055695,421946,371161
1139.2,0.058011,423881,370880
1143.99,0.061083,426786,370789
1147.58,0.061933,428617,371652
1151.17,0.063364,431169,372635
1154.75,0.064636,433579,373622
1158.33,0.067167,436264,373751
1161.91,0.069751,439132,373976
1165.48,0.072691,442389,374208
1169.04,0.075425,446101,374980
1173.79,0.079671,451929,376183
1177.34,0.082358,456026,377252
1180.9,0.084563,461306,379687
1184.44,0.087195,467657,382589
1187.99,0.087279,473969,387678
1191.52,0.086714,479856,393004
1195.06,0.086098,487372,399726
1199.76,0.085520,497347,408451
1203.29,0.083588,504311,416016
1206.81,0.082214,511507,423290
1210.33,0.081448,519078,430313
1213.84,0.080398,527163,438073
1217.35,0.078683,534208,445684
1220.85,0.078030,540472,451589
1225.51,0.076998,549929,460584
1229.01,0.075897,556888,467596
1232.5,0.074932,562180,473090
1235.98,0.074056,567975,478931
1239.46,0.072874,574815,486020
1242.94,0.072217,582782,493502
1246.41,0.070912,591476,502372
1251.03,0.070633,604016,513352
1254.5,0.070675,612289,520333
1257.96,0.071161,619125,525554
1261.41,0.071535,624551,529704
1264.86,0.072597,629900,532936
1268.31,0.072998,634345,536201
1271.75,0.073546,638574,539095
1276.33,0.073799,642499,542093
1279.76,0.073945,645905,544783
1283.19,0.073385,648307,547515
1286.61,0.072641,650446,550263
1290.03,0.072777,652132,551516
1293.44,0.071933,653907,554094
1296.85,0.072012,655963,555735
1301.39,0.071611,657349,557423
1304.8,0.071639,657558,557564
1308.19,0.071767,658515,558211
1311.58,0.072690,658804,557271
1314.97,0.073057,659011,556975
1318.36,0.073758,658272,555453
1321.73,0.074062,658022,554853
1326.23,0.075121,657870,553374
1329.6,0.075910,656482,551205
1332.97,0.077716,654926,547616
1336.33,0.078781,653727,545275
1339.69,0.080886,652497,541617
1343.04,0.082972,649913,536887
1346.39,0.085202,647671,532295
1349.73,0.087409,645338,527689
1354.18,0.091099,641175,519850
1357.52,0.094047,638376,514079
1360.85,0.096264,635805,509401
1364.17,0.098493,633413,504887
1367.49,0.101467,631026,499551
1370.81,0.104116,628050,494172
1374.12,0.106926,625034,488627
1378.54,0.111125,620272,480239
1381.84,0.114713,616892,473692
1385.14,0.119683,613613,465813
1388.43,0.124970,611526,458611
1391.72,0.131144,610663,451500
1395.01,0.137156,610634,445272
1398.29,0.143438,611700,439643
1402.66,0.152332,614051,432387
1405.93,0.159564,616268,426782
1409.2,0.166095,617795,421453
1412.46,0.172108,618872,416383
1415.72,0.177427,619795,411928
1418.98,0.183152,620495,406992
1422.23,0.186603,621087,404156
1426.56,0.191729,621375,399599
1429.8,0.194680,621616,397047
1433.04,0.198471,622129,393921
1436.27,0.200984,621526,391269
1439.5,0.202822,621113,389358
1442.72,0.205603,620921,386753
1445.94,0.208038,620270,384187
1450.23,0.211875,618860,379942
1453.44,0.215136,617697,376391
1456.64,0.217810,616264,373213
1459.85,0.220351,614413,369921
1463.04,0.222836,612307,366550
1466.24,0.225719,610032,362772
1469.43,0.229400,607345,358126
1473.67,0.234069,603789,352222
1476.85,0.238844,601175,346862
1480.02,0.243650,597737,341083
1483.19,0.250377,594479,334010
1486.36,0.256092,591232,327843
1489.52,0.260761,587853,322484
1492.68,0.264225,583875,317757
1496.89,0.267273,578062,312393
1500.03,0.267966,574159,309789
1503.18,0.268075,570285,307622
1506.32,0.267297,565444,305557
1509.45,0.266134,560571,303736
1512.58,0.264918,555821,302007
1515.71,0.263073,550344,300304
1519.87,0.259634,543983,299193
1522.99,0.257057,538764,298086
1526.1,0.254571,533692,296975
1529.21,0.251586,527902,295779
1532.32,0.248262,521886,294655
1535.42,0.244977,515888,293480
1538.51,0.241949,509987,292153
1541.6,0.238260,503936,291149
1545.72,0.233015,494694,289282
1548.8,0.229934,488378,287622
1551.88,0.227463,481832,285386
1554.95,0.224959,474989,282960
1558.02,0.222948,467818,279981
1561.08,0.222676,460730,275912
1564.15,0.220793,454170,273165
1568.22,0.219362,444181,268039
1571.27,0.219236,436947,263750
1574.32,0.217546,429598,260325
1577.36,0.215284,422039,257080
1580.4,0.214604,414375,252807
1583.43,0.212833,406354,248927
1586.46,0.210222,398475,245572
1590.49,0.207405,388982,241282
1593.51,0.206051,380708,236887
1596.53,0.203662,372727,233200
1599.54,0.201097,365060,229756
1602.55,0.198465,357543,226393
1605.55,0.196160,349495,222475
1608.55,0.193935,341154,218281
1612.54,0.190092,330877,213587
1615.53,0.188865,322904,209030
1618.51,0.187448,315116,204655
1621.49,0.186107,307217,200142
1624.47,0.184526,299481,195814
1627.44,0.181929,292112,192141
1630.41,0.181181,284245,187289
1634.36,0.180404,274079,180914
1637.32,0.178580,266916,176927
1640.27,0.178900,259612,171959
1643.22,0.178138,251804,167080
1646.16,0.175965,244348,162946
1649.1,0.176122,236703,157791
1652.04,0.176363,228171,152019
1655.95,0.172856,215408,144679
1658.88,0.173330,204937,137496
1661.8,0.171004,193395,130449
1664.72,0.169825,179728,121560
1667.63,0.166655,163642,111491
1670.54,0.161953,146312,100769
1673.44,0.160564,128451,88751
1677.31,0.158233,105080,72994
1680.21,0.157240,88906,61900
1683.1,0.162577,75033,51603
1685.99,0.170787,63520,42867
1688.87,0.175683,53714,35843
1691.75,0.169834,45653,30877
1694.62,0.181490,39137,25769
1697.49,0.185436,33776,22038
1701.31,0.188197,28175,18267