File: samples/wool/wool-000811/Column 1_050609_20150331_122755.csv
Method:,Column 1,,
Host Date-Time:,31/3/15 @ 12:27:55,,
Header Version:,1,,
System Temp (C):,34.04,,
Detector Temp (C):,34.84,,
Humidity (%):,1.66,,
Lamp PD:,3818,,
Shift Vector Coefficients:,-10.5391,0.0761263,-0.000134223,,
Pixel to Wavelength Coefficients:,1775.68,-0.916766,-0.000235065,,
Serial Number:,5510004,,
Scan Config Name:,Column 1,,
Scan Config Type:,Slew,,
Section 1,,
Start wavelength (nm):,900,,
End wavelength (nm):,1700,,
Pattern Pixel Width (nm):,   7.03,,,,
Exposure (ms):,  0.635,,,,
Digital Resolution:,228,,
Num Repeats:,6,,
PGA Gain:,64,,
Total Measurement Time in sec:,  2.673,,
Wavelength (nm),Absorbance (AU),Reference Signal (unitless),Sample Signal (unitless)
901.51,0.068604,108485,92633
905.376,0.074746,121306,102126
909.237,0.077132,131909,110444
913.095,0.077891,143299,119771
916.948,0.079411,156982,130749
922.079,0.080883,179937,149361
925.923,0.081087,200504,166355
929.762,0.081580,222660,184528
933.597,0.082437,244426,202167
937.427,0.080347,263972,219387
941.254,0.080105,281845,234372
945.076,0.078577,297271,248071
950.165,0.078045,315605,263693
953.978,0.077261,328029,274569
957.786,0.077115,340470,285078
961.59,0.077525,352317,294719
965.389,0.077394,363056,303794
969.185,0.077544,373162,312143
972.976,0.078056,382632,319687
976.763,0.078264,391202,326691
981.806,0.078703,400190,333859
985.583,0.079454,406088,338194
989.355,0.079815,410162,341303
993.124,0.079896,412868,343491
996.888,0.080585,414263,344105
1000.65,0.081247,415476,344587
1004.4,0.082716,415479,343426
1009.41,0.084239,414358,341300
1013.15,0.083843,412923,340429
1016.89,0.084306,411526,338915
1020.63,0.084149,409066,337011
1024.36,0.084520,406777,334839
1028.09,0.084225,404427,333131
1031.82,0.084444,401911,330892
1036.78,0.083975,398410,328364
1040.49,0.083523,396204,326886
1044.2,0.083458,394236,325311
1047.91,0.083402,392042,323542
1051.61,0.082735,389823,322205
1055.31,0.082468,388234,321089
1059,0.081652,387599,321167
1063.92,0.080580,386688,321204
1067.61,0.080507,386598,321183
1071.29,0.079971,387377,322228
1074.96,0.079395,388536,323621
1078.63,0.079133,389855,324915
1082.3,0.078421,391215,326584
1085.96,0.077197,393215,329180
1090.84,0.076797,396270,332043
1094.49,0.075738,398760,334945
1098.14,0.075302,400987,337154
1101.79,0.075406,403477,339166
1105.43,0.074738,406116,341910
1109.06,0.074294,407701,343596
1112.7,0.073032,409859,346420
1117.53,0.073333,412494,348405
1121.15,0.073961,414909,349939
1124.77,0.074330,416559,351032
1128.38,0.074995,418532,352155
1131.99,0.076000,419956,352536
1135.6,0.077390,421946,353075
1139.2,0.078713,423881,353615
1143.99,0.081105,426786,354083
1147.58,0.081303,428617,355440
1151.17,0.081927,431169,357043
1154.75,0.083569,433579,357684
1158.33,0.084487,436264,359139
1161.91,0.086629,439132,359721
1165.48,0.088638,442389,360717
1169.04,0.090665,446101,362050
1173.79,0.094118,451929,363875
1177.34,0.095973,456026,365609
1180.9,0.098022,461306,368101
1184.44,0.100157,467657,371339
1187.99,0.100737,473969,375849
1191.52,0.101082,479856,380215
1195.06,0.100799,487372,386422
1199.76,0.100464,497347,394635
1203.29,0.099678,504311,400886
1206.81,0.099356,511507,406907
1210.33,0.098163,519078,414066
1213.84,0.098486,527163,420203
1217.35,0.097549,534208,426738
1220.85,0.096464,540472,432822
1225.51,0.095926,549929,440941
1229.01,0.095317,556888,447148
1232.5,0.094845,562180,451888
1235.98,0.094101,567975,457328
1239.46,0.093332,574815,463656
1242.94,0.092107,582782,471410
1246.41,0.091426,591476,479194
1251.03,0.091534,604016,489232
1254.5,0.091429,612289,496052
1257.96,0.092244,619125,500650
1261.41,0.092694,624551,504515
1264.86,0.093371,629900,508043
1268.31,0.093548,634345,511420
1271.75,0.093855,638574,514466
1276.33,0.094202,642499,517214
1279.76,0.094074,645905,520109
1283.19,0.094171,648307,521927
1286.61,0.093244,650446,524768
1290.03,0.093331,652132,526023
1293.44,0.092372,653907,528620
1296.85,0.092223,655963,530464
1301.39,0.091986,657349,531876
1304.8,0.092140,657558,531856
1308.19,0.092239,658515,532509
1311.58,0.092659,658804,532227
1314.97,0.093189,659011,531745
1318.36,0.093477,658272,530797
1321.73,0.093129,658022,531021
1326.23,0.094122,657870,529686
1329.6,0.094869,656482,527659
1332.97,0.095581,654926,525547
1336.33,0.096618,653727,523333
1339.69,0.098498,652497,520093
1343.04,0.099473,649913,516871
1346.39,0.101670,647671,512489
1349.73,0.103589,645338,508392
1354.18,0.106481,641175,501759
1357.52,0.108797,638376,496912
1360.85,0.110703,635805,492743
1364.17,0.112546,633413,488811
1367.49,0.114719,631026,484539
1370.81,0.117014,628050,479712
1374.12,0.119079,625034,475143
1378.54,0.121774,620272,468606
1381.84,0.124528,616892,463107
1385.14,0.127634,613613,457363
1388.43,0.131063,611526,452222
1391.72,0.135780,610663,446706
1395.01,0.139227,610634,443153
1398.29,0.143878,611700,439198
1402.66,0.150174,614051,434541
1405.93,0.155095,616268,431196
1409.2,0.159588,617795,427815
1412.46,0.163970,618872,424259
1415.72,0.167378,619795,421570
1418.98,0.171122,620495,418424
1422.23,0.174490,621087,415587
1426.56,0.178162,621375,412280
1429.8,0.181567,621616,409218
1433.04,0.183849,622129,407410
1436.27,0.185634,621526,405345
1439.5,0.187659,621113,403192
1442.72,0.190447,620921,400488
1445.94,0.192498,620270,398183
1450.23,0.196405,618860,393720
1453.44,0.198504,617697,391085
1456.64,0.201704,616264,387314
1459.85,0.204515,614413,383659
1463.04,0.207859,612307,379411
1466.24,0.210065,610032,376086
1469.43,0.214611,607345,370531
1473.67,0.220701,603789,363232
1476.85,0.226778,601175,356634
1480.02,0.232939,597737,349600
1483.19,0.238937,594479,342925
1486.36,0.244533,591232,336686
1489.52,0.249251,587853,331145
1492.68,0.252612,583875,326368
1496.89,0.255588,578062,320912
1500.03,0.255608,574159,318731
1503.18,0.255227,570285,316858
1506.32,0.254957,565444,314364
1509.45,0.253157,560571,312949
1512.58,0.251466,555821,311508
1515.71,0.249842,550344,309594
1519.87,0.245995,543983,308738
1522.99,0.243613,538764,307458
1526.1,0.241314,533692,306180
1529.21,0.237994,527902,305182
1532.32,0.236024,521886,303076
1535.42,0.233078,515888,301632
1538.51,0.229092,509987,300931
1541.6,0.226720,503936,298989
1545.72,0.223020,494694,296017
1548.8,0.220108,488378,294204
1551.88,0.218154,481832,291569
1554.95,0.215604,474989,289121
1558.02,0.214410,467818,285540
1561.08,0.212743,460730,282295
1564.15,0.212814,454170,278230
1568.22,0.211884,444181,272694
1571.27,0.210831,436947,268904
1574.32,0.210779,429598,264413
1577.36,0.209157,422039,260733
1580.4,0.207739,414375,256835
1583.43,0.206874,406354,252366
1586.46,0.205678,398475,248155
1590.49,0.202314,388982,244127
1593.51,0.201457,380708,239406
1596.53,0.199153,372727,235634
1599.54,0.197240,365060,231806
1602.55,0.194514,357543,228462
1605.55,0.193954,349495,223608
1608.55,0.190672,341154,219927
1612.54,0.189852,330877,213705
1615.53,0.186943,322904,209957
1618.51,0.186984,315116,204874
1621.49,0.185476,307217,200433
1624.47,0.184679,299481,195745
1627.44,0.182794,292112,191759
1630.41,0.182656,284245,186654
1634.36,0.182020,274079,180242
1637.32,0.180800,266916,176025
1640.27,0.179400,259612,171761
1643.22,0.179195,251804,166674
1646.16,0.178076,244348,162156
1649.1,0.178191,236703,157041
1652.04,0.177384,228171,151662
1655.95,0.172706,215408,144729
1658.88,0.169103,204937,138841
1661.8,0.163931,193395,132591
1664.72,0.155512,179728,125633
1667.63,0.144449,163642,117340
1670.54,0.129406,146312,108611
1673.44,0.112195,128451,99207
1677.31,0.090775,105080,85260
1680.21,0.080898,88906,73796
1683.1,0.074948,75033,63140
1685.99,0.076028,63520,53319
1688.87,0.079042,53714,44776
1691.75,0.082322,45653,37770
1694.62,0.088402,39137,31929
1697.49,0.101025,33776,26766
1701.31,0.099383,28175,22412