File: samples/wool/wool-000811/Column 1_050539_20150331_115435.csv
Method:,Column 1,,
Host Date-Time:,31/3/15 @ 11:54:35,,
Header Version:,1,,
System Temp (C):,32.06,,
Detector Temp (C):,30.35,,
Humidity (%):,3.22,,
Lamp PD:,3825,,
Shift Vector Coefficients:,-10.5391,0.0761263,-0.000134223,,
Pixel to Wavelength Coefficients:,1775.68,-0.916766,-0.000235065,,
Serial Number:,5510004,,
Scan Config Name:,Column 1,,
Scan Config Type:,Slew,,
Section 1,,
Start wavelength (nm):,900,,
End wavelength (nm):,1700,,
Pattern Pixel Width (nm):,   7.03,,,,
Exposure (ms):,  0.635,,,,
Digital Resolution:,228,,
Num Repeats:,6,,
PGA Gain:,64,,
Total Measurement Time in sec:,  2.670,,
Wavelength (nm),Absorbance (AU),Reference Signal (unitless),Sample Signal (unitless)
901.51,0.044232,108485,97980
905.376,0.047221,121306,108808
909.237,0.051432,131909,117177
913.095,0.052662,143299,126935
916.948,0.050983,156982,139594
922.079,0.049572,179937,160527
925.923,0.052096,200504,177839
929.762,0.050710,222660,198122
933.597,0.052208,244426,216740
937.427,0.052004,263972,234182
941.254,0.052754,281845,249607
945.076,0.052153,297271,263633
950.165,0.052787,315605,279484
953.978,0.052887,328029,290419
957.786,0.052864,340470,301450
961.59,0.053395,352317,311558
965.389,0.053872,363056,320702
969.185,0.053910,373162,329600
972.976,0.054981,382632,337132
976.763,0.055266,391202,344457
981.806,0.056247,400190,351576
985.583,0.056949,406088,356181
989.355,0.057467,410162,359326
993.124,0.057717,412868,361488
996.888,0.058444,414263,362103
1000.65,0.059200,415476,362532
1004.4,0.060285,415479,361630
1009.41,0.061802,414358,359396
1013.15,0.062020,412923,357972
1016.89,0.062956,411526,355993
1020.63,0.062594,409066,354160
1024.36,0.062916,406777,351917
1028.09,0.062179,404427,350478
1031.82,0.061700,401911,348682
1036.78,0.061193,398410,346049
1040.49,0.060847,396204,344407
1044.2,0.060518,394236,342956
1047.91,0.059376,392042,341945
1051.61,0.059202,389823,340146
1055.31,0.058442,388234,339353
1059,0.057250,387599,339729
1063.92,0.056366,386688,339621
1067.61,0.055458,386598,340253
1071.29,0.054833,387377,341429
1074.96,0.054143,388536,342995
1078.63,0.053524,389855,344651
1082.3,0.052601,391215,346589
1085.96,0.052260,393215,348634
1090.84,0.051120,396270,352266
1094.49,0.051380,398760,354268
1098.14,0.050111,400987,357289
1101.79,0.049746,403477,359810
1105.43,0.049781,406116,362134
1109.06,0.049317,407701,363936
1112.7,0.049759,409859,365490
1117.53,0.049480,412494,368076
1121.15,0.050318,414909,369517
1124.77,0.051011,416559,370395
1128.38,0.052658,418532,370741
1131.99,0.054215,419956,370671
1135.6,0.056240,421946,370695
1139.2,0.058266,423881,370662
1143.99,0.061125,426786,370753
1147.58,0.062706,428617,370991
1151.17,0.063486,431169,372530
1154.75,0.065323,433579,373031
1158.33,0.067098,436264,373810
1161.91,0.069747,439132,373980
1165.48,0.073165,442389,373800
1169.04,0.075934,446101,374541
1173.79,0.079473,451929,376355
1177.34,0.082801,456026,376867
1180.9,0.085038,461306,379272
1184.44,0.087000,467657,382761
1187.99,0.087653,473969,387344
1191.52,0.086796,479856,392930
1195.06,0.086865,487372,399021
1199.76,0.085045,497347,408898
1203.29,0.083848,504311,415767
1206.81,0.082777,511507,422741
1210.33,0.081579,519078,430183
1213.84,0.080561,527163,437909
1217.35,0.079274,534208,445078
1220.85,0.078308,540472,451300
1225.51,0.076895,549929,460693
1229.01,0.075897,556888,467596
1232.5,0.075341,562180,472644
1235.98,0.074891,567975,478011
1239.46,0.073552,574815,485262
1242.94,0.072143,582782,493586
1246.41,0.071483,591476,501712
1251.03,0.070701,604016,513272
1254.5,0.071146,612289,519769
1257.96,0.071411,619125,525252
1261.41,0.072065,624551,529058
1264.86,0.072175,629900,533454
1268.31,0.073422,634345,535678
1271.75,0.074334,638574,538118
1276.33,0.074095,642499,541723
1279.76,0.074448,645905,544152
1283.19,0.073814,648307,546974
1286.61,0.073429,650446,549265
1290.03,0.072710,652132,551601
1293.44,0.072298,653907,553628
1296.85,0.072069,655963,555662
1301.39,0.072102,657349,556793
1304.8,0.071650,657558,557550
1308.19,0.072343,658515,557472
1311.58,0.072606,658804,557378
1314.97,0.072991,659011,557059
1318.36,0.073709,658272,555516
1321.73,0.074032,658022,554892
1326.23,0.075257,657870,553201
1329.6,0.076137,656482,550917
1332.97,0.077554,654926,547821
1336.33,0.079397,653727,544502
1339.69,0.080548,652497,542039
1343.04,0.082586,649913,537365
1346.39,0.085249,647671,532238
1349.73,0.087968,645338,527010
1354.18,0.091271,641175,519643
1357.52,0.093585,638376,514626
1360.85,0.096009,635805,509700
1364.17,0.098692,633413,504656
1367.49,0.101102,631026,499971
1370.81,0.104580,628050,493644
1374.12,0.106810,625034,488758
1378.54,0.110876,620272,480514
1381.84,0.114664,616892,473746
1385.14,0.119580,613613,465923
1388.43,0.124705,611526,458891
1391.72,0.130525,610663,452144
1395.01,0.136788,610634,445649
1398.29,0.142617,611700,440475
1402.66,0.151518,614051,433198
1405.93,0.158376,616268,427951
1409.2,0.165244,617795,422280
1412.46,0.170704,618872,417731
1415.72,0.176602,619795,412711
1418.98,0.180997,620495,409017
1422.23,0.185634,621087,405059
1426.56,0.190659,621375,400585
1429.8,0.193420,621616,398201
1433.04,0.196460,622129,395750
1436.27,0.199155,621526,392920
1439.5,0.201445,621113,390594
1442.72,0.204201,620921,388003
1445.94,0.206866,620270,385225
1450.23,0.210364,618860,381266
1453.44,0.213276,617697,378007
1456.64,0.216354,616264,374466
1459.85,0.219009,614413,371066
1463.04,0.221320,612307,367832
1466.24,0.224304,610032,363956
1469.43,0.227261,607345,359894
1473.67,0.232298,603789,353661
1476.85,0.237147,601175,348220
1480.02,0.242999,597737,341595
1483.19,0.249489,594479,334694
1486.36,0.254763,591232,328848
1489.52,0.260015,587853,323038
1492.68,0.264050,583875,317885
1496.89,0.266587,578062,312887
1500.03,0.267211,574159,310328
1503.18,0.268203,570285,307531
1506.32,0.266915,565444,305826
1509.45,0.265383,560571,304262
1512.58,0.264603,555821,302226
1515.71,0.261931,550344,301095
1519.87,0.258959,543983,299658
1522.99,0.256053,538764,298776
1526.1,0.254062,533692,297323
1529.21,0.250013,527902,296852
1532.32,0.247014,521886,295503
1535.42,0.244374,515888,293888
1538.51,0.240484,509987,293140
1541.6,0.237158,503936,291889
1545.72,0.232826,494694,289408
1548.8,0.229353,488378,288007
1551.88,0.226124,481832,286267
1554.95,0.224108,474989,283515
1558.02,0.221663,467818,280811
1561.08,0.220592,460730,277239
1564.15,0.220290,454170,273482
1568.22,0.218939,444181,268300
1571.27,0.217921,436947,264550
1574.32,0.217326,429598,260457
1577.36,0.215306,422039,257067
1580.4,0.213906,414375,253214
1583.43,0.211437,406354,249728
1586.46,0.209355,398475,246063
1590.49,0.206403,388982,241839
1593.51,0.204852,380708,237542
1596.53,0.202442,372727,233856
1599.54,0.200142,365060,230262
1602.55,0.197704,357543,226790
1605.55,0.195662,349495,222730
1608.55,0.192990,341154,218756
1612.54,0.190495,330877,213389
1615.53,0.188244,322904,209329
1618.51,0.186721,315116,204998
1621.49,0.185067,307217,200622
1624.47,0.183863,299481,196113
1627.44,0.181740,292112,192225
1630.41,0.181248,284245,187260
1634.36,0.178781,274079,181591
1637.32,0.177987,266916,177169
1640.27,0.175699,259612,173231
1643.22,0.175077,251804,168262
1646.16,0.175230,244348,163222
1649.1,0.173786,236703,158642
1652.04,0.174222,228171,152770
1655.95,0.171113,215408,145261
1658.88,0.171005,204937,138234
1661.8,0.169565,193395,130882
1664.72,0.166023,179728,122629
1667.63,0.162700,163642,112511
1670.54,0.158489,146312,101576
1673.44,0.154471,128451,90005
1677.31,0.150853,105080,74245
1680.21,0.147335,88906,63328
1683.1,0.151797,75033,52900
1685.99,0.163673,63520,43575
1688.87,0.161417,53714,37040
1691.75,0.167730,45653,31027
1694.62,0.173607,39137,26241
1697.49,0.160824,33776,23323
1701.31,0.181661,28175,18544