File: samples/wool/wool-000811/Column 1_050573_20150331_121040.csv
Method:,Column 1,,
Host Date-Time:,31/3/15 @ 12:10:40,,
Header Version:,1,,
System Temp (C):,34.16,,
Detector Temp (C):,34.33,,
Humidity (%):,1.76,,
Lamp PD:,3818,,
Shift Vector Coefficients:,-10.5391,0.0761263,-0.000134223,,
Pixel to Wavelength Coefficients:,1775.68,-0.916766,-0.000235065,,
Serial Number:,5510004,,
Scan Config Name:,Column 1,,
Scan Config Type:,Slew,,
Section 1,,
Start wavelength (nm):,900,,
End wavelength (nm):,1700,,
Pattern Pixel Width (nm):,   7.03,,,,
Exposure (ms):,  0.635,,,,
Digital Resolution:,228,,
Num Repeats:,6,,
PGA Gain:,64,,
Total Measurement Time in sec:,  2.728,,
Wavelength (nm),Absorbance (AU),Reference Signal (unitless),Sample Signal (unitless)
901.51,0.035048,108485,100074
905.376,0.040445,121306,110519
909.237,0.044735,131909,118998
913.095,0.043246,143299,129717
916.948,0.045963,156982,141217
922.079,0.048462,179937,160938
925.923,0.049132,200504,179057
929.762,0.050407,222660,198260
933.597,0.049645,244426,218023
937.427,0.049080,263972,235764
941.254,0.048375,281845,252136
945.076,0.047783,297271,266299
950.165,0.047407,315605,282968
953.978,0.047274,328029,294197
957.786,0.046678,340470,305774
961.59,0.047626,352317,315724
965.389,0.047351,363056,325554
969.185,0.046692,373162,335124
972.976,0.047661,382632,342863
976.763,0.048164,391202,350136
981.806,0.049130,400190,357385
985.583,0.049412,406088,362417
989.355,0.049652,410162,365850
993.124,0.050143,412868,367848
996.888,0.051073,414263,368301
1000.65,0.052151,415476,368464
1004.4,0.052697,415479,368004
1009.41,0.054668,414358,365349
1013.15,0.054831,412923,363947
1016.89,0.055293,411526,362330
1020.63,0.055163,409066,360272
1024.36,0.054967,406777,358418
1028.09,0.054984,404427,356333
1031.82,0.054868,401911,354211
1036.78,0.054242,398410,351632
1040.49,0.053758,396204,350075
1044.2,0.053354,394236,348660
1047.91,0.053459,392042,346636
1051.61,0.052598,389823,345358
1055.31,0.052481,388234,344043
1059,0.051944,387599,343905
1063.92,0.050574,386688,344181
1067.61,0.049230,386598,345167
1071.29,0.049082,387377,345981
1074.96,0.048536,388536,347452
1078.63,0.048374,389855,348762
1082.3,0.047445,391215,350728
1085.96,0.046752,393215,353084
1090.84,0.045648,396270,356733
1094.49,0.045895,398760,358770
1098.14,0.045414,400987,361174
1101.79,0.044927,403477,363824
1105.43,0.044384,406116,366662
1109.06,0.044045,407701,368381
1112.7,0.044212,409859,370188
1117.53,0.044090,412494,372673
1121.15,0.045626,414909,373531
1124.77,0.045367,416559,375240
1128.38,0.047187,418532,375441
1131.99,0.047770,419956,376213
1135.6,0.050056,421946,376011
1139.2,0.052328,423881,375765
1143.99,0.054344,426786,376588
1147.58,0.055292,428617,377379
1151.17,0.056219,431169,378816
1154.75,0.057784,433579,379563
1158.33,0.058686,436264,381121
1161.91,0.061731,439132,380947
1165.48,0.063552,442389,382166
1169.04,0.066399,446101,382855
1173.79,0.070064,451929,384597
1177.34,0.072765,456026,385678
1180.9,0.074792,461306,388327
1184.44,0.076523,467657,392107
1187.99,0.077852,473969,396185
1191.52,0.077263,479856,401650
1195.06,0.076713,487372,408458
1199.76,0.076427,497347,417093
1203.29,0.075103,504311,424224
1206.81,0.074321,511507,431053
1210.33,0.073517,519078,438244
1213.84,0.072732,527163,445875
1217.35,0.072436,534208,452141
1220.85,0.071583,540472,458343
1225.51,0.070624,549929,467393
1229.01,0.069663,556888,474357
1232.5,0.068939,562180,479663
1235.98,0.068733,567975,484838
1239.46,0.067089,574815,492537
1242.94,0.066613,582782,499912
1246.41,0.066248,591476,507796
1251.03,0.065410,604016,519563
1254.5,0.065835,612289,526165
1257.96,0.066325,619125,531439
1261.41,0.066812,624551,535495
1264.86,0.067506,629900,539220
1268.31,0.067979,634345,542434
1271.75,0.068890,638574,544905
1276.33,0.069045,642499,548059
1279.76,0.068828,645905,551240
1283.19,0.068509,648307,553696
1286.61,0.068077,650446,556076
1290.03,0.067690,652132,558015
1293.44,0.067403,653907,559903
1296.85,0.067063,655963,562103
1301.39,0.066764,657349,563679
1304.8,0.066858,657558,563737
1308.19,0.067271,658515,564020
1311.58,0.067573,658804,563876
1314.97,0.067570,659011,564057
1318.36,0.068074,658272,562770
1321.73,0.068347,658022,562203
1326.23,0.069248,657870,560909
1329.6,0.070239,656482,558449
1332.97,0.070929,654926,556241
1336.33,0.072328,653727,553437
1339.69,0.073775,652497,550558
1343.04,0.075946,649913,545644
1346.39,0.077938,647671,541273
1349.73,0.079955,645338,536825
1354.18,0.083176,641175,529420
1357.52,0.085445,638376,524362
1360.85,0.087507,635805,519777
1364.17,0.090134,633413,514699
1367.49,0.092629,631026,509822
1370.81,0.094480,628050,505259
1374.12,0.097261,625034,499623
1378.54,0.100433,620272,492209
1381.84,0.104054,616892,485462
1385.14,0.107715,613613,478828
1388.43,0.111721,611526,472818
1391.72,0.116370,610663,467123
1395.01,0.121292,610634,461837
1398.29,0.126779,611700,456835
1402.66,0.133060,614051,452006
1405.93,0.138691,616268,447794
1409.2,0.143674,617795,443783
1412.46,0.148559,618872,439584
1415.72,0.153190,619795,435570
1418.98,0.157169,620495,432085
1422.23,0.160942,621087,428756
1426.56,0.164870,621375,425093
1429.8,0.167629,621616,422565
1433.04,0.170901,622129,419739
1436.27,0.173016,621526,417295
1439.5,0.174865,621113,415246
1442.72,0.177713,620921,412404
1445.94,0.179954,620270,409852
1450.23,0.184277,618860,404870
1453.44,0.186444,617697,402098
1456.64,0.189442,616264,398405
1459.85,0.192867,614413,394088
1463.04,0.195650,612307,390229
1466.24,0.199046,610032,385751
1469.43,0.203197,607345,380398
1473.67,0.209013,603789,373140
1476.85,0.215031,601175,366412
1480.02,0.221314,597737,359084
1483.19,0.228462,594479,351297
1486.36,0.234950,591232,344198
1489.52,0.240167,587853,338144
1492.68,0.243693,583875,333140
1496.89,0.246338,578062,327821
1500.03,0.247198,574159,324963
1503.18,0.246963,570285,322945
1506.32,0.246850,565444,320287
1509.45,0.244912,560571,318947
1512.58,0.243112,555821,317558
1515.71,0.241270,550344,315765
1519.87,0.237918,543983,314534
1522.99,0.235208,538764,313466
1526.1,0.232794,533692,312246
1529.21,0.228936,527902,311614
1532.32,0.226093,521886,310086
1535.42,0.223593,515888,308292
1538.51,0.220375,509987,307032
1541.6,0.216373,503936,306198
1545.72,0.212184,494694,303496
1548.8,0.208170,488378,302403
1551.88,0.206383,481832,299580
1554.95,0.204247,474989,296781
1558.02,0.202099,467818,293750
1561.08,0.201711,460730,289558
1564.15,0.200523,454170,286217
1568.22,0.199782,444181,280400
1571.27,0.198958,436947,276357
1574.32,0.197673,429598,272514
1577.36,0.196641,422039,268356
1580.4,0.194717,414375,264653
1583.43,0.193382,406354,260329
1586.46,0.191106,398475,256623
1590.49,0.188991,388982,251732
1593.51,0.187967,380708,246959
1596.53,0.184956,372727,243464
1599.54,0.182830,365060,239626
1602.55,0.180773,357543,235806
1605.55,0.178288,349495,231821
1608.55,0.176525,341154,227209
1612.54,0.173558,330877,221875
1615.53,0.171257,322904,217679
1618.51,0.171083,315116,212514
1621.49,0.169756,307217,207821
1624.47,0.168632,299481,203113
1627.44,0.167373,292112,198690
1630.41,0.166041,284245,193933
1634.36,0.164974,274079,187457
1637.32,0.163734,266916,183080
1640.27,0.163254,259612,178267
1643.22,0.161533,251804,173592
1646.16,0.161620,244348,168418
1649.1,0.160532,236703,163558
1652.04,0.157790,228171,158661
1655.95,0.155699,215408,150509
1658.88,0.153484,204937,143925
1661.8,0.148373,193395,137427
1664.72,0.141401,179728,129782
1667.63,0.130338,163642,121215
1670.54,0.116601,146312,111861
1673.44,0.102631,128451,101416
1677.31,0.085067,105080,86388
1680.21,0.077732,88906,74336
1683.1,0.071352,75033,63665
1685.99,0.077089,63520,53189
1688.87,0.078819,53714,44799
1691.75,0.088378,45653,37247
1694.62,0.092612,39137,31621
1697.49,0.094918,33776,27145
1701.31,0.109420,28175,21900