File: samples/wool/wool-000811/Column 1_050602_20150331_122443.csv
Method:,Column 1,,
Host Date-Time:,31/3/15 @ 12:24:43,,
Header Version:,1,,
System Temp (C):,34.02,,
Detector Temp (C):,34.8,,
Humidity (%):,1.76,,
Lamp PD:,3818,,
Shift Vector Coefficients:,-10.5391,0.0761263,-0.000134223,,
Pixel to Wavelength Coefficients:,1775.68,-0.916766,-0.000235065,,
Serial Number:,5510004,,
Scan Config Name:,Column 1,,
Scan Config Type:,Slew,,
Section 1,,
Start wavelength (nm):,900,,
End wavelength (nm):,1700,,
Pattern Pixel Width (nm):,   7.03,,,,
Exposure (ms):,  0.635,,,,
Digital Resolution:,228,,
Num Repeats:,6,,
PGA Gain:,64,,
Total Measurement Time in sec:,  2.670,,
Wavelength (nm),Absorbance (AU),Reference Signal (unitless),Sample Signal (unitless)
901.51,0.069101,108485,92527
905.376,0.073099,121306,102514
909.237,0.078408,131909,110120
913.095,0.079905,143299,119217
916.948,0.078894,156982,130905
922.079,0.081838,179937,149033
925.923,0.082122,200504,165959
929.762,0.082999,222660,183926
933.597,0.082787,244426,202004
937.427,0.081387,263972,218862
941.254,0.080242,281845,234298
945.076,0.079598,297271,247488
950.165,0.078085,315605,263669
953.978,0.077913,328029,274157
957.786,0.078276,340470,284317
961.59,0.078468,352317,294080
965.389,0.077879,363056,303455
969.185,0.078338,373162,311573
972.976,0.078630,382632,319265
976.763,0.078745,391202,326329
981.806,0.078768,400190,333809
985.583,0.080619,406088,337288
989.355,0.080814,410162,340519
993.124,0.080941,412868,342665
996.888,0.081126,414263,343677
1000.65,0.082020,415476,343974
1004.4,0.083304,415479,342961
1009.41,0.084745,414358,340903
1013.15,0.085251,412923,339327
1016.89,0.085601,411526,337906
1020.63,0.085370,409066,336065
1024.36,0.085142,406777,334360
1028.09,0.085295,404427,332311
1031.82,0.085221,401911,330300
1036.78,0.084848,398410,327704
1040.49,0.084320,396204,326286
1044.2,0.084398,394236,324607
1047.91,0.084060,392042,323052
1051.61,0.083535,389823,321612
1055.31,0.083297,388234,320477
1059,0.082884,387599,320257
1063.92,0.082224,386688,319990
1067.61,0.081287,386598,320607
1071.29,0.081522,387377,321079
1074.96,0.080698,388536,322651
1078.63,0.079983,389855,324280
1082.3,0.079090,391215,326081
1085.96,0.078617,393215,328105
1090.84,0.077259,396270,331690
1094.49,0.076412,398760,334426
1098.14,0.076313,400987,336370
1101.79,0.076163,403477,338576
1105.43,0.075767,406116,341101
1109.06,0.074616,407701,343341
1112.7,0.074562,409859,345201
1117.53,0.074155,412494,347746
1121.15,0.074542,414909,349471
1124.77,0.074697,416559,350735
1128.38,0.075553,418532,351703
1131.99,0.076894,419956,351811
1135.6,0.077993,421946,352585
1139.2,0.079115,423881,353288
1143.99,0.081724,426786,353579
1147.58,0.082315,428617,354613
1151.17,0.083737,431169,355558
1154.75,0.083973,433579,357351
1158.33,0.085214,436264,358538
1161.91,0.087074,439132,359353
1165.48,0.089479,442389,360019
1169.04,0.091321,446101,361503
1173.79,0.095148,451929,363013
1177.34,0.096926,456026,364807
1180.9,0.099090,461306,367197
1184.44,0.100958,467657,370655
1187.99,0.102060,473969,374705
1191.52,0.102107,479856,379318
1195.06,0.102272,487372,385113
1199.76,0.100769,497347,394358
1203.29,0.100313,504311,400300
1206.81,0.099671,511507,406612
1210.33,0.098880,519078,413383
1213.84,0.098400,527163,420286
1217.35,0.098228,534208,426071
1220.85,0.097054,540472,432234
1225.51,0.096573,549929,440285
1229.01,0.096228,556888,446211
1232.5,0.095822,562180,450872
1235.98,0.094863,567975,456527
1239.46,0.094100,574815,462837
1242.94,0.093103,582782,470330
1246.41,0.092526,591476,477981
1251.03,0.092446,604016,488205
1254.5,0.092672,612289,494635
1257.96,0.093442,619125,499271
1261.41,0.093368,624551,503733
1264.86,0.094102,629900,507189
1268.31,0.094857,634345,509881
1271.75,0.095218,638574,512853
1276.33,0.095378,642499,515815
1279.76,0.095024,645905,518973
1283.19,0.094591,648307,521422
1286.61,0.094450,650446,523313
1290.03,0.093993,652132,525222
1293.44,0.093586,653907,527145
1296.85,0.093429,655963,528993
1301.39,0.093074,657349,530545
1304.8,0.092785,657558,531067
1308.19,0.093103,658515,531450
1311.58,0.093188,658804,531579
1314.97,0.093888,659011,530890
1318.36,0.094361,658272,529717
1321.73,0.094652,658022,529162
1326.23,0.095556,657870,527940
1329.6,0.096210,656482,526033
1332.97,0.096926,654926,523922
1336.33,0.098037,653727,521626
1339.69,0.099370,652497,519049
1343.04,0.100862,649913,515221
1346.39,0.102892,647671,511049
1349.73,0.105070,645338,506661
1354.18,0.107775,641175,500267
1357.52,0.110121,638376,495399
1360.85,0.111590,635805,491738
1364.17,0.113818,633413,487381
1367.49,0.115867,631026,483259
1370.81,0.118010,628050,478613
1374.12,0.120072,625034,474058
1378.54,0.122653,620272,467659
1381.84,0.126070,616892,461465
1385.14,0.129489,613613,455413
1388.43,0.133106,611526,450100
1391.72,0.136821,610663,445636
1395.01,0.140957,610634,441392
1398.29,0.146079,611700,436978
1402.66,0.152094,614051,432624
1405.93,0.157055,616268,429254
1409.2,0.161952,617795,425493
1412.46,0.166549,618872,421747
1415.72,0.170479,619795,418571
1418.98,0.174351,620495,415324
1422.23,0.177208,621087,412995
1426.56,0.181147,621375,409456
1429.8,0.183829,621616,407093
1433.04,0.186028,622129,405371
1436.27,0.188598,621526,402588
1439.5,0.190267,621113,400778
1442.72,0.192513,620921,398587
1445.94,0.195423,620270,395510
1450.23,0.199473,618860,390948
1453.44,0.202224,617697,387750
1456.64,0.204028,616264,385247
1459.85,0.207099,614413,381383
1463.04,0.209951,612307,377588
1466.24,0.213353,610032,373250
1469.43,0.216945,607345,368545
1473.67,0.223095,603789,361235
1476.85,0.228806,601175,354973
1480.02,0.234407,597737,348420
1483.19,0.240845,594479,341422
1486.36,0.246256,591232,335353
1489.52,0.250652,587853,330078
1492.68,0.254907,583875,324648
1496.89,0.256652,578062,320127
1500.03,0.256973,574159,317731
1503.18,0.256965,570285,315593
1506.32,0.255715,565444,313816
1509.45,0.255025,560571,311606
1512.58,0.253998,555821,309697
1515.71,0.251479,550344,308429
1519.87,0.248825,543983,306733
1522.99,0.245887,538764,305852
1526.1,0.242913,533692,305055
1529.21,0.239901,527902,303845
1532.32,0.236994,521886,302400
1535.42,0.234341,515888,300756
1538.51,0.232081,509987,298867
1541.6,0.229011,503936,297416
1545.72,0.224606,494694,294938
1548.8,0.222256,488378,292752
1551.88,0.220149,481832,290233
1554.95,0.217468,474989,287883
1558.02,0.215607,467818,284754
1561.08,0.214912,460730,280889
1564.15,0.214327,454170,277263
1568.22,0.213235,444181,271847
1571.27,0.212730,436947,267731
1574.32,0.211320,429598,264084
1577.36,0.210545,422039,259901
1580.4,0.209571,414375,255754
1583.43,0.208365,406354,251501
1586.46,0.206710,398475,247566
1590.49,0.204504,388982,242899
1593.51,0.203044,380708,238533
1596.53,0.200475,372727,234918
1599.54,0.199294,365060,230712
1602.55,0.197704,357543,226790
1605.55,0.195115,349495,223011
1608.55,0.193203,341154,218649
1612.54,0.191507,330877,212892
1615.53,0.190418,322904,208284
1618.51,0.188908,315116,203968
1621.49,0.188245,307217,199159
1624.47,0.186823,299481,194781
1627.44,0.185481,292112,190576
1630.41,0.184591,284245,185824
1634.36,0.182859,274079,179894
1637.32,0.182642,266916,175280
1640.27,0.180687,259612,171253
1643.22,0.181541,251804,165776
1646.16,0.180531,244348,161242
1649.1,0.178548,236703,156912
1652.04,0.178312,228171,151338
1655.95,0.175002,215408,143966
1658.88,0.171656,204937,138027
1661.8,0.165865,193395,132002
1664.72,0.157397,179728,125089
1667.63,0.146162,163642,116878
1670.54,0.131563,146312,108073
1673.44,0.116365,128451,98259
1677.31,0.094396,105080,84552
1680.21,0.084046,88906,73263
1683.1,0.079817,75033,62436
1685.99,0.080022,63520,52831
1688.87,0.082382,53714,44433
1691.75,0.086958,45653,37369
1694.62,0.100065,39137,31083
1697.49,0.093784,33776,27216
1701.31,0.110850,28175,21828