File: samples/wool/wool-000811/Column 1_050544_20150331_115709.csv
Method:,Column 1,,
Host Date-Time:,31/3/15 @ 11:57:9,,
Header Version:,1,,
System Temp (C):,32.78,,
Detector Temp (C):,31.24,,
Humidity (%):,2.64,,
Lamp PD:,3823,,
Shift Vector Coefficients:,-10.5391,0.0761263,-0.000134223,,
Pixel to Wavelength Coefficients:,1775.68,-0.916766,-0.000235065,,
Serial Number:,5510004,,
Scan Config Name:,Column 1,,
Scan Config Type:,Slew,,
Section 1,,
Start wavelength (nm):,900,,
End wavelength (nm):,1700,,
Pattern Pixel Width (nm):,   7.03,,,,
Exposure (ms):,  0.635,,,,
Digital Resolution:,228,,
Num Repeats:,6,,
PGA Gain:,64,,
Total Measurement Time in sec:,  2.727,,
Wavelength (nm),Absorbance (AU),Reference Signal (unitless),Sample Signal (unitless)
901.51,0.044636,108485,97889
905.376,0.051566,121306,107725
909.237,0.052583,131909,116867
913.095,0.051841,143299,127175
916.948,0.052960,156982,138960
922.079,0.052608,179937,159409
925.923,0.053581,200504,177232
929.762,0.054021,222660,196617
933.597,0.055081,244426,215311
937.427,0.054400,263972,232894
941.254,0.054329,281845,248703
945.076,0.055208,297271,261785
950.165,0.054787,315605,278200
953.978,0.053689,328029,289883
957.786,0.055447,340470,299662
961.59,0.055341,352317,310165
965.389,0.055387,363056,319585
969.185,0.056082,373162,327956
972.976,0.056423,382632,336015
976.763,0.056486,391202,343491
981.806,0.057593,400190,350488
985.583,0.058268,406088,355101
989.355,0.058960,410162,358093
993.124,0.059790,412868,359767
996.888,0.059972,414263,360831
1000.65,0.060983,415476,361046
1004.4,0.062210,415479,360030
1009.41,0.063190,414358,358250
1013.15,0.063643,412923,356637
1016.89,0.064388,411526,354821
1020.63,0.064286,409066,352783
1024.36,0.064114,406777,350948
1028.09,0.063909,404427,349085
1031.82,0.063560,401911,347192
1036.78,0.062738,398410,344820
1040.49,0.061521,396204,343873
1044.2,0.062008,394236,341781
1047.91,0.061023,392042,340651
1051.61,0.059988,389823,339531
1055.31,0.059875,388234,338235
1059,0.058947,387599,338404
1063.92,0.057753,386688,338538
1067.61,0.056457,386598,339471
1071.29,0.056012,387377,340504
1074.96,0.056055,388536,341489
1078.63,0.055236,389855,343295
1082.3,0.053887,391215,345564
1085.96,0.053158,393215,347914
1090.84,0.052208,396270,351385
1094.49,0.051213,398760,354404
1098.14,0.051486,400987,356159
1101.79,0.051484,403477,358373
1105.43,0.051066,406116,361064
1109.06,0.050074,407701,363302
1112.7,0.050484,409859,364880
1117.53,0.050748,412494,367003
1121.15,0.051722,414909,368325
1124.77,0.052494,416559,369133
1128.38,0.053887,418532,369693
1131.99,0.055057,419956,369953
1135.6,0.057156,421946,369914
1139.2,0.059257,423881,369817
1143.99,0.061705,426786,370259
1147.58,0.063357,428617,370435
1151.17,0.064892,431169,371326
1154.75,0.065942,433579,372500
1158.33,0.068056,436264,372987
1161.91,0.070402,439132,373416
1165.48,0.072868,442389,374056
1169.04,0.076378,446101,374158
1173.79,0.080578,451929,375398
1177.34,0.082820,456026,376851
1180.9,0.085387,461306,378968
1184.44,0.087642,467657,382195
1187.99,0.088777,473969,386343
1191.52,0.087838,479856,391988
1195.06,0.087268,487372,398651
1199.76,0.086008,497347,407992
1203.29,0.084942,504311,414721
1206.81,0.083665,511507,421878
1210.33,0.082099,519078,429669
1213.84,0.080988,527163,437479
1217.35,0.079980,534208,444355
1220.85,0.078901,540472,450684
1225.51,0.078032,549929,459488
1229.01,0.077303,556888,466085
1232.5,0.075931,562180,472003
1235.98,0.075733,567975,477086
1239.46,0.074079,574815,484673
1242.94,0.072831,582782,492805
1246.41,0.072402,591476,500651
1251.03,0.072035,604016,511698
1254.5,0.071903,612289,518864
1257.96,0.072697,619125,523699
1261.41,0.072899,624551,528043
1264.86,0.073250,629900,532135
1268.31,0.073935,634345,535045
1271.75,0.074806,638574,537533
1276.33,0.075061,642499,540520
1279.76,0.075383,645905,542982
1283.19,0.074537,648307,546064
1286.61,0.074289,650446,548179
1290.03,0.073705,652132,550339
1293.44,0.073391,653907,552236
1296.85,0.072874,655963,554632
1301.39,0.072710,657349,556014
1304.8,0.072535,657558,556415
1308.19,0.073175,658515,556404
1311.58,0.073055,658804,556803
1314.97,0.073813,659011,556006
1318.36,0.074227,658272,554854
1321.73,0.075095,658022,553536
1326.23,0.076029,657870,552219
1329.6,0.076826,656482,550043
1332.97,0.078044,654926,547203
1336.33,0.079154,653727,544807
1339.69,0.080958,652497,541527
1343.04,0.083141,649913,536678
1346.39,0.085825,647671,531532
1349.73,0.087869,645338,527131
1354.18,0.091485,641175,519388
1357.52,0.093836,638376,514328
1360.85,0.095991,635805,509722
1364.17,0.098880,633413,504437
1367.49,0.101028,631026,500057
1370.81,0.103968,628050,494341
1374.12,0.106714,625034,488866
1378.54,0.110592,620272,480828
1381.84,0.114953,616892,473430
1385.14,0.118713,613613,466855
1388.43,0.124351,611526,459266
1391.72,0.130029,610663,452660
1395.01,0.135449,610634,447025
1398.29,0.141822,611700,441282
1402.66,0.150337,614051,434378
1405.93,0.156603,616268,429701
1409.2,0.162468,617795,424988
1412.46,0.168918,618872,419453
1415.72,0.173811,619795,415372
1418.98,0.179065,620495,410841
1422.23,0.182655,621087,407847
1426.56,0.187788,621375,403242
1429.8,0.190418,621616,400963
1433.04,0.193641,622129,398327
1436.27,0.195956,621526,395825
1439.5,0.197920,621113,393777
1442.72,0.200634,620921,391203
1445.94,0.203455,620270,388263
1450.23,0.207200,618860,384054
1453.44,0.210186,617697,380706
1456.64,0.212974,616264,377392
1459.85,0.215549,614413,374034
1463.04,0.218350,612307,370356
1466.24,0.221258,610032,366517
1469.43,0.225058,607345,361724
1473.67,0.230481,603789,355144
1476.85,0.235415,601175,349612
1480.02,0.240827,597737,343307
1483.19,0.247659,594479,336107
1486.36,0.253289,591232,329966
1489.52,0.258667,587853,324042
1492.68,0.262943,583875,318696
1496.89,0.265614,578062,313589
1500.03,0.265411,574159,311617
1503.18,0.266477,570285,308756
1506.32,0.265611,565444,306746
1509.45,0.264983,560571,304542
1512.58,0.263456,555821,303025
1515.71,0.261252,550344,301566
1519.87,0.257976,543983,300337
1522.99,0.255861,538764,298908
1526.1,0.252637,533692,298300
1529.21,0.249244,527902,297378
1532.32,0.246158,521886,296086
1535.42,0.242689,515888,295030
1538.51,0.239555,509987,293768
1541.6,0.235852,503936,292768
1545.72,0.230914,494694,290685
1548.8,0.228126,488378,288822
1551.88,0.225023,481832,286994
1554.95,0.222464,474989,284590
1558.02,0.219923,467818,281938
1561.08,0.219516,460730,277927
1564.15,0.218803,454170,274420
1568.22,0.217850,444181,268974
1571.27,0.216801,436947,265233
1574.32,0.215617,429598,261484
1577.36,0.213745,422039,257993
1580.4,0.212382,414375,254104
1583.43,0.210541,406354,250244
1586.46,0.209125,398475,246193
1590.49,0.206286,388982,241904
1593.51,0.203966,380708,238027
1596.53,0.201748,372727,234230
1599.54,0.199038,365060,230848
1602.55,0.196402,357543,227471
1605.55,0.194350,349495,223404
1608.55,0.192270,341154,219119
1612.54,0.190053,330877,213606
1615.53,0.187324,322904,209773
1618.51,0.185536,315116,205558
1621.49,0.184636,307217,200821
1624.47,0.182567,299481,196699
1627.44,0.181563,292112,192303
1630.41,0.181030,284245,187354
1634.36,0.176796,274079,182423
1637.32,0.177237,266916,177475
1640.27,0.175764,259612,173205
1643.22,0.175110,251804,168249
1646.16,0.174406,244348,163532
1649.1,0.174377,236703,158426
1652.04,0.172274,228171,153457
1655.95,0.169355,215408,145850
1658.88,0.167488,204937,139358
1661.8,0.164915,193395,132291
1664.72,0.161692,179728,123858
1667.63,0.155442,163642,114407
1670.54,0.149765,146312,103637
1673.44,0.142187,128451,92587
1677.31,0.135814,105080,76861
1680.21,0.131882,88906,65622
1683.1,0.132009,75033,55366
1685.99,0.138184,63520,46209
1688.87,0.141211,53714,38804
1691.75,0.149367,45653,32367
1694.62,0.149012,39137,27770
1697.49,0.152396,33776,23780
1701.31,0.162017,28175,19402