File: samples/wool/wool-000811/Column 1_050592_20150331_121956.csv
Method:,Column 1,,
Host Date-Time:,31/3/15 @ 12:19:56,,
Header Version:,1,,
System Temp (C):,33.91,,
Detector Temp (C):,34.62,,
Humidity (%):,1.76,,
Lamp PD:,3818,,
Shift Vector Coefficients:,-10.5391,0.0761263,-0.000134223,,
Pixel to Wavelength Coefficients:,1775.68,-0.916766,-0.000235065,,
Serial Number:,5510004,,
Scan Config Name:,Column 1,,
Scan Config Type:,Slew,,
Section 1,,
Start wavelength (nm):,900,,
End wavelength (nm):,1700,,
Pattern Pixel Width (nm):,   7.03,,,,
Exposure (ms):,  0.635,,,,
Digital Resolution:,228,,
Num Repeats:,6,,
PGA Gain:,64,,
Total Measurement Time in sec:,  2.675,,
Wavelength (nm),Absorbance (AU),Reference Signal (unitless),Sample Signal (unitless)
901.51,0.068960,108485,92557
905.376,0.075683,121306,101906
909.237,0.076665,131909,110563
913.095,0.077565,143299,119861
916.948,0.079262,156982,130794
922.079,0.080291,179937,149565
925.923,0.081631,200504,166147
929.762,0.082117,222660,184300
933.597,0.082426,244426,202172
937.427,0.081556,263972,218777
941.254,0.080867,281845,233961
945.076,0.079567,297271,247506
950.165,0.079416,315605,262862
953.978,0.078774,328029,273614
957.786,0.078444,340470,284207
961.59,0.079138,352317,293627
965.389,0.078254,363056,303193
969.185,0.079073,373162,311046
972.976,0.079102,382632,318918
976.763,0.079893,391202,325468
981.806,0.080587,400190,332414
985.583,0.081418,406088,336668
989.355,0.081608,410162,339897
993.124,0.081734,412868,342040
996.888,0.082138,414263,342877
1000.65,0.082957,415476,343233
1004.4,0.083470,415479,342830
1009.41,0.084970,414358,340726
1013.15,0.085835,412923,338871
1016.89,0.085995,411526,337600
1020.63,0.085995,409066,335582
1024.36,0.086240,406777,333516
1028.09,0.085439,404427,332201
1031.82,0.085906,401911,329780
1036.78,0.085898,398410,326913
1040.49,0.085830,396204,325154
1044.2,0.085698,394236,323637
1047.91,0.084627,392042,322631
1051.61,0.084257,389823,321078
1055.31,0.084495,388234,319594
1059,0.083064,387599,320124
1063.92,0.082956,386688,319451
1067.61,0.082642,386598,319608
1071.29,0.081931,387377,320777
1074.96,0.081082,388536,322366
1078.63,0.080382,389855,323982
1082.3,0.079436,391215,325821
1085.96,0.078869,393215,327915
1090.84,0.078094,396270,331053
1094.49,0.077777,398760,333376
1098.14,0.077513,400987,335442
1101.79,0.076840,403477,338048
1105.43,0.076958,406116,340167
1109.06,0.075915,407701,342316
1112.7,0.075159,409859,344727
1117.53,0.074912,412494,347141
1121.15,0.075431,414909,348756
1124.77,0.076036,416559,349656
1128.38,0.076715,418532,350763
1131.99,0.077555,419956,351276
1135.6,0.079359,421946,351478
1139.2,0.080211,423881,352398
1143.99,0.082199,426786,353192
1147.58,0.083255,428617,353846
1151.17,0.084172,431169,355202
1154.75,0.085391,433579,356186
1158.33,0.086900,436264,357149
1161.91,0.088425,439132,358237
1165.48,0.090520,442389,359157
1169.04,0.093213,446101,359932
1173.79,0.095985,451929,362314
1177.34,0.097832,456026,364047
1180.9,0.100232,461306,366233
1184.44,0.101817,467657,369922
1187.99,0.103036,473969,373864
1191.52,0.103209,479856,378357
1195.06,0.102632,487372,384794
1199.76,0.102431,497347,392852
1203.29,0.101719,504311,399006
1206.81,0.101200,511507,405183
1210.33,0.100631,519078,411720
1213.84,0.099784,527163,418949
1217.35,0.099426,534208,424898
1220.85,0.098530,540472,430768
1225.51,0.097743,549929,439100
1229.01,0.097487,556888,444919
1232.5,0.096887,562180,449768
1235.98,0.096352,567975,454964
1239.46,0.095289,574815,461572
1242.94,0.094247,582782,469093
1246.41,0.093795,591476,476587
1251.03,0.093232,604016,487322
1254.5,0.093558,612289,493626
1257.96,0.094150,619125,498458
1261.41,0.094370,624551,502571
1264.86,0.094939,629900,506212
1268.31,0.095567,634345,509048
1271.75,0.096484,638574,511360
1276.33,0.096431,642499,514567
1279.76,0.096283,645905,517471
1283.19,0.095862,648307,519899
1286.61,0.096058,650446,521379
1290.03,0.095178,652132,523790
1293.44,0.094862,653907,525598
1296.85,0.095065,655963,527005
1301.39,0.094718,657349,528540
1304.8,0.094274,657558,529249
1308.19,0.094602,658515,529619
1311.58,0.094749,658804,529672
1314.97,0.095344,659011,529113
1318.36,0.095526,658272,528299
1321.73,0.096450,658022,526975
1326.23,0.096752,657870,526488
1329.6,0.097551,656482,524411
1332.97,0.098607,654926,521898
1336.33,0.099808,653727,519504
1339.69,0.101443,652497,516577
1343.04,0.103042,649913,512641
1346.39,0.104695,647671,508932
1349.73,0.106657,645338,504813
1354.18,0.109879,641175,497849
1357.52,0.111617,638376,493696
1360.85,0.113575,635805,489496
1364.17,0.115699,633413,485275
1367.49,0.117853,631026,481054
1370.81,0.120003,628050,476421
1374.12,0.122557,625034,471353
1378.54,0.125310,620272,464806
1381.84,0.128318,616892,459083
1385.14,0.131562,613613,453245
1388.43,0.135663,611526,447458
1391.72,0.139894,610663,442494
1395.01,0.143903,610634,438408
1398.29,0.148970,611700,434079
1402.66,0.156023,614051,428728
1405.93,0.161150,616268,425226
1409.2,0.166114,617795,421435
1412.46,0.171109,618872,417342
1415.72,0.174814,619795,414414
1418.98,0.178851,620495,411043
1422.23,0.182537,621087,407958
1426.56,0.186240,621375,404682
1429.8,0.189057,621616,402221
1433.04,0.191495,622129,400300
1436.27,0.193648,621526,397934
1439.5,0.195321,621113,396141
1442.72,0.198786,620921,392871
1445.94,0.200776,620270,390665
1450.23,0.203640,618860,387215
1453.44,0.206774,617697,383709
1456.64,0.209220,616264,380668
1459.85,0.212051,614413,377059
1463.04,0.214858,612307,373346
1466.24,0.217463,610032,369734
1469.43,0.221283,607345,364882
1473.67,0.226791,603789,358174
1476.85,0.231950,601175,352412
1480.02,0.237684,597737,345801
1483.19,0.244047,594479,338914
1486.36,0.249232,591232,333063
1489.52,0.253503,587853,327918
1492.68,0.256990,583875,323095
1496.89,0.259014,578062,318391
1500.03,0.260471,574159,315182
1503.18,0.259209,570285,313966
1506.32,0.258933,565444,311499
1509.45,0.257503,560571,309833
1512.58,0.255400,555821,308699
1515.71,0.253369,550344,307090
1519.87,0.251404,543983,304917
1522.99,0.247884,538764,304449
1526.1,0.245592,533692,303179
1529.21,0.242367,527902,302125
1532.32,0.240188,521886,300184
1535.42,0.236518,515888,299252
1538.51,0.233989,509987,297557
1541.6,0.231935,503936,295420
1545.72,0.227702,494694,292843
1548.8,0.224344,488378,291348
1551.88,0.221905,481832,289062
1554.95,0.220122,474989,286129
1558.02,0.218700,467818,282733
1561.08,0.217684,460730,279102
1564.15,0.216775,454170,275704
1568.22,0.215648,444181,270341
1571.27,0.214516,436947,266632
1574.32,0.214100,429598,262399
1577.36,0.213331,422039,258239
1580.4,0.211892,414375,254391
1583.43,0.209917,406354,250604
1586.46,0.208898,398475,246322
1590.49,0.206450,388982,241813
1593.51,0.204788,380708,237577
1596.53,0.203048,372727,233530
1599.54,0.200772,365060,229928
1602.55,0.199410,357543,225901
1605.55,0.196742,349495,222177
1608.55,0.194376,341154,218059
1612.54,0.192477,330877,212417
1615.53,0.191399,322904,207814
1618.51,0.190525,315116,203210
1621.49,0.189040,307217,198795
1624.47,0.187876,299481,194309
1627.44,0.187686,292112,189611
1630.41,0.186096,284245,185181
1634.36,0.184523,274079,179206
1637.32,0.184010,266916,174729
1640.27,0.184750,259612,169658
1643.22,0.183476,251804,165039
1646.16,0.181561,244348,160860
1649.1,0.180434,236703,156232
1652.04,0.177934,228171,151470
1655.95,0.175406,215408,143832
1658.88,0.171918,204937,137944
1661.8,0.168300,193395,131264
1664.72,0.159464,179728,124495
1667.63,0.146746,163642,116721
1670.54,0.133544,146312,107581
1673.44,0.118638,128451,97746
1677.31,0.097008,105080,84045
1680.21,0.085584,88906,73004
1683.1,0.079838,75033,62433
1685.99,0.078463,63520,53021
1688.87,0.085482,53714,44117
1691.75,0.092137,45653,36926
1694.62,0.094511,39137,31483
1697.49,0.097598,33776,26978
1701.31,0.109936,28175,21874