File: samples/wool/wool-000811/Column 1_050590_20150331_121853.csv
Method:,Column 1,,
Host Date-Time:,31/3/15 @ 12:18:53,,
Header Version:,1,,
System Temp (C):,33.86,,
Detector Temp (C):,34.61,,
Humidity (%):,1.86,,
Lamp PD:,3819,,
Shift Vector Coefficients:,-10.5391,0.0761263,-0.000134223,,
Pixel to Wavelength Coefficients:,1775.68,-0.916766,-0.000235065,,
Serial Number:,5510004,,
Scan Config Name:,Column 1,,
Scan Config Type:,Slew,,
Section 1,,
Start wavelength (nm):,900,,
End wavelength (nm):,1700,,
Pattern Pixel Width (nm):,   7.03,,,,
Exposure (ms):,  0.635,,,,
Digital Resolution:,228,,
Num Repeats:,6,,
PGA Gain:,64,,
Total Measurement Time in sec:,  2.682,,
Wavelength (nm),Absorbance (AU),Reference Signal (unitless),Sample Signal (unitless)
901.51,0.070069,108485,92321
905.376,0.075180,121306,102024
909.237,0.078846,131909,110009
913.095,0.079796,143299,119247
916.948,0.079627,156982,130684
922.079,0.081692,179937,149083
925.923,0.083097,200504,165587
929.762,0.083777,222660,183597
933.597,0.083414,244426,201713
937.427,0.081513,263972,218799
941.254,0.081484,281845,233629
945.076,0.080006,297271,247256
950.165,0.079826,315605,262614
953.978,0.079683,328029,273042
957.786,0.079396,340470,283585
961.59,0.079377,352317,293465
965.389,0.078996,363056,302676
969.185,0.079305,373162,310880
972.976,0.080093,382632,318191
976.763,0.080288,391202,325172
981.806,0.080095,400190,332791
985.583,0.080775,406088,337167
989.355,0.081325,410162,340119
993.124,0.081711,412868,342058
996.888,0.082548,414263,342553
1000.65,0.083011,415476,343190
1004.4,0.084391,415479,342104
1009.41,0.085483,414358,340324
1013.15,0.086155,412923,338621
1016.89,0.086216,411526,337428
1020.63,0.086012,409066,335569
1024.36,0.086363,406777,333421
1028.09,0.086353,404427,331503
1031.82,0.086132,401911,329608
1036.78,0.085759,398410,327018
1040.49,0.085665,396204,325277
1044.2,0.085253,394236,323969
1047.91,0.084923,392042,322411
1051.61,0.084552,389823,320860
1055.31,0.084564,388234,319543
1059,0.083766,387599,319607
1063.92,0.084160,386688,318567
1067.61,0.082753,386598,319526
1071.29,0.082924,387377,320044
1074.96,0.081480,388536,322071
1078.63,0.081335,389855,323272
1082.3,0.079810,391215,325541
1085.96,0.079696,393215,327291
1090.84,0.078459,396270,330775
1094.49,0.077753,398760,333395
1098.14,0.077443,400987,335496
1101.79,0.077013,403477,337914
1105.43,0.076579,406116,340464
1109.06,0.075666,407701,342512
1112.7,0.076364,409859,343772
1117.53,0.075342,412494,346797
1121.15,0.075927,414909,348358
1124.77,0.076482,416559,349297
1128.38,0.076774,418532,350715
1131.99,0.078041,419956,350883
1135.6,0.079233,421946,351580
1139.2,0.080675,423881,352021
1143.99,0.083036,426786,352512
1147.58,0.083987,428617,353250
1151.17,0.084692,431169,354777
1154.75,0.085528,433579,356074
1158.33,0.087286,436264,356832
1161.91,0.088672,439132,358033
1165.48,0.091518,442389,358333
1169.04,0.093026,446101,360087
1173.79,0.097205,451929,361298
1177.34,0.098467,456026,363515
1180.9,0.100555,461306,365960
1184.44,0.102445,467657,369388
1187.99,0.103313,473969,373626
1191.52,0.103311,479856,378268
1195.06,0.102666,487372,384764
1199.76,0.102606,497347,392693
1203.29,0.101570,504311,399143
1206.81,0.101580,511507,404829
1210.33,0.100652,519078,411700
1213.84,0.099969,527163,418770
1217.35,0.099552,534208,424774
1220.85,0.098910,540472,430391
1225.51,0.098423,549929,438413
1229.01,0.097610,556888,444793
1232.5,0.096898,562180,449756
1235.98,0.096832,567975,454462
1239.46,0.095326,574815,461532
1242.94,0.094604,582782,468708
1246.41,0.094753,591476,475537
1251.03,0.094133,604016,486313
1254.5,0.094251,612289,492840
1257.96,0.094649,619125,497885
1261.41,0.095435,624551,501341
1264.86,0.095712,629900,505312
1268.31,0.096116,634345,508405
1271.75,0.096405,638574,511454
1276.33,0.096856,642499,514063
1279.76,0.096634,645905,517053
1283.19,0.096700,648307,518897
1286.61,0.096170,650446,521244
1290.03,0.095638,652132,523236
1293.44,0.095428,653907,524914
1296.85,0.095349,655963,526660
1301.39,0.095064,657349,528119
1304.8,0.094679,657558,528756
1308.19,0.094952,658515,529192
1311.58,0.095030,658804,529330
1314.97,0.095639,659011,528754
1318.36,0.096081,658272,527624
1321.73,0.096347,658022,527100
1326.23,0.097217,657870,525924
1329.6,0.098251,656482,523567
1332.97,0.099238,654926,521140
1336.33,0.100325,653727,518885
1339.69,0.101791,652497,516164
1343.04,0.103322,649913,512311
1346.39,0.105184,647671,508359
1349.73,0.107231,645338,504146
1354.18,0.110202,641175,497479
1357.52,0.112361,638376,492851
1360.85,0.114404,635805,488562
1364.17,0.116371,633413,484525
1367.49,0.118353,631026,480501
1370.81,0.120783,628050,475567
1374.12,0.122790,625034,471101
1378.54,0.125890,620272,464186
1381.84,0.128635,616892,458748
1385.14,0.132594,613613,452169
1388.43,0.136151,611526,446955
1391.72,0.140864,610663,441507
1395.01,0.145448,610634,436851
1398.29,0.150191,611700,432860
1402.66,0.157178,614051,427589
1405.93,0.162556,616268,423851
1409.2,0.167470,617795,420121
1412.46,0.172168,618872,416325
1415.72,0.176779,619795,412543
1418.98,0.180532,620495,409455
1422.23,0.183736,621087,406833
1426.56,0.187785,621375,403245
1429.8,0.190287,621616,401084
1433.04,0.193425,622129,398525
1436.27,0.195371,621526,396359
1439.5,0.197779,621113,393905
1442.72,0.199537,620921,392193
1445.94,0.201564,620270,389957
1450.23,0.205078,618860,385935
1453.44,0.208353,617697,382316
1456.64,0.211538,616264,378642
1459.85,0.214137,614413,375252
1463.04,0.216047,612307,372325
1466.24,0.219264,610032,368204
1469.43,0.222180,607345,364129
1473.67,0.228611,603789,356676
1476.85,0.232967,601175,351588
1480.02,0.239386,597737,344448
1483.19,0.245213,594479,338005
1486.36,0.249879,591232,332567
1489.52,0.254705,587853,327012
1492.68,0.258003,583875,322342
1496.89,0.259704,578062,317885
1500.03,0.260344,574159,315274
1503.18,0.260377,570285,313123
1506.32,0.259890,565444,310813
1509.45,0.258039,560571,309451
1512.58,0.256249,555821,308096
1515.71,0.254667,550344,306173
1519.87,0.251998,543983,304500
1522.99,0.249060,538764,303626
1526.1,0.246098,533692,302826
1529.21,0.243811,527902,301122
1532.32,0.241138,521886,299528
1535.42,0.238211,515888,298088
1538.51,0.234705,509987,297067
1541.6,0.233398,503936,294427
1545.72,0.227960,494694,292669
1548.8,0.225505,488378,290570
1551.88,0.222946,481832,288370
1554.95,0.220988,474989,285559
1558.02,0.219498,467818,282214
1561.08,0.218342,460730,278679
1564.15,0.217469,454170,275264
1568.22,0.216553,444181,269778
1571.27,0.215115,436947,266265
1574.32,0.214715,429598,262028
1577.36,0.214282,422039,257674
1580.4,0.212729,414375,253901
1583.43,0.211302,406354,249806
1586.46,0.209515,398475,245972
1590.49,0.207776,388982,241076
1593.51,0.206049,380708,236888
1596.53,0.204098,372727,232966
1599.54,0.201616,365060,229482
1602.55,0.200149,357543,225517
1605.55,0.198734,349495,221160
1608.55,0.195995,341154,217248
1612.54,0.194839,330877,211265
1615.53,0.192338,322904,207365
1618.51,0.190981,315116,202997
1621.49,0.190212,307217,198259
1624.47,0.188767,299481,193911
1627.44,0.187088,292112,189872
1630.41,0.186824,284245,184871
1634.36,0.185975,274079,178608
1637.32,0.185820,266916,174002
1640.27,0.185255,259612,169461
1643.22,0.184003,251804,164839
1646.16,0.182536,244348,160499
1649.1,0.182163,236703,155611
1652.04,0.180490,228171,150581
1655.95,0.177983,215408,142981
1658.88,0.172709,204937,137693
1661.8,0.168915,193395,131078
1664.72,0.160484,179728,124203
1667.63,0.148431,163642,116269
1670.54,0.134547,146312,107333
1673.44,0.118305,128451,97821
1677.31,0.100203,105080,83429
1680.21,0.091255,88906,72057
1683.1,0.083127,75033,61962
1685.99,0.085140,63520,52212
1688.87,0.090840,53714,43576
1691.75,0.090810,45653,37039
1694.62,0.095520,39137,31410
1697.49,0.110406,33776,26194
1701.31,0.108113,28175,21966