File: samples/wool/wool-000811/Column 1_050571_20150331_121001.csv
Method:,Column 1,,
Host Date-Time:,31/3/15 @ 12:10:1,,
Header Version:,1,,
System Temp (C):,34.1,,
Detector Temp (C):,34.2,,
Humidity (%):,1.76,,
Lamp PD:,3818,,
Shift Vector Coefficients:,-10.5391,0.0761263,-0.000134223,,
Pixel to Wavelength Coefficients:,1775.68,-0.916766,-0.000235065,,
Serial Number:,5510004,,
Scan Config Name:,Column 1,,
Scan Config Type:,Slew,,
Section 1,,
Start wavelength (nm):,900,,
End wavelength (nm):,1700,,
Pattern Pixel Width (nm):,   7.03,,,,
Exposure (ms):,  0.635,,,,
Digital Resolution:,228,,
Num Repeats:,6,,
PGA Gain:,64,,
Total Measurement Time in sec:,  2.677,,
Wavelength (nm),Absorbance (AU),Reference Signal (unitless),Sample Signal (unitless)
901.51,0.036374,108485,99769
905.376,0.041275,121306,110308
909.237,0.045407,131909,118814
913.095,0.044745,143299,129270
916.948,0.046104,156982,141171
922.079,0.047343,179937,161353
925.923,0.048870,200504,179165
929.762,0.049383,222660,198728
933.597,0.050084,244426,217803
937.427,0.048644,263972,236001
941.254,0.048291,281845,252185
945.076,0.048116,297271,266095
950.165,0.047471,315605,282926
953.978,0.046678,328029,294601
957.786,0.047436,340470,305241
961.59,0.047601,352317,315742
965.389,0.047043,363056,325785
969.185,0.047778,373162,334287
972.976,0.047520,382632,342974
976.763,0.048363,391202,349976
981.806,0.049157,400190,357363
985.583,0.050028,406088,361903
989.355,0.049810,410162,365717
993.124,0.050313,412868,367704
996.888,0.051297,414263,368111
1000.65,0.051880,415476,368694
1004.4,0.053021,415479,367729
1009.41,0.054554,414358,365445
1013.15,0.054852,412923,363929
1016.89,0.055288,411526,362334
1020.63,0.055227,409066,360219
1024.36,0.054990,406777,358399
1028.09,0.054655,404427,356603
1031.82,0.054906,401911,354180
1036.78,0.053905,398410,351905
1040.49,0.054300,396204,349638
1044.2,0.053769,394236,348327
1047.91,0.053262,392042,346793
1051.61,0.053371,389823,344744
1055.31,0.052290,388234,344194
1059,0.051930,387599,343916
1063.92,0.050941,386688,343890
1067.61,0.049719,386598,344779
1071.29,0.049718,387377,345474
1074.96,0.049350,388536,346802
1078.63,0.047772,389855,349246
1082.3,0.047252,391215,350884
1085.96,0.046785,393215,353057
1090.84,0.045883,396270,356540
1094.49,0.045793,398760,358855
1098.14,0.045476,400987,361122
1101.79,0.044974,403477,363785
1105.43,0.044825,406116,366290
1109.06,0.044923,407701,367637
1112.7,0.044552,409859,369898
1117.53,0.044255,412494,372531
1121.15,0.045254,414909,373851
1124.77,0.045481,416559,375142
1128.38,0.047098,418532,375518
1131.99,0.048559,419956,375530
1135.6,0.050322,421946,375781
1139.2,0.051877,423881,376155
1143.99,0.054077,426786,376819
1147.58,0.055289,428617,377381
1151.17,0.056311,431169,378736
1154.75,0.057424,433579,379878
1158.33,0.059468,436264,380436
1161.91,0.061711,439132,380964
1165.48,0.064214,442389,381584
1169.04,0.066212,446101,383020
1173.79,0.070192,451929,384484
1177.34,0.072782,456026,385663
1180.9,0.074967,461306,388170
1184.44,0.076754,467657,391898
1187.99,0.077684,473969,396338
1191.52,0.077297,479856,401619
1195.06,0.077532,487372,407689
1199.76,0.076212,497347,417299
1203.29,0.075315,504311,424017
1206.81,0.074706,511507,430671
1210.33,0.073932,519078,437825
1213.84,0.072877,527163,445726
1217.35,0.072553,534208,452020
1220.85,0.071160,540472,458789
1225.51,0.070349,549929,467690
1229.01,0.069904,556888,474093
1232.5,0.069424,562180,479128
1235.98,0.068745,567975,484824
1239.46,0.067477,574815,492097
1242.94,0.067012,582782,499453
1246.41,0.065923,591476,508176
1251.03,0.065887,604016,518993
1254.5,0.066187,612289,525738
1257.96,0.066447,619125,531290
1261.41,0.067067,624551,535181
1264.86,0.067786,629900,538872
1268.31,0.067954,634345,542465
1271.75,0.068784,638574,545038
1276.33,0.068987,642499,548133
1279.76,0.069027,645905,550988
1283.19,0.068625,648307,553548
1286.61,0.068227,650446,555884
1290.03,0.067935,652132,557700
1293.44,0.067191,653907,560176
1296.85,0.067185,655963,561946
1301.39,0.067106,657349,563236
1304.8,0.067251,657558,563227
1308.19,0.067237,658515,564065
1311.58,0.067198,658804,564362
1314.97,0.068000,659011,563499
1318.36,0.068308,658272,562468
1321.73,0.068506,658022,561997
1326.23,0.069754,657870,560256
1329.6,0.070652,656482,557918
1332.97,0.071192,654926,555904
1336.33,0.072618,653727,553068
1339.69,0.074289,652497,549907
1343.04,0.076232,649913,545284
1346.39,0.078705,647671,540318
1349.73,0.080135,645338,536602
1354.18,0.083366,641175,529189
1357.52,0.085870,638376,523850
1360.85,0.087989,635805,519200
1364.17,0.089804,633413,515090
1367.49,0.092779,631026,509646
1370.81,0.095016,628050,504636
1374.12,0.097137,625034,499766
1378.54,0.100672,620272,491938
1381.84,0.103846,616892,485695
1385.14,0.107816,613613,478717
1388.43,0.111392,611526,473176
1391.72,0.116541,610663,466939
1395.01,0.121230,610634,461903
1398.29,0.126423,611700,457210
1402.66,0.133676,614051,451366
1405.93,0.139133,616268,447339
1409.2,0.144322,617795,443121
1412.46,0.149307,618872,438828
1415.72,0.153822,619795,434937
1418.98,0.158139,620495,431121
1422.23,0.161512,621087,428194
1426.56,0.165878,621375,424107
1429.8,0.168496,621616,421722
1433.04,0.170985,622129,419658
1436.27,0.173233,621526,417087
1439.5,0.175678,621113,414470
1442.72,0.178319,620921,411829
1445.94,0.180498,620270,409339
1450.23,0.184411,618860,404745
1453.44,0.187429,617697,401187
1456.64,0.190642,616264,397306
1459.85,0.193260,614413,393732
1463.04,0.196789,612307,389207
1466.24,0.199788,610032,385092
1469.43,0.203131,607345,380456
1473.67,0.209570,603789,372662
1476.85,0.214920,601175,366506
1480.02,0.222043,597737,358482
1483.19,0.229342,594479,350586
1486.36,0.235229,591232,343977
1489.52,0.240389,587853,337971
1492.68,0.243998,583875,332906
1496.89,0.246140,578062,327970
1500.03,0.247730,574159,324565
1503.18,0.247480,570285,322561
1506.32,0.246380,565444,320634
1509.45,0.245476,560571,318533
1512.58,0.243522,555821,317258
1515.71,0.240953,550344,315996
1519.87,0.238137,543983,314375
1522.99,0.235347,538764,313366
1526.1,0.232413,533692,312520
1529.21,0.231762,527902,309593
1532.32,0.226737,521886,309627
1535.42,0.223050,515888,308678
1538.51,0.220339,509987,307058
1541.6,0.216907,503936,305822
1545.72,0.211856,494694,303725
1548.8,0.209956,488378,301162
1551.88,0.206637,481832,299405
1554.95,0.203977,474989,296966
1558.02,0.202225,467818,293665
1561.08,0.201077,460730,289981
1564.15,0.201203,454170,285769
1568.22,0.200635,444181,279850
1571.27,0.198619,436947,276573
1574.32,0.198220,429598,272171
1577.36,0.196137,422039,268668
1580.4,0.195683,414375,264065
1583.43,0.192837,406354,260656
1586.46,0.191473,398475,256406
1590.49,0.190467,388982,250878
1593.51,0.187401,380708,247281
1596.53,0.185524,372727,243146
1599.54,0.182883,365060,239597
1602.55,0.180569,357543,235917
1605.55,0.178142,349495,231899
1608.55,0.175799,341154,227589
1612.54,0.174501,330877,221394
1615.53,0.172192,322904,217211
1618.51,0.171001,315116,212554
1621.49,0.169720,307217,207838
1624.47,0.168110,299481,203357
1627.44,0.167695,292112,198543
1630.41,0.166608,284245,193680
1634.36,0.165141,274079,187385
1637.32,0.164802,266916,182630
1640.27,0.163980,259612,177969
1643.22,0.163152,251804,172946
1646.16,0.162126,244348,168222
1649.1,0.160835,236703,163444
1652.04,0.158464,228171,158415
1655.95,0.156199,215408,150336
1658.88,0.153442,204937,143939
1661.8,0.148367,193395,137429
1664.72,0.141786,179728,129667
1667.63,0.130184,163642,121258
1670.54,0.117935,146312,111518
1673.44,0.105182,128451,100822
1677.31,0.087694,105080,85867
1680.21,0.079905,88906,73965
1683.1,0.075767,75033,63021
1685.99,0.078971,63520,52959
1688.87,0.083556,53714,44313
1691.75,0.091773,45653,36957
1694.62,0.097349,39137,31278
1697.49,0.103302,33776,26626
1701.31,0.112744,28175,21733