File: samples/wool/wool-000811/Column 1_050579_20150331_121331.csv
Method:,Column 1,,
Host Date-Time:,31/3/15 @ 12:13:31,,
Header Version:,1,,
System Temp (C):,33.81,,
Detector Temp (C):,34.59,,
Humidity (%):,2.05,,
Lamp PD:,3819,,
Shift Vector Coefficients:,-10.5391,0.0761263,-0.000134223,,
Pixel to Wavelength Coefficients:,1775.68,-0.916766,-0.000235065,,
Serial Number:,5510004,,
Scan Config Name:,Column 1,,
Scan Config Type:,Slew,,
Section 1,,
Start wavelength (nm):,900,,
End wavelength (nm):,1700,,
Pattern Pixel Width (nm):,   7.03,,,,
Exposure (ms):,  0.635,,,,
Digital Resolution:,228,,
Num Repeats:,6,,
PGA Gain:,64,,
Total Measurement Time in sec:,  2.663,,
Wavelength (nm),Absorbance (AU),Reference Signal (unitless),Sample Signal (unitless)
901.51,0.071827,108485,91948
905.376,0.078059,121306,101350
909.237,0.079842,131909,109757
913.095,0.081054,143299,118902
916.948,0.081853,156982,130016
922.079,0.083344,179937,148517
925.923,0.084723,200504,164968
929.762,0.085616,222660,182821
933.597,0.084975,244426,200989
937.427,0.083384,263972,217858
941.254,0.082874,281845,232882
945.076,0.082470,297271,245857
950.165,0.080765,315605,262047
953.978,0.080630,328029,272447
957.786,0.080767,340470,282691
961.59,0.081136,352317,292279
965.389,0.080699,363056,301491
969.185,0.081642,373162,309211
972.976,0.081755,382632,316976
976.763,0.082461,391202,323549
981.806,0.082535,400190,330926
985.583,0.083561,406088,335011
989.355,0.083407,410162,338492
993.124,0.083739,412868,340465
996.888,0.084557,414263,340972
1000.65,0.085160,415476,341496
1004.4,0.086329,415479,340581
1009.41,0.087445,414358,338790
1013.15,0.087878,412923,337280
1016.89,0.088949,411526,335311
1020.63,0.088194,409066,333887
1024.36,0.087949,406777,332206
1028.09,0.087607,404427,330547
1031.82,0.088933,401911,327489
1036.78,0.087738,398410,325531
1040.49,0.087772,396204,323703
1044.2,0.088029,394236,321905
1047.91,0.087328,392042,320630
1051.61,0.086643,389823,319319
1055.31,0.086944,388234,317797
1059,0.086266,387599,317773
1063.92,0.085190,386688,317812
1067.61,0.084878,386598,317967
1071.29,0.084330,387377,319010
1074.96,0.084401,388536,319912
1078.63,0.083104,389855,321958
1082.3,0.082567,391215,323481
1085.96,0.081616,393215,325847
1090.84,0.081165,396270,328720
1094.49,0.079903,398760,331748
1098.14,0.079441,400987,333956
1101.79,0.079551,403477,335945
1105.43,0.079108,406116,338487
1109.06,0.078140,407701,340566
1112.7,0.078299,409859,342244
1117.53,0.077680,412494,344935
1121.15,0.078744,414909,346106
1124.77,0.078749,416559,347478
1128.38,0.079364,418532,348630
1131.99,0.080482,419956,348917
1135.6,0.082053,421946,349304
1139.2,0.083337,423881,349870
1143.99,0.085822,426786,350258
1147.58,0.086716,428617,351037
1151.17,0.087316,431169,352640
1154.75,0.088531,433579,353620
1158.33,0.089553,436264,354974
1161.91,0.091927,439132,355360
1165.48,0.093941,442389,356339
1169.04,0.096179,446101,357482
1173.79,0.099195,451929,359646
1177.34,0.101123,456026,361299
1180.9,0.103143,461306,363786
1184.44,0.105215,467657,367039
1187.99,0.106506,473969,370889
1191.52,0.105771,479856,376132
1195.06,0.106004,487372,381818
1199.76,0.105526,497347,390062
1203.29,0.104380,504311,396569
1206.81,0.104347,511507,402258
1210.33,0.103587,519078,408927
1213.84,0.102975,527163,415882
1217.35,0.102115,534208,422275
1220.85,0.101570,540472,427763
1225.51,0.100840,549929,435980
1229.01,0.100353,556888,441992
1232.5,0.099534,562180,447035
1235.98,0.099423,567975,451758
1239.46,0.098229,574815,458458
1242.94,0.097170,582782,465947
1246.41,0.096744,591476,473362
1251.03,0.096820,604016,483313
1254.5,0.096844,612289,489906
1257.96,0.096873,619125,495342
1261.41,0.097927,624551,498472
1264.86,0.098130,629900,502506
1268.31,0.098756,634345,505324
1271.75,0.099272,638574,508088
1276.33,0.099844,642499,510539
1279.76,0.099465,645905,513693
1283.19,0.099151,648307,515976
1286.61,0.098571,650446,518370
1290.03,0.098474,652132,519830
1293.44,0.097846,653907,521999
1296.85,0.097604,655963,523932
1301.39,0.097461,657349,525213
1304.8,0.097714,657558,525073
1308.19,0.098030,658515,525455
1311.58,0.097929,658804,525808
1314.97,0.098769,659011,524957
1318.36,0.099082,658272,523990
1321.73,0.099413,658022,523393
1326.23,0.100673,657870,521755
1329.6,0.101421,656482,519759
1332.97,0.102229,654926,517563
1336.33,0.103387,653727,515240
1339.69,0.105023,652497,512337
1343.04,0.106852,649913,508163
1346.39,0.109064,647671,503837
1349.73,0.111078,645338,499700
1354.18,0.113783,641175,493394
1357.52,0.115904,638376,488846
1360.85,0.117820,635805,484735
1364.17,0.119900,633413,480603
1367.49,0.122263,631026,476194
1370.81,0.124857,628050,471126
1374.12,0.127121,625034,466426
1378.54,0.129749,620272,460080
1381.84,0.133351,616892,453793
1385.14,0.136713,613613,447901
1388.43,0.141597,611526,441385
1391.72,0.146480,610663,435835
1395.01,0.151208,610634,431095
1398.29,0.156759,611700,426363
1402.66,0.164577,614051,420366
1405.93,0.170812,616268,415870
1409.2,0.176331,617795,411636
1412.46,0.181934,618872,407068
1415.72,0.185970,619795,403904
1418.98,0.190111,620495,400523
1422.23,0.194019,621087,397314
1426.56,0.198456,621375,393457
1429.8,0.201383,621616,390966
1433.04,0.204194,622129,388764
1436.27,0.206218,621526,386582
1439.5,0.208519,621113,384283
1442.72,0.210725,620921,382218
1445.94,0.213016,620270,379809
1450.23,0.216064,618860,376295
1453.44,0.219021,617697,373039
1456.64,0.221309,616264,370218
1459.85,0.223633,614413,367136
1463.04,0.226446,612307,363516
1466.24,0.229537,610032,359597
1469.43,0.232598,607345,355498
1473.67,0.237091,603789,349779
1476.85,0.241819,601175,344494
1480.02,0.246630,597737,338751
1483.19,0.252519,594479,332367
1486.36,0.257218,591232,326994
1489.52,0.260779,587853,322470
1492.68,0.264185,583875,317786
1496.89,0.266361,578062,313050
1500.03,0.266506,574159,310832
1503.18,0.266479,570285,308754
1506.32,0.265366,565444,306919
1509.45,0.263974,560571,305251
1512.58,0.262655,555821,303585
1515.71,0.260629,550344,301999
1519.87,0.257593,543983,300602
1522.99,0.254951,538764,299535
1526.1,0.253216,533692,297903
1529.21,0.249956,527902,296891
1532.32,0.246748,521886,295684
1535.42,0.243941,515888,294181
1538.51,0.241450,509987,292489
1541.6,0.239010,503936,290647
1545.72,0.234135,494694,288537
1548.8,0.231291,488378,286725
1551.88,0.230219,481832,283581
1554.95,0.227350,474989,281406
1558.02,0.225884,467818,278095
1561.08,0.224673,460730,274646
1564.15,0.224058,454170,271119
1568.22,0.222690,444181,265993
1571.27,0.221586,436947,262327
1574.32,0.220797,429598,258384
1577.36,0.219569,422039,254556
1580.4,0.219174,414375,250161
1583.43,0.217188,406354,246443
1586.46,0.215673,398475,242509
1590.49,0.213524,388982,237906
1593.51,0.211800,380708,233772
1596.53,0.209533,372727,230069
1599.54,0.207839,365060,226217
1602.55,0.205575,357543,222717
1605.55,0.203882,349495,218554
1608.55,0.201940,341154,214294
1612.54,0.199624,330877,208950
1615.53,0.197661,322904,204839
1618.51,0.197286,315116,200071
1621.49,0.195415,307217,195898
1624.47,0.193758,299481,191695
1627.44,0.192539,292112,187504
1630.41,0.192313,284245,182549
1634.36,0.191705,274079,176267
1637.32,0.191053,266916,171918
1640.27,0.189546,259612,167795
1643.22,0.188747,251804,163048
1646.16,0.187541,244348,158660
1649.1,0.187428,236703,153736
1652.04,0.186154,228171,148630
1655.95,0.182119,215408,141626
1658.88,0.178094,204937,135996
1661.8,0.172656,193395,129954
1664.72,0.166242,179728,122567
1667.63,0.153390,163642,114949
1670.54,0.139258,146312,106175
1673.44,0.124143,128451,96515
1677.31,0.105198,105080,82475
1680.21,0.094570,88906,71509
1683.1,0.090072,75033,60979
1685.99,0.089403,63520,51702
1688.87,0.091808,53714,43479
1691.75,0.102407,45653,36063
1694.62,0.106923,39137,30596
1697.49,0.110871,33776,26166
1701.31,0.124512,28175,21152