File: samples/wool/wool-000811/Column 1_050613_20150331_122954.csv
Method:,Column 1,,
Host Date-Time:,31/3/15 @ 12:29:54,,
Header Version:,1,,
System Temp (C):,34.09,,
Detector Temp (C):,34.95,,
Humidity (%):,1.66,,
Lamp PD:,3818,,
Shift Vector Coefficients:,-10.5391,0.0761263,-0.000134223,,
Pixel to Wavelength Coefficients:,1775.68,-0.916766,-0.000235065,,
Serial Number:,5510004,,
Scan Config Name:,Column 1,,
Scan Config Type:,Slew,,
Section 1,,
Start wavelength (nm):,900,,
End wavelength (nm):,1700,,
Pattern Pixel Width (nm):,   7.03,,,,
Exposure (ms):,  0.635,,,,
Digital Resolution:,228,,
Num Repeats:,6,,
PGA Gain:,64,,
Total Measurement Time in sec:,  2.671,,
Wavelength (nm),Absorbance (AU),Reference Signal (unitless),Sample Signal (unitless)
901.51,0.069430,108485,92457
905.376,0.075955,121306,101842
909.237,0.077254,131909,110413
913.095,0.077409,143299,119904
916.948,0.079687,156982,130666
922.079,0.080436,179937,149515
925.923,0.082025,200504,165996
929.762,0.082987,222660,183931
933.597,0.083052,244426,201881
937.427,0.080474,263972,219323
941.254,0.080889,281845,233949
945.076,0.079428,297271,247585
950.165,0.078248,315605,263570
953.978,0.077152,328029,274638
957.786,0.078032,340470,284477
961.59,0.077791,352317,294539
965.389,0.077699,363056,303581
969.185,0.077675,373162,312049
972.976,0.077793,382632,319881
976.763,0.077487,391202,327276
981.806,0.078490,400190,334023
985.583,0.079871,406088,337870
989.355,0.080514,410162,340754
993.124,0.080327,412868,343150
996.888,0.080469,414263,344197
1000.65,0.081357,415476,344500
1004.4,0.082399,415479,343677
1009.41,0.083934,414358,341540
1013.15,0.084752,412923,339717
1016.89,0.084568,411526,338711
1020.63,0.084286,409066,336905
1024.36,0.084602,406777,334776
1028.09,0.084716,404427,332755
1031.82,0.084803,401911,330618
1036.78,0.084479,398410,327983
1040.49,0.083770,396204,326700
1044.2,0.084180,394236,324770
1047.91,0.083174,392042,323712
1051.61,0.083205,389823,321857
1055.31,0.082877,388234,320787
1059,0.081941,387599,320953
1063.92,0.081464,386688,320551
1067.61,0.081027,386598,320799
1071.29,0.080897,387377,321541
1074.96,0.079260,388536,323721
1078.63,0.079758,389855,324448
1082.3,0.078467,391215,326549
1085.96,0.078104,393215,328493
1090.84,0.076742,396270,332085
1094.49,0.076645,398760,334246
1098.14,0.075298,400987,337157
1101.79,0.075645,403477,338980
1105.43,0.074849,406116,341823
1109.06,0.074449,407701,343473
1112.7,0.073516,409859,346034
1117.53,0.073714,412494,348100
1121.15,0.073798,414909,350070
1124.77,0.074253,416559,351094
1128.38,0.075244,418532,351953
1131.99,0.076364,419956,352241
1135.6,0.077116,421946,353298
1139.2,0.078880,423881,353479
1143.99,0.080960,426786,354201
1147.58,0.081497,428617,355281
1151.17,0.082486,431169,356584
1154.75,0.082870,433579,358260
1158.33,0.084264,436264,359323
1161.91,0.086440,439132,359878
1165.48,0.088272,442389,361021
1169.04,0.090615,446101,362091
1173.79,0.094002,451929,363972
1177.34,0.095880,456026,365687
1180.9,0.098065,461306,368065
1184.44,0.100179,467657,371320
1187.99,0.101126,473969,375512
1191.52,0.100717,479856,380534
1195.06,0.100977,487372,386263
1199.76,0.100616,497347,394497
1203.29,0.099400,504311,401142
1206.81,0.099011,511507,407231
1210.33,0.098533,519078,413713
1213.84,0.097837,527163,420831
1217.35,0.097626,534208,426662
1220.85,0.095949,540472,433335
1225.51,0.096176,549929,440687
1229.01,0.095261,556888,447205
1232.5,0.094694,562180,452045
1235.98,0.094231,567975,457192
1239.46,0.093065,574815,463941
1242.94,0.092504,582782,470980
1246.41,0.091972,591476,478592
1251.03,0.091497,604016,489273
1254.5,0.091582,612289,495877
1257.96,0.092137,619125,500774
1261.41,0.092708,624551,504499
1264.86,0.093165,629900,508284
1268.31,0.093579,634345,511383
1271.75,0.093784,638574,514550
1276.33,0.094568,642499,516778
1279.76,0.094161,645905,520005
1283.19,0.093561,648307,522660
1286.61,0.093659,650446,524267
1290.03,0.093336,652132,526017
1293.44,0.092390,653907,528598
1296.85,0.092527,655963,530093
1301.39,0.092456,657349,531300
1304.8,0.092423,657558,531509
1308.19,0.092278,658515,532461
1311.58,0.092422,658804,532518
1314.97,0.092736,659011,532300
1318.36,0.092929,658272,531467
1321.73,0.093265,658022,530855
1326.23,0.094276,657870,529498
1329.6,0.094725,656482,527834
1332.97,0.095696,654926,525408
1336.33,0.096714,653727,523218
1339.69,0.098176,652497,520478
1343.04,0.099502,649913,516836
1346.39,0.101516,647671,512671
1349.73,0.103630,645338,508344
1354.18,0.106352,641175,501908
1357.52,0.108516,638376,497234
1360.85,0.110243,635805,493266
1364.17,0.112371,633413,489008
1367.49,0.114271,631026,485038
1370.81,0.116815,628050,479931
1374.12,0.118804,625034,475444
1378.54,0.121797,620272,468582
1381.84,0.124469,616892,463170
1385.14,0.127391,613613,457618
1388.43,0.131110,611526,452173
1391.72,0.134830,610663,447684
1395.01,0.138829,610634,443560
1398.29,0.143288,611700,439795
1402.66,0.149483,614051,435233
1405.93,0.154188,616268,432097
1409.2,0.158629,617795,428761
1412.46,0.163653,618872,424569
1415.72,0.167228,619795,421716
1418.98,0.170677,620495,418853
1422.23,0.173927,621087,416127
1426.56,0.177938,621375,412492
1429.8,0.179704,621616,410978
1433.04,0.182646,622129,408540
1436.27,0.184949,621526,405985
1439.5,0.186985,621113,403818
1442.72,0.189192,620921,401647
1445.94,0.192108,620270,398541
1450.23,0.195175,618860,394837
1453.44,0.198057,617697,391488
1456.64,0.200688,616264,388221
1459.85,0.203739,614413,384345
1463.04,0.206520,612307,380583
1466.24,0.209942,610032,376193
1469.43,0.213573,607345,371418
1473.67,0.220240,603789,363618
1476.85,0.226263,601175,357057
1480.02,0.231791,597737,350525
1483.19,0.238885,594479,342966
1486.36,0.244376,591232,336808
1489.52,0.248728,587853,331544
1492.68,0.252788,583875,326236
1496.89,0.254881,578062,321435
1500.03,0.254669,574159,319421
1503.18,0.255344,570285,316773
1506.32,0.254835,565444,314452
1509.45,0.253231,560571,312896
1512.58,0.252046,555821,311092
1515.71,0.249142,550344,310093
1519.87,0.246547,543983,308346
1522.99,0.243893,538764,307260
1526.1,0.240779,533692,306557
1529.21,0.238514,527902,304817
1532.32,0.235124,521886,303705
1535.42,0.232497,515888,302036
1538.51,0.229517,509987,300637
1541.6,0.226784,503936,298945
1545.72,0.222664,494694,296260
1548.8,0.219601,488378,294547
1551.88,0.217275,481832,292160
1554.95,0.215464,474989,289214
1558.02,0.213403,467818,286203
1561.08,0.212997,460730,282130
1564.15,0.212765,454170,278262
1568.22,0.211724,444181,272795
1571.27,0.211098,436947,268739
1574.32,0.209664,429598,265093
1577.36,0.209035,422039,260806
1580.4,0.207234,414375,257134
1583.43,0.206686,406354,252475
1586.46,0.204538,398475,248807
1590.49,0.202914,388982,243790
1593.51,0.200899,380708,239714
1596.53,0.199337,372727,235534
1599.54,0.197039,365060,231913
1602.55,0.195213,357543,228095
1605.55,0.192517,349495,224349
1608.55,0.192025,341154,219243
1612.54,0.188347,330877,214447
1615.53,0.186910,322904,209973
1618.51,0.186331,315116,205182
1621.49,0.186100,307217,200145
1624.47,0.184741,299481,195717
1627.44,0.183285,292112,191542
1630.41,0.182704,284245,186633
1634.36,0.181586,274079,180422
1637.32,0.180872,266916,175996
1640.27,0.179567,259612,171695
1643.22,0.180131,251804,166315
1646.16,0.178451,244348,162016
1649.1,0.177318,236703,157357
1652.04,0.176320,228171,152034
1655.95,0.172724,215408,144723
1658.88,0.169779,204937,138625
1661.8,0.164351,193395,132463
1664.72,0.155412,179728,125662
1667.63,0.143565,163642,117579
1670.54,0.128448,146312,108851
1673.44,0.110858,128451,99513
1677.31,0.092628,105080,84897
1680.21,0.081511,88906,73692
1683.1,0.075306,75033,63088
1685.99,0.076379,63520,53276
1688.87,0.081727,53714,44500
1691.75,0.082184,45653,37782
1694.62,0.090311,39137,31789
1697.49,0.097969,33776,26955
1701.31,0.112305,28175,21755