File: samples/wool/wool-000811/Column 1_050572_20150331_121032.csv
Method:,Column 1,,
Host Date-Time:,31/3/15 @ 12:10:32,,
Header Version:,1,,
System Temp (C):,34.15,,
Detector Temp (C):,34.23,,
Humidity (%):,1.76,,
Lamp PD:,3818,,
Shift Vector Coefficients:,-10.5391,0.0761263,-0.000134223,,
Pixel to Wavelength Coefficients:,1775.68,-0.916766,-0.000235065,,
Serial Number:,5510004,,
Scan Config Name:,Column 1,,
Scan Config Type:,Slew,,
Section 1,,
Start wavelength (nm):,900,,
End wavelength (nm):,1700,,
Pattern Pixel Width (nm):,   7.03,,,,
Exposure (ms):,  0.635,,,,
Digital Resolution:,228,,
Num Repeats:,6,,
PGA Gain:,64,,
Total Measurement Time in sec:,  2.683,,
Wavelength (nm),Absorbance (AU),Reference Signal (unitless),Sample Signal (unitless)
901.51,0.035040,108485,100076
905.376,0.040984,121306,110382
909.237,0.045615,131909,118757
913.095,0.044762,143299,129265
916.948,0.045572,156982,141344
922.079,0.046365,179937,161717
925.923,0.048598,200504,179277
929.762,0.049261,222660,198784
933.597,0.049725,244426,217983
937.427,0.048740,263972,235949
941.254,0.048422,281845,252109
945.076,0.047811,297271,266282
950.165,0.046602,315605,283493
953.978,0.046700,328029,294586
957.786,0.046666,340470,305783
961.59,0.046515,352317,316533
965.389,0.047468,363056,325466
969.185,0.047465,373162,334528
972.976,0.047752,382632,342791
976.763,0.048309,391202,350019
981.806,0.048462,400190,357935
985.583,0.049660,406088,362210
989.355,0.049842,410162,365690
993.124,0.050044,412868,367932
996.888,0.050997,414263,368366
1000.65,0.051628,415476,368908
1004.4,0.052884,415479,367845
1009.41,0.054298,414358,365660
1013.15,0.054497,412923,364227
1016.89,0.055324,411526,362304
1020.63,0.055105,409066,360320
1024.36,0.054773,406777,358578
1028.09,0.054945,404427,356365
1031.82,0.054576,401911,354449
1036.78,0.054205,398410,351662
1040.49,0.053449,396204,350324
1044.2,0.053792,394236,348309
1047.91,0.053053,392042,346960
1051.61,0.052544,389823,345401
1055.31,0.051767,388234,344609
1059,0.050875,387599,344753
1063.92,0.050446,386688,344282
1067.61,0.050033,386598,344530
1071.29,0.048967,387377,346072
1074.96,0.048744,388536,347286
1078.63,0.047887,389855,349153
1082.3,0.046987,391215,351098
1085.96,0.046087,393215,353625
1090.84,0.046006,396270,356439
1094.49,0.045451,398760,359137
1098.14,0.045135,400987,361406
1101.79,0.044549,403477,364141
1105.43,0.044955,406116,366180
1109.06,0.043809,407701,368581
1112.7,0.044007,409859,370363
1117.53,0.044466,412494,372350
1121.15,0.044455,414909,374540
1124.77,0.044782,416559,375746
1128.38,0.046735,418532,375832
1131.99,0.047753,419956,376228
1135.6,0.049997,421946,376062
1139.2,0.052374,423881,375725
1143.99,0.054301,426786,376625
1147.58,0.054998,428617,377634
1151.17,0.056001,431169,379006
1154.75,0.057192,433579,380081
1158.33,0.058971,436264,380871
1161.91,0.061002,439132,381587
1165.48,0.063802,442389,381946
1169.04,0.066080,446101,383136
1173.79,0.069962,451929,384688
1177.34,0.072225,456026,386158
1180.9,0.074682,461306,388425
1184.44,0.076985,467657,391690
1187.99,0.077102,473969,396870
1191.52,0.077397,479856,401526
1195.06,0.076666,487372,408502
1199.76,0.075698,497347,417793
1203.29,0.075351,504311,423982
1206.81,0.074964,511507,430415
1210.33,0.073625,519078,438135
1213.84,0.072856,527163,445748
1217.35,0.072175,534208,452413
1220.85,0.070868,540472,459098
1225.51,0.070158,549929,467895
1229.01,0.069826,556888,474178
1232.5,0.068970,562180,479629
1235.98,0.068687,567975,484889
1239.46,0.067502,574815,492069
1242.94,0.066033,582782,500580
1246.41,0.065951,591476,508143
1251.03,0.065714,604016,519200
1254.5,0.065587,612289,526465
1257.96,0.066011,619125,531823
1261.41,0.066778,624551,535537
1264.86,0.067394,629900,539359
1268.31,0.068043,634345,542354
1271.75,0.068725,638574,545113
1276.33,0.069326,642499,547705
1279.76,0.068859,645905,551200
1283.19,0.068472,648307,553744
1286.61,0.068149,650446,555984
1290.03,0.067904,652132,557740
1293.44,0.067242,653907,560111
1296.85,0.067359,655963,561721
1301.39,0.067040,657349,563321
1304.8,0.066840,657558,563760
1308.19,0.067133,658515,564200
1311.58,0.067166,658804,564404
1314.97,0.067647,659011,563956
1318.36,0.068012,658272,562851
1321.73,0.068401,658022,562133
1326.23,0.069678,657870,560353
1329.6,0.070181,656482,558524
1332.97,0.071269,654926,555806
1336.33,0.072534,653727,553175
1339.69,0.074018,652497,550251
1343.04,0.075617,649913,546057
1346.39,0.077535,647671,541776
1349.73,0.079896,645338,536897
1354.18,0.083423,641175,529119
1357.52,0.085579,638376,524201
1360.85,0.087751,635805,519485
1364.17,0.089946,633413,514922
1367.49,0.092093,631026,510451
1370.81,0.094484,628050,505254
1374.12,0.097095,625034,499814
1378.54,0.100351,620272,492301
1381.84,0.103770,616892,485779
1385.14,0.107587,613613,478969
1388.43,0.111495,611526,473064
1391.72,0.116165,610663,467344
1395.01,0.120696,610634,462472
1398.29,0.126299,611700,457340
1402.66,0.132781,614051,452297
1405.93,0.138635,616268,447852
1409.2,0.143860,617795,443593
1412.46,0.148472,618872,439672
1415.72,0.153167,619795,435593
1418.98,0.157487,620495,431769
1422.23,0.160551,621087,429142
1426.56,0.164880,621375,425083
1429.8,0.167752,621616,422445
1433.04,0.170459,622129,420167
1436.27,0.172598,621526,417697
1439.5,0.174878,621113,415234
1442.72,0.177784,620921,412337
1445.94,0.180012,620270,409797
1450.23,0.183764,618860,405348
1453.44,0.186780,617697,401787
1456.64,0.189750,616264,398123
1459.85,0.192839,614413,394114
1463.04,0.196270,612307,389672
1466.24,0.199121,610032,385684
1469.43,0.202916,607345,380644
1473.67,0.209346,603789,372854
1476.85,0.215242,601175,366234
1480.02,0.221545,597737,358893
1483.19,0.229088,594479,350791
1486.36,0.234377,591232,344652
1489.52,0.239693,587853,338513
1492.68,0.243218,583875,333505
1496.89,0.246387,578062,327784
1500.03,0.247007,574159,325106
1503.18,0.246832,570285,323043
1506.32,0.245802,565444,321061
1509.45,0.244796,560571,319032
1512.58,0.243104,555821,317564
1515.71,0.240380,550344,316413
1519.87,0.238393,543983,314190
1522.99,0.234920,538764,313674
1526.1,0.232666,533692,312338
1529.21,0.229119,527902,311483
1532.32,0.225510,521886,310503
1535.42,0.223079,515888,308657
1538.51,0.219330,509987,307772
1541.6,0.216099,503936,306391
1545.72,0.212104,494694,303552
1548.8,0.208716,488378,302023
1551.88,0.206642,481832,299401
1554.95,0.203610,474989,297217
1558.02,0.201928,467818,293866
1561.08,0.201314,460730,289823
1564.15,0.200323,454170,286349
1568.22,0.198971,444181,280924
1571.27,0.199016,436947,276320
1574.32,0.198080,429598,272259
1577.36,0.195951,422039,268783
1580.4,0.194794,414375,264606
1583.43,0.193085,406354,260507
1586.46,0.191490,398475,256396
1590.49,0.188770,388982,251860
1593.51,0.186692,380708,247685
1596.53,0.184471,372727,243736
1599.54,0.182591,365060,239758
1602.55,0.180278,357543,236075
1605.55,0.178135,349495,231903
1608.55,0.175494,341154,227749
1612.54,0.173040,330877,222140
1615.53,0.171778,322904,217418
1618.51,0.171154,315116,212479
1621.49,0.169933,307217,207736
1624.47,0.168305,299481,203266
1627.44,0.167013,292112,198855
1630.41,0.165309,284245,194260
1634.36,0.163780,274079,187973
1637.32,0.164199,266916,182884
1640.27,0.162670,259612,178507
1643.22,0.161295,251804,173687
1646.16,0.159970,244348,169059
1649.1,0.159818,236703,163827
1652.04,0.159032,228171,158208
1655.95,0.155737,215408,150496
1658.88,0.151326,204937,144642
1661.8,0.148579,193395,137362
1664.72,0.140035,179728,130191
1667.63,0.130998,163642,121031
1670.54,0.119476,146312,111123
1673.44,0.104734,128451,100926
1677.31,0.084303,105080,86540
1680.21,0.076757,88906,74503
1683.1,0.072424,75033,63508
1685.99,0.072686,63520,53731
1688.87,0.082783,53714,44392
1691.75,0.085450,45653,37499
1694.62,0.093671,39137,31544
1697.49,0.096473,33776,27048
1701.31,0.097971,28175,22485