File: samples/wool/wool-000811/Column 1_050533_20150331_115153.csv
Method:,Column 1,,
Host Date-Time:,31/3/15 @ 11:51:53,,
Header Version:,1,,
System Temp (C):,30.8,,
Detector Temp (C):,30.69,,
Humidity (%):,4.43,,
Lamp PD:,3829,,
Shift Vector Coefficients:,-10.5391,0.0761263,-0.000134223,,
Pixel to Wavelength Coefficients:,1775.68,-0.916766,-0.000235065,,
Serial Number:,5510004,,
Scan Config Name:,Column 1,,
Scan Config Type:,Slew,,
Section 1,,
Start wavelength (nm):,900,,
End wavelength (nm):,1700,,
Pattern Pixel Width (nm):,   7.03,,,,
Exposure (ms):,  0.635,,,,
Digital Resolution:,228,,
Num Repeats:,6,,
PGA Gain:,64,,
Total Measurement Time in sec:,  2.727,,
Wavelength (nm),Absorbance (AU),Reference Signal (unitless),Sample Signal (unitless)
901.51,0.043732,108485,98093
905.376,0.048104,121306,108587
909.237,0.049406,131909,117725
913.095,0.051589,143299,127249
916.948,0.049585,156982,140044
922.079,0.049940,179937,160391
925.923,0.050086,200504,178664
929.762,0.050606,222660,198169
933.597,0.051576,244426,217056
937.427,0.052284,263972,234031
941.254,0.052757,281845,249605
945.076,0.052291,297271,263549
950.165,0.052656,315605,279568
953.978,0.052313,328029,290803
957.786,0.053120,340470,301272
961.59,0.053491,352317,311489
965.389,0.054502,363056,320237
969.185,0.054336,373162,329277
972.976,0.055588,382632,336661
976.763,0.055860,391202,343986
981.806,0.057061,400190,350918
985.583,0.056988,406088,356149
989.355,0.057811,410162,359041
993.124,0.058394,412868,360925
996.888,0.058498,414263,362058
1000.65,0.059884,415476,361961
1004.4,0.060641,415479,361333
1009.41,0.061963,414358,359263
1013.15,0.062836,412923,357300
1016.89,0.063390,411526,355637
1020.63,0.062932,409066,353884
1024.36,0.063143,406777,351733
1028.09,0.063374,404427,349515
1031.82,0.062591,401911,347968
1036.78,0.061381,398410,345899
1040.49,0.060935,396204,344337
1044.2,0.060322,394236,343111
1047.91,0.060297,392042,341221
1051.61,0.059561,389823,339865
1055.31,0.058343,388234,339430
1059,0.057434,387599,339585
1063.92,0.056746,386688,339324
1067.61,0.055740,386598,340032
1071.29,0.055145,387377,341184
1074.96,0.054619,388536,342620
1078.63,0.054082,389855,344208
1082.3,0.052489,391215,346678
1085.96,0.052096,393215,348766
1090.84,0.051518,396270,351944
1094.49,0.050962,398760,354609
1098.14,0.050508,400987,356962
1101.79,0.050557,403477,359138
1105.43,0.050213,406116,361774
1109.06,0.049825,407701,363510
1112.7,0.050254,409859,365074
1117.53,0.050763,412494,366990
1121.15,0.051264,414909,368713
1124.77,0.051246,416559,370195
1128.38,0.053390,418532,370117
1131.99,0.054630,419956,370317
1135.6,0.057241,421946,369842
1139.2,0.059203,423881,369863
1143.99,0.061977,426786,370027
1147.58,0.062863,428617,370857
1151.17,0.064353,431169,371787
1154.75,0.065528,433579,372855
1158.33,0.068150,436264,372906
1161.91,0.070222,439132,373571
1165.48,0.072829,442389,374089
1169.04,0.076124,446101,374377
1173.79,0.080564,451929,375410
1177.34,0.083198,456026,376523
1180.9,0.085646,461306,378742
1184.44,0.087855,467657,382008
1187.99,0.088334,473969,386737
1191.52,0.087781,479856,392040
1195.06,0.087372,487372,398555
1199.76,0.085875,497347,408117
1203.29,0.084773,504311,414883
1206.81,0.083486,511507,422052
1210.33,0.082571,519078,429202
1213.84,0.081086,527163,437380
1217.35,0.080437,534208,443888
1220.85,0.078678,540472,450916
1225.51,0.077919,549929,459608
1229.01,0.077156,556888,466242
1232.5,0.075938,562180,471995
1235.98,0.075492,567975,477350
1239.46,0.074071,574815,484682
1242.94,0.072977,582782,492639
1246.41,0.072507,591476,500530
1251.03,0.071844,604016,511923
1254.5,0.071941,612289,518819
1257.96,0.072242,619125,524248
1261.41,0.072700,624551,528285
1264.86,0.073454,629900,531885
1268.31,0.073958,634345,535017
1271.75,0.074767,638574,537582
1276.33,0.074812,642499,540830
1279.76,0.074792,645905,543722
1283.19,0.074399,648307,546238
1286.61,0.073904,650446,548665
1290.03,0.073674,652132,550378
1293.44,0.073175,653907,552511
1296.85,0.073001,655963,554470
1301.39,0.073115,657349,555496
1304.8,0.073108,657558,555682
1308.19,0.073167,658515,556415
1311.58,0.073116,658804,556724
1314.97,0.074395,659011,555261
1318.36,0.075019,658272,553843
1321.73,0.075204,658022,553396
1326.23,0.076048,657870,552194
1329.6,0.077408,656482,549306
1332.97,0.078469,654926,546667
1336.33,0.080056,653727,543676
1339.69,0.081943,652497,540301
1343.04,0.083781,649913,535888
1346.39,0.086832,647671,530301
1349.73,0.089301,645338,525395
1354.18,0.092386,641175,518311
1357.52,0.095133,638376,512795
1360.85,0.097071,635805,508455
1364.17,0.099724,633413,503458
1367.49,0.102658,631026,498183
1370.81,0.105399,628050,492714
1374.12,0.107981,625034,487442
1378.54,0.111801,620272,479492
1381.84,0.116164,616892,472112
1385.14,0.121223,613613,464164
1388.43,0.126397,611526,457107
1391.72,0.132270,610663,450331
1395.01,0.138953,610634,443433
1398.29,0.144894,611700,438172
1402.66,0.154312,614051,430420
1405.93,0.161510,616268,424873
1409.2,0.168884,617795,418755
1412.46,0.174322,618872,414266
1415.72,0.180288,619795,409223
1418.98,0.185572,620495,404731
1422.23,0.189616,621087,401362
1426.56,0.194680,621375,396893
1429.8,0.198189,621616,393852
1433.04,0.201412,622129,391263
1436.27,0.203742,621526,388792
1439.5,0.206653,621113,385938
1442.72,0.208659,620921,384041
1445.94,0.211643,620270,381011
1450.23,0.215018,618860,377202
1453.44,0.218240,617697,373711
1456.64,0.221542,616264,370020
1459.85,0.223809,614413,366988
1463.04,0.226054,612307,363844
1466.24,0.228957,610032,360077
1469.43,0.231868,607345,356096
1473.67,0.236616,603789,350162
1476.85,0.241376,601175,344846
1480.02,0.245958,597737,339275
1483.19,0.251724,594479,332976
1486.36,0.257505,591232,326778
1489.52,0.262197,587853,321419
1492.68,0.266333,583875,316218
1496.89,0.268786,578062,311307
1500.03,0.269987,574159,308351
1503.18,0.269949,570285,306297
1506.32,0.269095,565444,304295
1509.45,0.268294,560571,302229
1512.58,0.267115,555821,300483
1515.71,0.264831,550344,299091
1519.87,0.261614,543983,297832
1522.99,0.259025,538764,296738
1526.1,0.255956,533692,296029
1529.21,0.253412,527902,294538
1532.32,0.250110,521886,293404
1535.42,0.246724,515888,292302
1538.51,0.243219,509987,291300
1541.6,0.240847,503936,289420
1545.72,0.235617,494694,287554
1548.8,0.231997,488378,286259
1551.88,0.229694,481832,283924
1554.95,0.226553,474989,281923
1558.02,0.225311,467818,278462
1561.08,0.222893,460730,275774
1564.15,0.222290,454170,272225
1568.22,0.221280,444181,266858
1571.27,0.220539,436947,262960
1574.32,0.219099,429598,259396
1577.36,0.217965,422039,255498
1580.4,0.216098,414375,251939
1583.43,0.213854,406354,248342
1586.46,0.212503,398475,244286
1590.49,0.209653,388982,240036
1593.51,0.207750,380708,235962
1596.53,0.204596,372727,232699
1599.54,0.203296,365060,228596
1602.55,0.200617,357543,225274
1605.55,0.198118,349495,221474
1608.55,0.195154,341154,217669
1612.54,0.193677,330877,211831
1615.53,0.190593,322904,208200
1618.51,0.188368,315116,204222
1621.49,0.187692,307217,199413
1624.47,0.185996,299481,195152
1627.44,0.185208,292112,190696
1630.41,0.182995,284245,186508
1634.36,0.181967,274079,180264
1637.32,0.180559,266916,176123
1640.27,0.178935,259612,171945
1643.22,0.177564,251804,167301
1646.16,0.177252,244348,162464
1649.1,0.176014,236703,157830
1652.04,0.175227,228171,152417
1655.95,0.174942,215408,143986
1658.88,0.172683,204937,137701
1661.8,0.172458,193395,130013
1664.72,0.171780,179728,121014
1667.63,0.166748,163642,111467
1670.54,0.163023,146312,100521
1673.44,0.160765,128451,88710
1677.31,0.157543,105080,73110
1680.21,0.157395,88906,61878
1683.1,0.162619,75033,51598
1685.99,0.170241,63520,42921
1688.87,0.173399,53714,36032
1691.75,0.176010,45653,30441
1694.62,0.177330,39137,26017
1697.49,0.181259,33776,22251
1701.31,0.189173,28175,18226