File: samples/wool/wool-000811/Column 1_050601_20150331_122401.csv
Method:,Column 1,,
Host Date-Time:,31/3/15 @ 12:24:1,,
Header Version:,1,,
System Temp (C):,33.97,,
Detector Temp (C):,34.77,,
Humidity (%):,1.76,,
Lamp PD:,3818,,
Shift Vector Coefficients:,-10.5391,0.0761263,-0.000134223,,
Pixel to Wavelength Coefficients:,1775.68,-0.916766,-0.000235065,,
Serial Number:,5510004,,
Scan Config Name:,Column 1,,
Scan Config Type:,Slew,,
Section 1,,
Start wavelength (nm):,900,,
End wavelength (nm):,1700,,
Pattern Pixel Width (nm):,   7.03,,,,
Exposure (ms):,  0.635,,,,
Digital Resolution:,228,,
Num Repeats:,6,,
PGA Gain:,64,,
Total Measurement Time in sec:,  2.670,,
Wavelength (nm),Absorbance (AU),Reference Signal (unitless),Sample Signal (unitless)
901.51,0.069200,108485,92506
905.376,0.074746,121306,102126
909.237,0.078815,131909,110017
913.095,0.078327,143299,119651
916.948,0.080539,156982,130410
922.079,0.081555,179937,149130
925.923,0.081479,200504,166205
929.762,0.083167,222660,183855
933.597,0.082476,244426,202149
937.427,0.081794,263972,218657
941.254,0.081118,281845,233826
945.076,0.079395,297271,247604
950.165,0.078813,315605,263227
953.978,0.078453,328029,273816
957.786,0.078430,340470,284216
961.59,0.078351,352317,294159
965.389,0.078865,363056,302767
969.185,0.079270,373162,310905
972.976,0.078124,382632,319637
976.763,0.079561,391202,325717
981.806,0.079268,400190,333425
985.583,0.080425,406088,337439
989.355,0.080576,410162,340706
993.124,0.081067,412868,342566
996.888,0.081597,414263,343304
1000.65,0.081724,415476,344209
1004.4,0.083916,415479,342478
1009.41,0.084739,414358,340908
1013.15,0.084908,412923,339595
1016.89,0.085686,411526,337840
1020.63,0.085598,409066,335889
1024.36,0.085589,406777,334016
1028.09,0.085171,404427,332406
1031.82,0.085725,401911,329917
1036.78,0.085095,398410,327518
1040.49,0.084985,396204,325787
1044.2,0.084370,394236,324628
1047.91,0.084014,392042,323086
1051.61,0.084475,389823,320917
1055.31,0.083491,388234,320334
1059,0.083592,387599,319735
1063.92,0.082488,386688,319796
1067.61,0.081272,386598,320618
1071.29,0.080927,387377,321519
1074.96,0.080391,388536,322879
1078.63,0.080256,389855,324076
1082.3,0.078772,391215,326320
1085.96,0.078578,393215,328135
1090.84,0.077797,396270,331279
1094.49,0.077479,398760,333605
1098.14,0.076971,400987,335861
1101.79,0.075556,403477,339049
1105.43,0.075670,406116,341177
1109.06,0.075762,407701,342436
1112.7,0.074830,409859,344988
1117.53,0.073925,412494,347931
1121.15,0.074922,414909,349165
1124.77,0.075027,416559,350469
1128.38,0.075372,418532,351849
1131.99,0.077055,419956,351681
1135.6,0.079014,421946,351757
1139.2,0.079712,423881,352803
1143.99,0.081687,426786,353609
1147.58,0.082815,428617,354205
1151.17,0.083582,431169,355685
1154.75,0.084959,433579,356541
1158.33,0.085587,436264,358230
1161.91,0.088056,439132,358541
1165.48,0.089452,442389,360041
1169.04,0.091983,446101,360953
1173.79,0.095545,451929,362681
1177.34,0.096937,456026,364798
1180.9,0.099248,461306,367063
1184.44,0.101439,467657,370244
1187.99,0.101935,473969,374813
1191.52,0.102140,479856,379290
1195.06,0.101730,487372,385594
1199.76,0.101640,497347,393568
1203.29,0.100721,504311,399924
1206.81,0.099850,511507,406445
1210.33,0.099319,519078,412965
1213.84,0.098830,527163,419870
1217.35,0.098346,534208,425956
1220.85,0.097699,540472,431593
1225.51,0.096788,549929,440067
1229.01,0.096477,556888,445955
1232.5,0.095864,562180,450829
1235.98,0.095567,567975,455787
1239.46,0.094350,574815,462571
1242.94,0.093238,582782,470184
1246.41,0.092552,591476,477953
1251.03,0.092847,604016,487755
1254.5,0.092976,612289,494289
1257.96,0.093134,619125,499625
1261.41,0.093602,624551,503461
1264.86,0.094345,629900,506905
1268.31,0.094709,634345,510055
1271.75,0.095523,638574,512493
1276.33,0.095434,642499,515749
1279.76,0.095526,645905,518373
1283.19,0.095006,648307,520925
1286.61,0.094336,650446,523450
1290.03,0.094061,652132,525139
1293.44,0.093986,653907,526659
1296.85,0.093677,655963,528692
1301.39,0.093126,657349,530481
1304.8,0.093768,657558,529866
1308.19,0.093361,658515,531135
1311.58,0.093598,658804,531078
1314.97,0.093867,659011,530916
1318.36,0.094498,658272,529551
1321.73,0.094629,658022,529190
1326.23,0.095453,657870,528065
1329.6,0.096036,656482,526243
1332.97,0.097117,654926,523691
1336.33,0.098426,653727,521159
1339.69,0.099723,652497,518628
1343.04,0.101395,649913,514589
1346.39,0.103170,647671,510722
1349.73,0.105258,645338,506442
1354.18,0.108027,641175,499976
1357.52,0.109830,638376,495731
1360.85,0.112093,635805,491169
1364.17,0.113929,633413,487257
1367.49,0.116087,631026,483015
1370.81,0.118628,628050,477932
1374.12,0.120384,625034,473718
1378.54,0.123296,620272,466967
1381.84,0.126589,616892,460914
1385.14,0.129150,613613,455769
1388.43,0.133324,611526,449874
1391.72,0.137495,610663,444945
1395.01,0.142184,610634,440146
1398.29,0.146344,611700,436711
1402.66,0.152874,614051,431848
1405.93,0.158066,616268,428256
1409.2,0.162760,617795,424702
1412.46,0.167052,618872,421259
1415.72,0.170923,619795,418143
1418.98,0.174361,620495,415315
1422.23,0.178207,621087,412046
1426.56,0.182269,621375,408399
1429.8,0.184254,621616,406694
1433.04,0.186888,622129,404569
1436.27,0.189124,621526,402101
1439.5,0.191446,621113,399691
1442.72,0.194014,620921,397212
1445.94,0.196293,620270,394719
1450.23,0.199205,618860,391190
1453.44,0.202211,617697,387761
1456.64,0.204586,616264,384752
1459.85,0.208114,614413,380493
1463.04,0.210598,612307,377026
1466.24,0.213846,610032,372826
1469.43,0.218060,607345,367600
1473.67,0.223845,603789,360612
1476.85,0.229129,601175,354709
1480.02,0.235277,597737,347723
1483.19,0.240953,594479,341337
1486.36,0.247245,591232,334590
1489.52,0.251938,587853,329102
1492.68,0.255251,583875,324391
1496.89,0.257258,578062,319681
1500.03,0.257813,574159,317117
1503.18,0.257532,570285,315181
1506.32,0.257088,565444,312825
1509.45,0.255975,560571,310925
1512.58,0.254027,555821,309676
1515.71,0.251235,550344,308602
1519.87,0.248356,543983,307064
1522.99,0.246349,538764,305527
1526.1,0.243618,533692,304560
1529.21,0.241187,527902,302947
1532.32,0.237805,521886,301836
1535.42,0.234749,515888,300474
1538.51,0.231984,509987,298934
1541.6,0.229271,503936,297238
1545.72,0.224682,494694,294886
1548.8,0.222709,488378,292447
1551.88,0.220337,481832,290107
1554.95,0.217973,474989,287548
1558.02,0.216283,467818,284311
1561.08,0.215528,460730,280491
1564.15,0.214366,454170,277238
1568.22,0.214110,444181,271300
1571.27,0.213713,436947,267126
1574.32,0.212072,429598,263627
1577.36,0.211162,422039,259532
1580.4,0.209581,414375,255748
1583.43,0.207801,406354,251828
1586.46,0.206347,398475,247773
1590.49,0.204894,388982,242681
1593.51,0.203297,380708,238394
1596.53,0.201057,372727,234603
1599.54,0.198820,365060,230964
1602.55,0.197408,357543,226945
1605.55,0.195428,349495,222850
1608.55,0.193841,341154,218328
1612.54,0.191995,330877,212653
1615.53,0.190822,322904,208090
1618.51,0.188206,315116,204298
1621.49,0.186858,307217,199796
1624.47,0.185963,299481,195167
1627.44,0.184598,292112,190964
1630.41,0.184437,284245,185890
1634.36,0.183671,274079,179558
1637.32,0.182731,266916,175244
1640.27,0.182241,259612,170641
1643.22,0.181023,251804,165974
1646.16,0.179240,244348,161722
1649.1,0.180206,236703,156314
1652.04,0.178410,228171,151304
1655.95,0.174077,215408,144273
1658.88,0.171936,204937,137938
1661.8,0.164928,193395,132287
1664.72,0.157608,179728,125028
1667.63,0.146155,163642,116880
1670.54,0.130511,146312,108335
1673.44,0.114306,128451,98726
1677.31,0.095904,105080,84259
1680.21,0.085097,88906,73086
1683.1,0.082196,75033,62095
1685.99,0.080211,63520,52808
1688.87,0.085925,53714,44072
1691.75,0.085832,45653,37466
1694.62,0.092859,39137,31603
1697.49,0.097212,33776,27002
1701.31,0.103354,28175,22208