File: samples/wool/wool-000811/Column 1_050624_20150331_123511.csv
Method:,Column 1,,
Host Date-Time:,31/3/15 @ 12:35:11,,
Header Version:,1,,
System Temp (C):,34.12,,
Detector Temp (C):,35.05,,
Humidity (%):,1.56,,
Lamp PD:,3818,,
Shift Vector Coefficients:,-10.5391,0.0761263,-0.000134223,,
Pixel to Wavelength Coefficients:,1775.68,-0.916766,-0.000235065,,
Serial Number:,5510004,,
Scan Config Name:,Column 1,,
Scan Config Type:,Slew,,
Section 1,,
Start wavelength (nm):,900,,
End wavelength (nm):,1700,,
Pattern Pixel Width (nm):,   7.03,,,,
Exposure (ms):,  0.635,,,,
Digital Resolution:,228,,
Num Repeats:,6,,
PGA Gain:,64,,
Total Measurement Time in sec:,  2.667,,
Wavelength (nm),Absorbance (AU),Reference Signal (unitless),Sample Signal (unitless)
901.51,0.068595,108485,92635
905.376,0.075333,121306,101988
909.237,0.075147,131909,110950
913.095,0.077859,143299,119780
916.948,0.079694,156982,130664
922.079,0.081224,179937,149244
925.923,0.081866,200504,166057
929.762,0.082485,222660,184144
933.597,0.082298,244426,202232
937.427,0.080852,263972,219132
941.254,0.079860,281845,234504
945.076,0.078997,297271,247831
950.165,0.078896,315605,263177
953.978,0.077313,328029,274536
957.786,0.077614,340470,284751
961.59,0.077618,352317,294656
965.389,0.077276,363056,303877
969.185,0.077435,373162,312221
972.976,0.077934,382632,319777
976.763,0.078447,391202,326553
981.806,0.079000,400190,333631
985.583,0.079918,406088,337833
989.355,0.079656,410162,341428
993.124,0.079661,412868,343677
996.888,0.080619,414263,344078
1000.65,0.080726,415476,345001
1004.4,0.082189,415479,343843
1009.41,0.083647,414358,341766
1013.15,0.084372,412923,340014
1016.89,0.084599,411526,338687
1020.63,0.084922,409066,336412
1024.36,0.085427,406777,334141
1028.09,0.084559,404427,332875
1031.82,0.084298,401911,331003
1036.78,0.084174,398410,328213
1040.49,0.083329,396204,327032
1044.2,0.083559,394236,325235
1047.91,0.083007,392042,323836
1051.61,0.083012,389823,322000
1055.31,0.082813,388234,320834
1059,0.081672,387599,321152
1063.92,0.081565,386688,320476
1067.61,0.080558,386598,321145
1071.29,0.079976,387377,322224
1074.96,0.080548,388536,322763
1078.63,0.078941,389855,325059
1082.3,0.078079,391215,326841
1085.96,0.076909,393215,329398
1090.84,0.076597,396270,332196
1094.49,0.075981,398760,334758
1098.14,0.075664,400987,336873
1101.79,0.075162,403477,339357
1105.43,0.074741,406116,341908
1109.06,0.073723,407701,344048
1112.7,0.073589,409859,345976
1117.53,0.072982,412494,348687
1121.15,0.073690,414909,350157
1124.77,0.073562,416559,351653
1128.38,0.074895,418532,352236
1131.99,0.075873,419956,352639
1135.6,0.077439,421946,353035
1139.2,0.078678,423881,353644
1143.99,0.080807,426786,354326
1147.58,0.080550,428617,356057
1151.17,0.081447,431169,357438
1154.75,0.083092,433579,358077
1158.33,0.084631,436264,359020
1161.91,0.085844,439132,360372
1165.48,0.087876,442389,361350
1169.04,0.090605,446101,362100
1173.79,0.093454,451929,364432
1177.34,0.096286,456026,365345
1180.9,0.097916,461306,368191
1184.44,0.100488,467657,371056
1187.99,0.100579,473969,375985
1191.52,0.100801,479856,380461
1195.06,0.100636,487372,386567
1199.76,0.100407,497347,394687
1203.29,0.098748,504311,401745
1206.81,0.099121,511507,407128
1210.33,0.098238,519078,413995
1213.84,0.097843,527163,420825
1217.35,0.097060,534208,427219
1220.85,0.096538,540472,432748
1225.51,0.095372,549929,441504
1229.01,0.095029,556888,447444
1232.5,0.094581,562180,452162
1235.98,0.093615,567975,457841
1239.46,0.093181,574815,463817
1242.94,0.091896,582782,471639
1246.41,0.091365,591476,479261
1251.03,0.090949,604016,489891
1254.5,0.091766,612289,495668
1257.96,0.091819,619125,501140
1261.41,0.092331,624551,504937
1264.86,0.092872,629900,508627
1268.31,0.093101,634345,511946
1271.75,0.094117,638574,514155
1276.33,0.094298,642499,517100
1279.76,0.094117,645905,520058
1283.19,0.093865,648307,522295
1286.61,0.092900,650446,525184
1290.03,0.093181,652132,526205
1293.44,0.092174,653907,528862
1296.85,0.092042,655963,530686
1301.39,0.091694,657349,532233
1304.8,0.092017,657558,532007
1308.19,0.091605,658515,533286
1311.58,0.091777,658804,533310
1314.97,0.092050,659011,533142
1318.36,0.092450,658272,532053
1321.73,0.092776,658022,531453
1326.23,0.093643,657870,530270
1329.6,0.094651,656482,527925
1332.97,0.095399,654926,525767
1336.33,0.096241,653727,523788
1339.69,0.097577,652497,521196
1343.04,0.098945,649913,517500
1346.39,0.100667,647671,513674
1349.73,0.102876,645338,509227
1354.18,0.105713,641175,502648
1357.52,0.107392,638376,498522
1360.85,0.109405,635805,494219
1364.17,0.111078,633413,490466
1367.49,0.113886,631026,485469
1370.81,0.115994,628050,480840
1374.12,0.118171,625034,476138
1378.54,0.120501,620272,469982
1381.84,0.123451,616892,464257
1385.14,0.126406,613613,458658
1388.43,0.129879,611526,453457
1391.72,0.133865,610663,448680
1395.01,0.137399,610634,445023
1398.29,0.141718,611700,441388
1402.66,0.148053,614051,436668
1405.93,0.152275,616268,434005
1409.2,0.156977,617795,430395
1412.46,0.161141,618872,427031
1415.72,0.164632,619795,424244
1418.98,0.168195,620495,421253
1422.23,0.171344,621087,418609
1426.56,0.174865,621375,415421
1429.8,0.177608,621616,412966
1433.04,0.180083,622129,410958
1436.27,0.182468,621526,408311
1439.5,0.184337,621113,406288
1442.72,0.186818,620921,403848
1445.94,0.189006,620270,401398
1450.23,0.192350,618860,397413
1453.44,0.195491,617697,393808
1456.64,0.198662,616264,390036
1459.85,0.200718,614413,387028
1463.04,0.204472,612307,382382
1466.24,0.208337,610032,377586
1469.43,0.212408,607345,372415
1473.67,0.218004,603789,365495
1476.85,0.224622,601175,358409
1480.02,0.230003,597737,351971
1483.19,0.237168,594479,344325
1486.36,0.242862,591232,337984
1489.52,0.247830,587853,332230
1492.68,0.251574,583875,327149
1496.89,0.253920,578062,322147
1500.03,0.254298,574159,319694
1503.18,0.254863,570285,317124
1506.32,0.253364,565444,315519
1509.45,0.252338,560571,313540
1512.58,0.249958,555821,312591
1515.71,0.248206,550344,310762
1519.87,0.245269,543983,309255
1522.99,0.242835,538764,308009
1526.1,0.239946,533692,307146
1529.21,0.236684,527902,306104
1532.32,0.234043,521886,304462
1535.42,0.230749,515888,303254
1538.51,0.229895,509987,300375
1541.6,0.225188,503936,300046
1545.72,0.220734,494694,297579
1548.8,0.218401,488378,295362
1551.88,0.216147,481832,292920
1554.95,0.214280,474989,290004
1558.02,0.212091,467818,287069
1561.08,0.211451,460730,283136
1564.15,0.211527,454170,279056
1568.22,0.209916,444181,273933
1571.27,0.208517,436947,270341
1574.32,0.207812,429598,266226
1577.36,0.207778,422039,261562
1580.4,0.206252,414375,257716
1583.43,0.205283,406354,253292
1586.46,0.203393,398475,249464
1590.49,0.201876,388982,244373
1593.51,0.199583,380708,240441
1596.53,0.198082,372727,236216
1599.54,0.196281,365060,232318
1602.55,0.194155,357543,228651
1605.55,0.192420,349495,224399
1608.55,0.189989,341154,220273
1612.54,0.188527,330877,214358
1615.53,0.186924,322904,209966
1618.51,0.186084,315116,205299
1621.49,0.184565,307217,200854
1624.47,0.183522,299481,196267
1627.44,0.182504,292112,191887
1630.41,0.182104,284245,186891
1634.36,0.181454,274079,180477
1637.32,0.181225,266916,175853
1640.27,0.179256,259612,171818
1643.22,0.177292,251804,167406
1646.16,0.177939,244348,162207
1649.1,0.176846,236703,157528
1652.04,0.175598,228171,152287
1655.95,0.172160,215408,144911
1658.88,0.168862,204937,138918
1661.8,0.163077,193395,132852
1664.72,0.154480,179728,125932
1667.63,0.142318,163642,117917
1670.54,0.128276,146312,108894
1673.44,0.112033,128451,99244
1677.31,0.091162,105080,85184
1680.21,0.076600,88906,74530
1683.1,0.071024,75033,63713
1685.99,0.073219,63520,53665
1688.87,0.078441,53714,44838
1691.75,0.081002,45653,37885
1694.62,0.085501,39137,32143
1697.49,0.089623,33776,27478
1701.31,0.095314,28175,22623