File: samples/wool/wool-000811/Column 1_050563_20150331_120550.csv
Method:,Column 1,,
Host Date-Time:,31/3/15 @ 12:5:50,,
Header Version:,1,,
System Temp (C):,33.8,,
Detector Temp (C):,33.4,,
Humidity (%):,1.95,,
Lamp PD:,3819,,
Shift Vector Coefficients:,-10.5391,0.0761263,-0.000134223,,
Pixel to Wavelength Coefficients:,1775.68,-0.916766,-0.000235065,,
Serial Number:,5510004,,
Scan Config Name:,Column 1,,
Scan Config Type:,Slew,,
Section 1,,
Start wavelength (nm):,900,,
End wavelength (nm):,1700,,
Pattern Pixel Width (nm):,   7.03,,,,
Exposure (ms):,  0.635,,,,
Digital Resolution:,228,,
Num Repeats:,6,,
PGA Gain:,64,,
Total Measurement Time in sec:,  2.732,,
Wavelength (nm),Absorbance (AU),Reference Signal (unitless),Sample Signal (unitless)
901.51,0.033701,108485,100385
905.376,0.041772,121306,110182
909.237,0.041785,131909,119809
913.095,0.042778,143299,129857
916.948,0.044330,156982,141749
922.079,0.046134,179937,161803
925.923,0.046202,200504,180269
929.762,0.047349,222660,199661
933.597,0.048285,244426,218707
937.427,0.046674,263972,237074
941.254,0.046855,281845,253020
945.076,0.046584,297271,267035
950.165,0.045668,315605,284103
953.978,0.045905,328029,295126
957.786,0.046011,340470,306244
961.59,0.046473,352317,316563
965.389,0.046033,363056,326543
969.185,0.046742,373162,335085
972.976,0.047004,382632,343382
976.763,0.047583,391202,350605
981.806,0.047809,400190,358474
985.583,0.048772,406088,362951
989.355,0.049190,410162,366240
993.124,0.049567,412868,368336
996.888,0.050396,414263,368876
1000.65,0.051261,415476,369220
1004.4,0.052145,415479,368472
1009.41,0.053891,414358,366003
1013.15,0.054223,412923,364457
1016.89,0.054793,411526,362747
1020.63,0.054647,409066,360700
1024.36,0.054782,406777,358570
1028.09,0.054062,404427,357090
1031.82,0.054434,401911,354565
1036.78,0.053749,398410,352031
1040.49,0.052625,396204,350989
1044.2,0.053473,394236,348565
1047.91,0.052664,392042,347271
1051.61,0.052060,389823,345786
1055.31,0.051252,388234,345018
1059,0.051410,387599,344328
1063.92,0.050184,386688,344490
1067.61,0.049653,386598,344831
1071.29,0.048041,387377,346811
1074.96,0.048209,388536,347714
1078.63,0.047086,389855,349798
1082.3,0.046740,391215,351298
1085.96,0.046231,393215,353508
1090.84,0.045591,396270,356780
1094.49,0.045627,398760,358992
1098.14,0.045259,400987,361303
1101.79,0.044314,403477,364338
1105.43,0.044766,406116,366340
1109.06,0.044528,407701,367971
1112.7,0.043700,409859,370625
1117.53,0.044073,412494,372687
1121.15,0.044849,414909,374200
1124.77,0.045058,416559,375507
1128.38,0.046813,418532,375764
1131.99,0.048374,419956,375690
1135.6,0.049909,421946,376139
1139.2,0.051443,423881,376531
1143.99,0.054198,426786,376714
1147.58,0.055436,428617,377254
1151.17,0.056613,431169,378473
1154.75,0.057572,433579,379749
1158.33,0.059657,436264,380270
1161.91,0.061195,439132,381417
1165.48,0.063672,442389,382061
1169.04,0.066027,446101,383183
1173.79,0.069878,451929,384762
1177.34,0.072536,456026,385881
1180.9,0.074924,461306,388209
1184.44,0.076476,467657,392149
1187.99,0.077370,473969,396625
1191.52,0.077314,479856,401603
1195.06,0.077135,487372,408061
1199.76,0.076535,497347,416989
1203.29,0.074913,504311,424410
1206.81,0.074924,511507,430455
1210.33,0.073382,519078,438380
1213.84,0.072731,527163,445876
1217.35,0.072033,534208,452561
1220.85,0.071375,540472,458562
1225.51,0.070132,549929,467923
1229.01,0.069302,556888,474751
1232.5,0.069030,562180,479563
1235.98,0.068081,567975,485566
1239.46,0.067496,574815,492076
1242.94,0.066320,582782,500249
1246.41,0.065822,591476,508294
1251.03,0.065879,604016,519002
1254.5,0.065733,612289,526288
1257.96,0.066221,619125,531566
1261.41,0.067040,624551,535214
1264.86,0.067518,629900,539205
1268.31,0.068144,634345,542227
1271.75,0.068820,638574,544994
1276.33,0.069174,642499,547897
1279.76,0.069405,645905,550508
1283.19,0.068400,648307,553835
1286.61,0.068083,650446,556069
1290.03,0.067969,652132,557656
1293.44,0.067362,653907,559956
1296.85,0.066989,655963,562200
1301.39,0.066803,657349,563628
1304.8,0.066842,657558,563757
1308.19,0.067173,658515,564148
1311.58,0.067264,658804,564277
1314.97,0.068117,659011,563346
1318.36,0.068711,658272,561946
1321.73,0.068800,658022,561617
1326.23,0.069665,657870,560370
1329.6,0.070600,656482,557986
1332.97,0.071701,654926,555253
1336.33,0.072819,653727,552812
1339.69,0.074335,652497,549849
1343.04,0.076448,649913,545014
1346.39,0.078579,647671,540475
1349.73,0.080875,645338,535688
1354.18,0.084052,641175,528354
1357.52,0.085783,638376,523954
1360.85,0.088234,635805,518908
1364.17,0.090707,633413,514020
1367.49,0.093140,631026,509222
1370.81,0.095313,628050,504291
1374.12,0.098181,625034,498566
1378.54,0.101017,620272,491547
1381.84,0.104916,616892,484499
1385.14,0.108963,613613,477454
1388.43,0.112997,611526,471431
1391.72,0.117947,610663,465430
1395.01,0.123298,610634,459709
1398.29,0.128238,611700,455303
1402.66,0.135483,614051,449491
1405.93,0.141275,616268,445138
1409.2,0.147751,617795,439636
1412.46,0.152279,618872,435835
1415.72,0.157257,619795,431510
1418.98,0.161075,620495,428216
1422.23,0.165003,621087,424766
1426.56,0.169373,621375,420708
1429.8,0.172363,621616,417984
1433.04,0.174646,622129,416135
1436.27,0.177548,621526,412963
1439.5,0.179831,621113,410525
1442.72,0.182271,620921,408099
1445.94,0.184552,620270,405535
1450.23,0.188067,618860,401352
1453.44,0.190943,617697,397954
1456.64,0.194172,616264,394089
1459.85,0.197468,614413,389935
1463.04,0.199566,612307,386726
1466.24,0.203105,610032,382162
1469.43,0.206439,607345,377569
1473.67,0.212581,603789,370087
1476.85,0.218277,601175,363684
1480.02,0.224267,597737,356651
1483.19,0.231167,594479,349116
1486.36,0.237329,591232,342317
1489.52,0.242116,587853,336630
1492.68,0.245622,583875,331664
1496.89,0.247679,578062,326810
1500.03,0.248237,574159,324187
1503.18,0.248112,570285,322092
1506.32,0.247980,565444,319455
1509.45,0.246968,560571,317441
1512.58,0.245013,555821,316171
1515.71,0.242120,550344,315148
1519.87,0.239050,543983,313715
1522.99,0.236099,538764,312824
1526.1,0.234077,533692,311325
1529.21,0.231150,527902,310030
1532.32,0.227797,521886,308872
1535.42,0.225433,515888,306989
1538.51,0.221751,509987,306061
1541.6,0.218387,503936,304781
1545.72,0.213883,494694,302311
1548.8,0.210080,488378,301076
1551.88,0.208459,481832,298151
1554.95,0.206797,474989,295044
1558.02,0.203972,467818,292486
1561.08,0.202738,460730,288874
1564.15,0.202177,454170,285129
1568.22,0.201268,444181,279442
1571.27,0.200719,436947,275239
1574.32,0.200204,429598,270931
1577.36,0.197166,422039,268032
1580.4,0.196921,414375,263313
1583.43,0.195283,406354,259192
1586.46,0.193747,398475,255067
1590.49,0.191710,388982,250161
1593.51,0.188907,380708,246425
1596.53,0.186593,372727,242548
1599.54,0.184807,365060,238538
1602.55,0.181354,357543,235491
1605.55,0.178959,349495,231463
1608.55,0.177572,341154,226662
1612.54,0.175235,330877,221020
1615.53,0.173471,322904,216572
1618.51,0.172169,315116,211983
1621.49,0.171496,307217,206990
1624.47,0.169269,299481,202815
1627.44,0.168818,292112,198030
1630.41,0.168023,284245,193050
1634.36,0.166092,274079,186975
1637.32,0.165347,266916,182401
1640.27,0.165281,259612,177437
1643.22,0.162650,251804,173146
1646.16,0.162578,244348,168047
1649.1,0.161356,236703,163248
1652.04,0.159895,228171,157894
1655.95,0.157341,215408,149941
1658.88,0.155041,204937,143410
1661.8,0.150235,193395,136839
1664.72,0.144612,179728,128826
1667.63,0.133857,163642,120237
1670.54,0.124385,146312,109874
1673.44,0.110731,128451,99542
1677.31,0.098623,105080,83733
1680.21,0.087947,88906,72608
1683.1,0.087834,75033,61294
1685.99,0.087760,63520,51898
1688.87,0.094132,53714,43247
1691.75,0.097927,45653,36437
1694.62,0.106540,39137,30623
1697.49,0.103792,33776,26596
1701.31,0.114366,28175,21652