File: samples/wool/wool-000811/Column 1_050569_20150331_120855.csv
Method:,Column 1,,
Host Date-Time:,31/3/15 @ 12:8:55,,
Header Version:,1,,
System Temp (C):,34.04,,
Detector Temp (C):,34.05,,
Humidity (%):,1.76,,
Lamp PD:,3818,,
Shift Vector Coefficients:,-10.5391,0.0761263,-0.000134223,,
Pixel to Wavelength Coefficients:,1775.68,-0.916766,-0.000235065,,
Serial Number:,5510004,,
Scan Config Name:,Column 1,,
Scan Config Type:,Slew,,
Section 1,,
Start wavelength (nm):,900,,
End wavelength (nm):,1700,,
Pattern Pixel Width (nm):,   7.03,,,,
Exposure (ms):,  0.635,,,,
Digital Resolution:,228,,
Num Repeats:,6,,
PGA Gain:,64,,
Total Measurement Time in sec:,  2.684,,
Wavelength (nm),Absorbance (AU),Reference Signal (unitless),Sample Signal (unitless)
901.51,0.035926,108485,99872
905.376,0.040890,121306,110406
909.237,0.043649,131909,119296
913.095,0.043541,143299,129629
916.948,0.045250,156982,141449
922.079,0.046556,179937,161646
925.923,0.048288,200504,179405
929.762,0.048460,222660,199151
933.597,0.050016,244426,217837
937.427,0.048333,263972,236170
941.254,0.048384,281845,252131
945.076,0.047483,297271,266483
950.165,0.047310,315605,283031
953.978,0.045783,328029,295209
957.786,0.046599,340470,305830
961.59,0.047317,352317,315949
965.389,0.047263,363056,325620
969.185,0.047115,373162,334798
972.976,0.048310,382632,342351
976.763,0.048171,391202,350131
981.806,0.048751,400190,357697
985.583,0.048921,406088,362827
989.355,0.049813,410162,365715
993.124,0.050528,412868,367522
996.888,0.051027,414263,368340
1000.65,0.051764,415476,368792
1004.4,0.052437,415479,368224
1009.41,0.054146,414358,365788
1013.15,0.054751,412923,364014
1016.89,0.055888,411526,361834
1020.63,0.055302,409066,360157
1024.36,0.054715,406777,358626
1028.09,0.054359,404427,356846
1031.82,0.054637,401911,354399
1036.78,0.054376,398410,351523
1040.49,0.053853,396204,349998
1044.2,0.053541,394236,348510
1047.91,0.053463,392042,346633
1051.61,0.052461,389823,345467
1055.31,0.052104,388234,344342
1059,0.051699,387599,344099
1063.92,0.050786,386688,344013
1067.61,0.049628,386598,344851
1071.29,0.049333,387377,345781
1074.96,0.048501,388536,347480
1078.63,0.048196,389855,348905
1082.3,0.047462,391215,350714
1085.96,0.046933,393215,352937
1090.84,0.045767,396270,356635
1094.49,0.045854,398760,358804
1098.14,0.045511,400987,361093
1101.79,0.045046,403477,363725
1105.43,0.044766,406116,366340
1109.06,0.043783,407701,368603
1112.7,0.044805,409859,369683
1117.53,0.044592,412494,372242
1121.15,0.044990,414909,374079
1124.77,0.046042,416559,374658
1128.38,0.047078,418532,375535
1131.99,0.048536,419956,375550
1135.6,0.049907,421946,376140
1139.2,0.052293,423881,375795
1143.99,0.054113,426786,376788
1147.58,0.054998,428617,377634
1151.17,0.056927,431169,378199
1154.75,0.057757,433579,379587
1158.33,0.059371,436264,380521
1161.91,0.061562,439132,381095
1165.48,0.064227,442389,381573
1169.04,0.066484,446101,382780
1173.79,0.070036,451929,384622
1177.34,0.072729,456026,385710
1180.9,0.075237,461306,387929
1184.44,0.077058,467657,391624
1187.99,0.077967,473969,396080
1191.52,0.077303,479856,401613
1195.06,0.077021,487372,408169
1199.76,0.076417,497347,417102
1203.29,0.075054,504311,424272
1206.81,0.074144,511507,431229
1210.33,0.073532,519078,438228
1213.84,0.073151,527163,445445
1217.35,0.072448,534208,452129
1220.85,0.071639,540472,458283
1225.51,0.070523,549929,467502
1229.01,0.070164,556888,473810
1232.5,0.069214,562180,479360
1235.98,0.069100,567975,484428
1239.46,0.068448,574815,490998
1242.94,0.066324,582782,500244
1246.41,0.066002,591476,508084
1251.03,0.065938,604016,518932
1254.5,0.066186,612289,525739
1257.96,0.066490,619125,531237
1261.41,0.067057,624551,535194
1264.86,0.067620,629900,539078
1268.31,0.068088,634345,542298
1271.75,0.069005,638574,544761
1276.33,0.069719,642499,547209
1279.76,0.069463,645905,550434
1283.19,0.068964,648307,553117
1286.61,0.068558,650446,555461
1290.03,0.068061,652132,557538
1293.44,0.067513,653907,559762
1296.85,0.067516,655963,561518
1301.39,0.067113,657349,563227
1304.8,0.067046,657558,563493
1308.19,0.066856,658515,564559
1311.58,0.067776,658804,563612
1314.97,0.068010,659011,563485
1318.36,0.068301,658272,562476
1321.73,0.068537,658022,561957
1326.23,0.069571,657870,560491
1329.6,0.070663,656482,557905
1332.97,0.071711,654926,555240
1336.33,0.072835,653727,552792
1339.69,0.074232,652497,549980
1343.04,0.076302,649913,545197
1346.39,0.078372,647671,540732
1349.73,0.080691,645338,535915
1354.18,0.083490,641175,529038
1357.52,0.085802,638376,523931
1360.85,0.087948,635805,519249
1364.17,0.090502,633413,514263
1367.49,0.092705,631026,509733
1370.81,0.095357,628050,504240
1374.12,0.097532,625034,499312
1378.54,0.100835,620272,491753
1381.84,0.104400,616892,485075
1385.14,0.108435,613613,478035
1388.43,0.112516,611526,471953
1391.72,0.116929,610663,466522
1395.01,0.121885,610634,461207
1398.29,0.127175,611700,456419
1402.66,0.134344,614051,450672
1405.93,0.140154,616268,446288
1409.2,0.144742,617795,442693
1412.46,0.149826,618872,438303
1415.72,0.154423,619795,434335
1418.98,0.158797,620495,430468
1422.23,0.162522,621087,427199
1426.56,0.166477,621375,423523
1429.8,0.169597,621616,420654
1433.04,0.172126,622129,418557
1436.27,0.174530,621526,415843
1439.5,0.176581,621113,413609
1442.72,0.178538,620921,411622
1445.94,0.181346,620270,408540
1450.23,0.185404,618860,403821
1453.44,0.188263,617697,400417
1456.64,0.191433,616264,396583
1459.85,0.194173,614413,392905
1463.04,0.197423,612307,388639
1466.24,0.200908,610032,384100
1469.43,0.204324,607345,379412
1473.67,0.210010,603789,372285
1476.85,0.216262,601175,365375
1480.02,0.222296,597737,358273
1483.19,0.229735,594479,350269
1486.36,0.235141,591232,344046
1489.52,0.241385,587853,337197
1492.68,0.244570,583875,332468
1496.89,0.247143,578062,327214
1500.03,0.247387,574159,324822
1503.18,0.247735,570285,322372
1506.32,0.247169,565444,320052
1509.45,0.245175,560571,318754
1512.58,0.244432,555821,316594
1515.71,0.241737,550344,315426
1519.87,0.238804,543983,313893
1522.99,0.235010,538764,313609
1526.1,0.232760,533692,312270
1529.21,0.229794,527902,310999
1532.32,0.227029,521886,309419
1535.42,0.223165,515888,308596
1538.51,0.220080,509987,307241
1541.6,0.216733,503936,305944
1545.72,0.213122,494694,302841
1548.8,0.210178,488378,301008
1551.88,0.207258,481832,298977
1554.95,0.204839,474989,296377
1558.02,0.203313,467818,292930
1561.08,0.201810,460730,289492
1564.15,0.201821,454170,285363
1568.22,0.199861,444181,280349
1571.27,0.198944,436947,276366
1574.32,0.198877,429598,271760
1577.36,0.197075,422039,268088
1580.4,0.195592,414375,264120
1583.43,0.194178,406354,259852
1586.46,0.191995,398475,256098
1590.49,0.190017,388982,251138
1593.51,0.187479,380708,247237
1596.53,0.185463,372727,243180
1599.54,0.183995,365060,238984
1602.55,0.181699,357543,235304
1605.55,0.178492,349495,231712
1608.55,0.176800,341154,227065
1612.54,0.173815,330877,221744
1615.53,0.172222,322904,217196
1618.51,0.170648,315116,212727
1621.49,0.170597,307217,207419
1624.47,0.168803,299481,203033
1627.44,0.167925,292112,198438
1630.41,0.166353,284245,193794
1634.36,0.165389,274079,187278
1637.32,0.164936,266916,182574
1640.27,0.163468,259612,178179
1643.22,0.161881,251804,173453
1646.16,0.161231,244348,168569
1649.1,0.160322,236703,163637
1652.04,0.159480,228171,158045
1655.95,0.156933,215408,150082
1658.88,0.153548,204937,143904
1661.8,0.149329,193395,137125
1664.72,0.145068,179728,128691
1667.63,0.131659,163642,120847
1670.54,0.118789,146312,111299
1673.44,0.106265,128451,100571
1677.31,0.089574,105080,85496
1680.21,0.080340,88906,73891
1683.1,0.077964,75033,62703
1685.99,0.081273,63520,52679
1688.87,0.079761,53714,44702
1691.75,0.092031,45653,36935
1694.62,0.094429,39137,31489
1697.49,0.100263,33776,26813
1701.31,0.111906,28175,21775