File: samples/wool/wool-000811/Column 1_050545_20150331_115717.csv
Method:,Column 1,,
Host Date-Time:,31/3/15 @ 11:57:17,,
Header Version:,1,,
System Temp (C):,32.81,,
Detector Temp (C):,31.29,,
Humidity (%):,2.54,,
Lamp PD:,3823,,
Shift Vector Coefficients:,-10.5391,0.0761263,-0.000134223,,
Pixel to Wavelength Coefficients:,1775.68,-0.916766,-0.000235065,,
Serial Number:,5510004,,
Scan Config Name:,Column 1,,
Scan Config Type:,Slew,,
Section 1,,
Start wavelength (nm):,900,,
End wavelength (nm):,1700,,
Pattern Pixel Width (nm):,   7.03,,,,
Exposure (ms):,  0.635,,,,
Digital Resolution:,228,,
Num Repeats:,6,,
PGA Gain:,64,,
Total Measurement Time in sec:,  2.660,,
Wavelength (nm),Absorbance (AU),Reference Signal (unitless),Sample Signal (unitless)
901.51,0.045889,108485,97607
905.376,0.052106,121306,107591
909.237,0.052475,131909,116896
913.095,0.054689,143299,126344
916.948,0.052117,156982,139230
922.079,0.053789,179937,158976
925.923,0.055615,200504,176404
929.762,0.054987,222660,196180
933.597,0.055998,244426,214857
937.427,0.055340,263972,232390
941.254,0.055352,281845,248118
945.076,0.055113,297271,261842
950.165,0.055842,315605,277525
953.978,0.055658,328029,288572
957.786,0.055541,340470,299597
961.59,0.056158,352317,309582
965.389,0.056338,363056,318886
969.185,0.056180,373162,327882
972.976,0.056710,382632,335793
976.763,0.057843,391202,342419
981.806,0.058460,400190,349789
985.583,0.058950,406088,354544
989.355,0.059262,410162,357844
993.124,0.059544,412868,359971
996.888,0.060584,414263,360323
1000.65,0.061707,415476,360445
1004.4,0.062058,415479,360156
1009.41,0.064056,414358,357536
1013.15,0.064300,412923,356098
1016.89,0.064597,411526,354650
1020.63,0.064121,409066,352917
1024.36,0.064345,406777,350761
1028.09,0.063609,404427,349326
1031.82,0.064427,401911,346500
1036.78,0.063678,398410,344074
1040.49,0.062239,396204,343305
1044.2,0.062631,394236,341291
1047.91,0.061924,392042,339945
1051.61,0.061014,389823,338730
1055.31,0.059926,388234,338195
1059,0.059372,387599,338073
1063.92,0.058543,386688,337923
1067.61,0.057443,386598,338701
1071.29,0.057101,387377,339651
1074.96,0.056052,388536,341491
1078.63,0.055217,389855,343310
1082.3,0.054291,391215,345243
1085.96,0.053517,393215,347627
1090.84,0.052677,396270,351006
1094.49,0.052868,398760,353056
1098.14,0.052294,400987,355497
1101.79,0.052316,403477,357687
1105.43,0.051576,406116,360640
1109.06,0.051393,407701,362200
1112.7,0.051323,409859,364176
1117.53,0.051174,412494,366643
1121.15,0.052073,414909,368027
1124.77,0.052374,416559,369235
1128.38,0.054368,418532,369284
1131.99,0.055808,419956,369314
1135.6,0.058478,421946,368790
1139.2,0.059520,423881,369593
1143.99,0.062769,426786,369353
1147.58,0.063310,428617,370475
1151.17,0.065081,431169,371165
1154.75,0.066543,433579,371985
1158.33,0.068098,436264,372951
1161.91,0.070768,439132,373102
1165.48,0.073758,442389,373290
1169.04,0.077061,446101,373570
1173.79,0.080922,451929,375101
1177.34,0.083856,456026,375953
1180.9,0.086069,461306,378373
1184.44,0.088349,467657,381574
1187.99,0.089156,473969,386006
1191.52,0.088906,479856,391025
1195.06,0.088262,487372,397739
1199.76,0.086385,497347,407638
1203.29,0.085027,504311,414640
1206.81,0.083862,511507,421686
1210.33,0.082653,519078,429121
1213.84,0.081591,527163,436872
1217.35,0.080141,534208,444191
1220.85,0.079207,540472,450367
1225.51,0.078066,549929,459452
1229.01,0.077466,556888,465910
1232.5,0.076403,562180,471490
1235.98,0.075442,567975,477405
1239.46,0.074347,574815,484374
1242.94,0.073470,582782,492080
1246.41,0.072731,591476,500272
1251.03,0.072004,604016,511734
1254.5,0.072232,612289,518471
1257.96,0.072508,619125,523926
1261.41,0.073335,624551,527513
1264.86,0.073513,629900,531813
1268.31,0.074674,634345,534136
1271.75,0.075569,638574,536590
1276.33,0.075401,642499,540097
1279.76,0.075561,645905,542760
1283.19,0.075142,648307,545304
1286.61,0.074639,650446,547737
1290.03,0.073989,652132,549980
1293.44,0.073342,653907,552299
1296.85,0.073206,655963,554209
1301.39,0.072929,657349,555734
1304.8,0.073049,657558,555757
1308.19,0.073525,658515,555956
1311.58,0.073332,658804,556448
1314.97,0.073784,659011,556044
1318.36,0.074367,658272,554675
1321.73,0.075096,658022,553534
1326.23,0.075957,657870,552310
1329.6,0.077009,656482,549812
1332.97,0.078051,654926,547194
1336.33,0.079372,653727,544533
1339.69,0.081599,652497,540729
1343.04,0.083319,649913,536459
1346.39,0.085774,647671,531595
1349.73,0.088104,645338,526845
1354.18,0.091956,641175,518825
1357.52,0.094110,638376,514004
1360.85,0.096505,635805,509118
1364.17,0.098876,633413,504442
1367.49,0.102083,631026,498844
1370.81,0.104779,628050,493418
1374.12,0.107105,625034,488426
1378.54,0.110667,620272,480745
1381.84,0.114595,616892,473821
1385.14,0.119705,613613,465789
1388.43,0.124612,611526,458990
1391.72,0.130341,610663,452335
1395.01,0.135890,610634,446571
1398.29,0.141810,611700,441294
1402.66,0.150748,614051,433967
1405.93,0.157037,616268,429272
1409.2,0.163039,617795,424429
1412.46,0.168547,618872,419811
1415.72,0.174400,619795,414809
1418.98,0.178789,620495,411102
1422.23,0.183086,621087,407443
1426.56,0.187232,621375,403759
1429.8,0.190552,621616,400839
1433.04,0.193487,622129,398468
1436.27,0.196018,621526,395769
1439.5,0.198244,621113,393484
1442.72,0.201114,620921,390771
1445.94,0.203295,620270,388406
1450.23,0.207089,618860,384152
1453.44,0.210278,617697,380625
1456.64,0.212895,616264,377461
1459.85,0.215683,614413,373919
1463.04,0.218298,612307,370400
1466.24,0.221708,610032,366138
1469.43,0.225079,607345,361707
1473.67,0.230629,603789,355023
1476.85,0.235063,601175,349895
1480.02,0.241434,597737,342828
1483.19,0.247584,594479,336165
1486.36,0.253407,591232,329876
1489.52,0.258851,587853,323905
1492.68,0.263148,583875,318546
1496.89,0.265378,578062,313759
1500.03,0.266553,574159,310799
1503.18,0.266924,570285,308438
1506.32,0.265843,565444,306582
1509.45,0.264925,560571,304583
1512.58,0.263560,555821,302953
1515.71,0.261564,550344,301349
1519.87,0.257761,543983,300486
1522.99,0.255921,538764,298867
1526.1,0.253044,533692,298021
1529.21,0.249636,527902,297110
1532.32,0.246854,521886,295612
1535.42,0.243037,515888,294794
1538.51,0.239913,509987,293526
1541.6,0.235469,503936,293026
1545.72,0.232032,494694,289938
1548.8,0.228338,488378,288681
1551.88,0.225230,481832,286857
1554.95,0.223610,474989,283840
1558.02,0.221527,467818,280899
1561.08,0.220194,460730,277493
1564.15,0.218625,454170,274532
1568.22,0.218106,444181,268815
1571.27,0.216793,436947,265238
1574.32,0.216094,429598,261197
1577.36,0.214619,422039,257474
1580.4,0.212784,414375,253869
1583.43,0.211881,406354,249473
1586.46,0.209545,398475,245955
1590.49,0.207178,388982,241408
1593.51,0.204707,380708,237621
1596.53,0.201604,372727,234308
1599.54,0.200451,365060,230098
1602.55,0.197429,357543,226934
1605.55,0.195904,349495,222606
1608.55,0.192657,341154,218924
1612.54,0.189773,330877,213744
1615.53,0.186021,322904,210403
1618.51,0.186314,315116,205190
1621.49,0.186146,307217,200124
1624.47,0.182803,299481,196592
1627.44,0.181374,292112,192387
1630.41,0.180622,284245,187530
1634.36,0.178368,274079,181764
1637.32,0.177370,266916,177421
1640.27,0.177876,259612,172365
1643.22,0.176931,251804,167545
1646.16,0.174627,244348,163449
1649.1,0.174572,236703,158355
1652.04,0.172945,228171,153220
1655.95,0.170438,215408,145487
1658.88,0.168665,204937,138981
1661.8,0.166296,193395,131871
1664.72,0.162225,179728,123706
1667.63,0.156156,163642,114219
1670.54,0.149665,146312,103661
1673.44,0.144737,128451,92045
1677.31,0.136866,105080,76675
1680.21,0.129749,88906,65945
1683.1,0.136282,75033,54824
1685.99,0.137602,63520,46271
1688.87,0.142792,53714,38663
1691.75,0.153980,45653,32025
1694.62,0.152450,39137,27551
1697.49,0.153494,33776,23720
1701.31,0.163520,28175,19335