File: samples/wool/wool-000811/Column 1_050580_20150331_121414.csv
Method:,Column 1,,
Host Date-Time:,31/3/15 @ 12:14:14,,
Header Version:,1,,
System Temp (C):,33.77,,
Detector Temp (C):,34.57,,
Humidity (%):,1.95,,
Lamp PD:,3819,,
Shift Vector Coefficients:,-10.5391,0.0761263,-0.000134223,,
Pixel to Wavelength Coefficients:,1775.68,-0.916766,-0.000235065,,
Serial Number:,5510004,,
Scan Config Name:,Column 1,,
Scan Config Type:,Slew,,
Section 1,,
Start wavelength (nm):,900,,
End wavelength (nm):,1700,,
Pattern Pixel Width (nm):,   7.03,,,,
Exposure (ms):,  0.635,,,,
Digital Resolution:,228,,
Num Repeats:,6,,
PGA Gain:,64,,
Total Measurement Time in sec:,  2.675,,
Wavelength (nm),Absorbance (AU),Reference Signal (unitless),Sample Signal (unitless)
901.51,0.071299,108485,92060
905.376,0.077378,121306,101509
909.237,0.078751,131909,110033
913.095,0.078770,143299,119529
916.948,0.081790,156982,130035
922.079,0.082132,179937,148932
925.923,0.083882,200504,165288
929.762,0.083703,222660,183628
933.597,0.084280,244426,201311
937.427,0.082771,263972,218166
941.254,0.082861,281845,232889
945.076,0.081071,297271,246650
950.165,0.080602,315605,262145
953.978,0.081404,328029,271962
957.786,0.079694,340470,283390
961.59,0.080793,352317,292510
965.389,0.080524,363056,301613
969.185,0.080830,373162,309790
972.976,0.081057,382632,317486
976.763,0.081330,391202,324393
981.806,0.082278,400190,331122
985.583,0.082424,406088,335889
989.355,0.082933,410162,338862
993.124,0.083998,412868,340262
996.888,0.084378,414263,341113
1000.65,0.084672,415476,341880
1004.4,0.085623,415479,341135
1009.41,0.086698,414358,339373
1013.15,0.087943,412923,337230
1016.89,0.088308,411526,335807
1020.63,0.088373,409066,333749
1024.36,0.088203,406777,332012
1028.09,0.087599,404427,330553
1031.82,0.087829,401911,328323
1036.78,0.087086,398410,326020
1040.49,0.086842,396204,324397
1044.2,0.086928,394236,322722
1047.91,0.086905,392042,320943
1051.61,0.085841,389823,319909
1055.31,0.086411,388234,318187
1059,0.085751,387599,318150
1063.92,0.084538,386688,318290
1067.61,0.084068,386598,318560
1071.29,0.083852,387377,319361
1074.96,0.083354,388536,320684
1078.63,0.082609,389855,322325
1082.3,0.082072,391215,323850
1085.96,0.081587,393215,325869
1090.84,0.080460,396270,329254
1094.49,0.079809,398760,331820
1098.14,0.079571,400987,333856
1101.79,0.078927,403477,336428
1105.43,0.078634,406116,338857
1109.06,0.077589,407701,340999
1112.7,0.077287,409859,343042
1117.53,0.077146,412494,345360
1121.15,0.078217,414909,346526
1124.77,0.078205,416559,347914
1128.38,0.078844,418532,349048
1131.99,0.080082,419956,349238
1135.6,0.081276,421946,349930
1139.2,0.082531,423881,350520
1143.99,0.084661,426786,351196
1147.58,0.086134,428617,351508
1151.17,0.086658,431169,353175
1154.75,0.087725,433579,354277
1158.33,0.089636,436264,354906
1161.91,0.090811,439132,356274
1165.48,0.093281,442389,356881
1169.04,0.095409,446101,358116
1173.79,0.098934,451929,359862
1177.34,0.100419,456026,361885
1180.9,0.102717,461306,364143
1184.44,0.104457,467657,367680
1187.99,0.105349,473969,371878
1191.52,0.105624,479856,376259
1195.06,0.105152,487372,382568
1199.76,0.104885,497347,390638
1203.29,0.103649,504311,397237
1206.81,0.103748,511507,402813
1210.33,0.102735,519078,409730
1213.84,0.102166,527163,416657
1217.35,0.101525,534208,422849
1220.85,0.101002,540472,428323
1225.51,0.100470,549929,436352
1229.01,0.099951,556888,442402
1232.5,0.099223,562180,447355
1235.98,0.098096,567975,453141
1239.46,0.097765,574815,458948
1242.94,0.096949,582782,466184
1246.41,0.096304,591476,473841
1251.03,0.096233,604016,483967
1254.5,0.096591,612289,490191
1257.96,0.096671,619125,495573
1261.41,0.097042,624551,499489
1264.86,0.097660,629900,503050
1268.31,0.098172,634345,506004
1271.75,0.098955,638574,508459
1276.33,0.099125,642499,511384
1279.76,0.099212,645905,513992
1283.19,0.098472,648307,516783
1286.61,0.098074,650446,518964
1290.03,0.097735,652132,520715
1293.44,0.097092,653907,522906
1296.85,0.097297,655963,524303
1301.39,0.097014,657349,525753
1304.8,0.097172,657558,525729
1308.19,0.097184,658515,526480
1311.58,0.097247,658804,526635
1314.97,0.098176,659011,525674
1318.36,0.098268,658272,524973
1321.73,0.098675,658022,524283
1326.23,0.100131,657870,522407
1329.6,0.100457,656482,520914
1332.97,0.102221,654926,517572
1336.33,0.102471,653727,516328
1339.69,0.104463,652497,512998
1343.04,0.106204,649913,508922
1346.39,0.108204,647671,504836
1349.73,0.110012,645338,500928
1354.18,0.113031,641175,494249
1357.52,0.115339,638376,489483
1360.85,0.117342,635805,485268
1364.17,0.119638,633413,480894
1367.49,0.121463,631026,477072
1370.81,0.123399,628050,472711
1374.12,0.126241,625034,467372
1378.54,0.129517,620272,460326
1381.84,0.132638,616892,454539
1385.14,0.136125,613613,448507
1388.43,0.140691,611526,442307
1391.72,0.145176,610663,437145
1395.01,0.150497,610634,431801
1398.29,0.155962,611700,427146
1402.66,0.162711,614051,422176
1405.93,0.168843,616268,417760
1409.2,0.174480,617795,413394
1412.46,0.179508,618872,409348
1415.72,0.184466,619795,405305
1418.98,0.188414,620495,402091
1422.23,0.192403,621087,398795
1426.56,0.196512,621375,395223
1429.8,0.199670,621616,392511
1433.04,0.202472,622129,390309
1436.27,0.204267,621526,388322
1439.5,0.206574,621113,386008
1442.72,0.208497,620921,384184
1445.94,0.211011,620270,381566
1450.23,0.214395,618860,377744
1453.44,0.216962,617697,374812
1456.64,0.219667,616264,371621
1459.85,0.221295,614413,369118
1463.04,0.224683,612307,364994
1466.24,0.227937,610032,360924
1469.43,0.230790,607345,356981
1473.67,0.235619,603789,350967
1476.85,0.240490,601175,345550
1480.02,0.245477,597737,339651
1483.19,0.251054,594479,333490
1486.36,0.255930,591232,327965
1489.52,0.260088,587853,322984
1492.68,0.263269,583875,318457
1496.89,0.264605,578062,314318
1500.03,0.265028,574159,311892
1503.18,0.264614,570285,310083
1506.32,0.263814,565444,308018
1509.45,0.263304,560571,305722
1512.58,0.261893,555821,304118
1515.71,0.259131,550344,303042
1519.87,0.256742,543983,301192
1522.99,0.254467,538764,299869
1526.1,0.251670,533692,298965
1529.21,0.249017,527902,297534
1532.32,0.246095,521886,296129
1535.42,0.242981,515888,294832
1538.51,0.240779,509987,292941
1541.6,0.237636,503936,291568
1545.72,0.233756,494694,288789
1548.8,0.231082,488378,286863
1551.88,0.228568,481832,284661
1554.95,0.226829,474989,281744
1558.02,0.224684,467818,278864
1561.08,0.223503,460730,275387
1564.15,0.222247,454170,272252
1568.22,0.221548,444181,266693
1571.27,0.221078,436947,262634
1574.32,0.219680,429598,259049
1577.36,0.218241,422039,255336
1580.4,0.216856,414375,251500
1583.43,0.215298,406354,247518
1586.46,0.214916,398475,242932
1590.49,0.212001,388982,238742
1593.51,0.210229,380708,234619
1596.53,0.208581,372727,230574
1599.54,0.205935,365060,227211
1602.55,0.204298,357543,223373
1605.55,0.202175,349495,219415
1608.55,0.200565,341154,214974
1612.54,0.198282,330877,209597
1615.53,0.196558,322904,205360
1618.51,0.195491,315116,200900
1621.49,0.194012,307217,196532
1624.47,0.193555,299481,191785
1627.44,0.192900,292112,187348
1630.41,0.190400,284245,183355
1634.36,0.190293,274079,176841
1637.32,0.188047,266916,173112
1640.27,0.188814,259612,168078
1643.22,0.187091,251804,163671
1646.16,0.186836,244348,158918
1649.1,0.185644,236703,154369
1652.04,0.184224,228171,149292
1655.95,0.181690,215408,141766
1658.88,0.178631,204937,135828
1661.8,0.171754,193395,130224
1664.72,0.164291,179728,123119
1667.63,0.151971,163642,115325
1670.54,0.138159,146312,106444
1673.44,0.122656,128451,96846
1677.31,0.104451,105080,82617
1680.21,0.094759,88906,71478
1683.1,0.089837,75033,61012
1685.99,0.089025,63520,51747
1688.87,0.092538,53714,43406
1691.75,0.097105,45653,36506
1694.62,0.102474,39137,30911
1697.49,0.114705,33776,25936
1701.31,0.118477,28175,21448