File: samples/wool/wool-000811/Column 1_050542_20150331_115600.csv
Method:,Column 1,,
Host Date-Time:,31/3/15 @ 11:56:0,,
Header Version:,1,,
System Temp (C):,32.49,,
Detector Temp (C):,30.86,,
Humidity (%):,2.83,,
Lamp PD:,3824,,
Shift Vector Coefficients:,-10.5391,0.0761263,-0.000134223,,
Pixel to Wavelength Coefficients:,1775.68,-0.916766,-0.000235065,,
Serial Number:,5510004,,
Scan Config Name:,Column 1,,
Scan Config Type:,Slew,,
Section 1,,
Start wavelength (nm):,900,,
End wavelength (nm):,1700,,
Pattern Pixel Width (nm):,   7.03,,,,
Exposure (ms):,  0.635,,,,
Digital Resolution:,228,,
Num Repeats:,6,,
PGA Gain:,64,,
Total Measurement Time in sec:,  2.678,,
Wavelength (nm),Absorbance (AU),Reference Signal (unitless),Sample Signal (unitless)
901.51,0.044139,108485,98001
905.376,0.050849,121306,107903
909.237,0.050688,131909,117378
913.095,0.052180,143299,127076
916.948,0.052364,156982,139151
922.079,0.052976,179937,159274
925.923,0.052890,200504,177514
929.762,0.052931,222660,197111
933.597,0.054102,244426,215797
937.427,0.053232,263972,233521
941.254,0.054894,281845,248380
945.076,0.054290,297271,262339
950.165,0.054227,315605,278559
953.978,0.054168,328029,289564
957.786,0.054684,340470,300189
961.59,0.054970,352317,310430
965.389,0.055216,363056,319711
969.185,0.055673,373162,328265
972.976,0.056229,382632,336165
976.763,0.057283,391202,342861
981.806,0.057036,400190,350938
985.583,0.057848,406088,355445
989.355,0.058804,410162,358221
993.124,0.059311,412868,360164
996.888,0.059931,414263,360865
1000.65,0.061612,415476,360524
1004.4,0.062213,415479,360028
1009.41,0.062873,414358,358511
1013.15,0.063225,412923,356980
1016.89,0.064632,411526,354622
1020.63,0.064198,409066,352854
1024.36,0.064219,406777,350863
1028.09,0.063359,404427,349527
1031.82,0.063331,401911,347375
1036.78,0.062958,398410,344645
1040.49,0.062084,396204,343427
1044.2,0.061801,394236,341944
1047.91,0.061212,392042,340503
1051.61,0.060255,389823,339322
1055.31,0.059367,388234,338631
1059,0.058803,387599,338516
1063.92,0.057738,386688,338550
1067.61,0.057162,386598,338920
1071.29,0.056337,387377,340249
1074.96,0.054956,388536,342354
1078.63,0.054711,389855,343710
1082.3,0.053510,391215,345864
1085.96,0.052931,393215,348096
1090.84,0.052187,396270,351402
1094.49,0.051896,398760,353847
1098.14,0.051635,400987,356037
1101.79,0.051253,403477,358563
1105.43,0.050929,406116,361178
1109.06,0.050497,407701,362948
1112.7,0.050967,409859,364475
1117.53,0.050819,412494,366943
1121.15,0.051809,414909,368251
1124.77,0.052328,416559,369274
1128.38,0.053664,418532,369883
1131.99,0.055238,419956,369799
1135.6,0.056979,421946,370065
1139.2,0.058818,423881,370191
1143.99,0.061923,426786,370073
1147.58,0.063276,428617,370504
1151.17,0.064247,431169,371878
1154.75,0.065666,433579,372737
1158.33,0.068357,436264,372728
1161.91,0.070963,439132,372934
1165.48,0.073730,442389,373314
1169.04,0.076469,446101,374080
1173.79,0.080674,451929,375315
1177.34,0.083343,456026,376397
1180.9,0.085719,461306,378678
1184.44,0.088135,467657,381762
1187.99,0.088880,473969,386251
1191.52,0.087958,479856,391880
1195.06,0.087511,487372,398428
1199.76,0.085887,497347,408106
1203.29,0.084602,504311,415046
1206.81,0.083780,511507,421766
1210.33,0.082478,519078,429294
1213.84,0.081501,527163,436962
1217.35,0.080235,534208,444094
1220.85,0.079661,540472,449896
1225.51,0.077634,549929,459910
1229.01,0.077254,556888,466137
1232.5,0.076499,562180,471386
1235.98,0.075464,567975,477381
1239.46,0.074354,574815,484366
1242.94,0.073121,582782,492476
1246.41,0.071988,591476,501129
1251.03,0.072373,604016,511300
1254.5,0.071921,612289,518842
1257.96,0.072568,619125,523854
1261.41,0.073094,624551,527805
1264.86,0.073511,629900,531815
1268.31,0.074111,634345,534829
1271.75,0.075109,638574,537158
1276.33,0.075144,642499,540416
1279.76,0.075402,645905,542958
1283.19,0.074481,648307,546134
1286.61,0.074426,650446,548006
1290.03,0.074092,652132,549849
1293.44,0.073316,653907,552332
1296.85,0.073179,655963,554243
1301.39,0.072567,657349,556197
1304.8,0.072888,657558,555963
1308.19,0.072818,658515,556862
1311.58,0.073418,658804,556337
1314.97,0.073801,659011,556021
1318.36,0.074805,658272,554116
1321.73,0.075062,658022,553578
1326.23,0.076130,657870,552090
1329.6,0.077027,656482,549789
1332.97,0.078260,654926,546931
1336.33,0.079390,653727,544511
1339.69,0.081478,652497,540879
1343.04,0.083524,649913,536206
1346.39,0.085881,647671,531464
1349.73,0.088338,645338,526562
1354.18,0.091855,641175,518945
1357.52,0.093881,638376,514275
1360.85,0.096755,635805,508826
1364.17,0.099347,633413,503895
1367.49,0.102062,631026,498867
1370.81,0.104555,628050,493673
1374.12,0.106827,625034,488739
1378.54,0.111238,620272,480114
1381.84,0.114855,616892,473537
1385.14,0.119321,613613,466201
1388.43,0.124645,611526,458955
1391.72,0.130659,610663,452004
1395.01,0.136638,610634,445803
1398.29,0.142719,611700,440372
1402.66,0.151225,614051,433490
1405.93,0.158087,616268,428235
1409.2,0.164651,617795,422857
1412.46,0.170295,618872,418125
1415.72,0.175343,619795,413909
1418.98,0.180778,620495,409223
1422.23,0.184389,621087,406222
1426.56,0.189240,621375,401896
1429.8,0.192230,621616,399293
1433.04,0.195625,622129,396511
1436.27,0.197848,621526,394104
1439.5,0.199829,621113,392050
1442.72,0.202166,620921,389826
1445.94,0.205072,620270,386820
1450.23,0.208534,618860,382876
1453.44,0.212014,617697,379107
1456.64,0.214341,616264,376206
1459.85,0.216430,614413,373276
1463.04,0.220214,612307,368770
1466.24,0.223441,610032,364680
1469.43,0.226646,607345,360404
1473.67,0.231531,603789,354286
1476.85,0.236874,601175,348439
1480.02,0.242441,597737,342034
1483.19,0.248370,594479,335557
1486.36,0.254643,591232,328939
1489.52,0.259542,587853,323390
1492.68,0.263646,583875,318181
1496.89,0.266129,578062,313217
1500.03,0.266827,574159,310603
1503.18,0.267320,570285,308157
1506.32,0.267061,565444,305723
1509.45,0.265806,560571,303966
1512.58,0.263960,555821,302674
1515.71,0.262320,550344,300825
1519.87,0.259061,543983,299588
1522.99,0.256194,538764,298679
1526.1,0.252935,533692,298096
1529.21,0.250047,527902,296829
1532.32,0.247026,521886,295495
1535.42,0.243684,515888,294355
1538.51,0.241671,509987,292340
1541.6,0.237213,503936,291852
1545.72,0.231883,494694,290037
1548.8,0.228368,488378,288661
1551.88,0.226032,481832,286328
1554.95,0.223867,474989,283672
1558.02,0.222065,467818,280551
1561.08,0.219756,460730,277773
1564.15,0.220080,454170,273614
1568.22,0.217616,444181,269119
1571.27,0.217499,436947,264807
1574.32,0.216575,429598,260908
1577.36,0.215050,422039,257219
1580.4,0.213908,414375,253213
1583.43,0.211646,406354,249608
1586.46,0.210042,398475,245674
1590.49,0.208044,388982,240927
1593.51,0.205236,380708,237332
1596.53,0.202859,372727,233632
1599.54,0.200176,365060,230244
1602.55,0.197318,357543,226992
1605.55,0.195571,349495,222777
1608.55,0.192959,341154,218772
1612.54,0.189795,330877,213733
1615.53,0.187297,322904,209786
1618.51,0.186890,315116,204918
1621.49,0.185309,307217,200510
1624.47,0.182898,299481,196549
1627.44,0.181464,292112,192347
1630.41,0.180312,284245,187664
1634.36,0.179176,274079,181426
1637.32,0.179192,266916,176678
1640.27,0.177651,259612,172454
1643.22,0.176297,251804,167790
1646.16,0.175968,244348,162945
1649.1,0.173983,236703,158570
1652.04,0.173308,228171,153092
1655.95,0.171146,215408,145250
1658.88,0.169056,204937,138856
1661.8,0.168442,193395,131221
1664.72,0.165248,179728,122848
1667.63,0.158826,163642,113519
1670.54,0.152034,146312,103097
1673.44,0.147383,128451,91486
1677.31,0.142086,105080,75759
1680.21,0.138860,88906,64576
1683.1,0.143486,75033,53922
1685.99,0.147407,63520,45238
1688.87,0.156670,53714,37447
1691.75,0.153018,45653,32096
1694.62,0.157508,39137,27232
1697.49,0.161159,33776,23305
1701.31,0.165636,28175,19241