File: samples/wool/wool-000811/Column 1_050594_20150331_122041.csv
Method:,Column 1,,
Host Date-Time:,31/3/15 @ 12:20:41,,
Header Version:,1,,
System Temp (C):,33.91,,
Detector Temp (C):,34.7,,
Humidity (%):,1.76,,
Lamp PD:,3818,,
Shift Vector Coefficients:,-10.5391,0.0761263,-0.000134223,,
Pixel to Wavelength Coefficients:,1775.68,-0.916766,-0.000235065,,
Serial Number:,5510004,,
Scan Config Name:,Column 1,,
Scan Config Type:,Slew,,
Section 1,,
Start wavelength (nm):,900,,
End wavelength (nm):,1700,,
Pattern Pixel Width (nm):,   7.03,,,,
Exposure (ms):,  0.635,,,,
Digital Resolution:,228,,
Num Repeats:,6,,
PGA Gain:,64,,
Total Measurement Time in sec:,  2.720,,
Wavelength (nm),Absorbance (AU),Reference Signal (unitless),Sample Signal (unitless)
901.51,0.071058,108485,92111
905.376,0.075755,121306,101889
909.237,0.077923,131909,110243
913.095,0.079122,143299,119432
916.948,0.080969,156982,130281
922.079,0.081186,179937,149257
925.923,0.083887,200504,165286
929.762,0.082562,222660,184111
933.597,0.083693,244426,201583
937.427,0.082417,263972,218344
941.254,0.081446,281845,233649
945.076,0.080626,297271,246903
950.165,0.078931,315605,263156
953.978,0.078758,328029,273624
957.786,0.079077,340470,283793
961.59,0.079058,352317,293681
965.389,0.079118,363056,302591
969.185,0.079057,373162,311057
972.976,0.079294,382632,318777
976.763,0.080241,391202,325207
981.806,0.080241,400190,332679
985.583,0.080372,406088,337480
989.355,0.081659,410162,339857
993.124,0.082109,412868,341745
996.888,0.082365,414263,342698
1000.65,0.082908,415476,343272
1004.4,0.084080,415479,342349
1009.41,0.085353,414358,340426
1013.15,0.085463,412923,339161
1016.89,0.086278,411526,337380
1020.63,0.086535,409066,335165
1024.36,0.086443,406777,333360
1028.09,0.086037,404427,331744
1031.82,0.086483,401911,329342
1036.78,0.085407,398410,327283
1040.49,0.085396,396204,325479
1044.2,0.086032,394236,323388
1047.91,0.084776,392042,322520
1051.61,0.084326,389823,321027
1055.31,0.084159,388234,319841
1059,0.083423,387599,319860
1063.92,0.082928,386688,319472
1067.61,0.082809,386598,319485
1071.29,0.082001,387377,320725
1074.96,0.081655,388536,321941
1078.63,0.081307,389855,323293
1082.3,0.080078,391215,325340
1085.96,0.079050,393215,327778
1090.84,0.078272,396270,330917
1094.49,0.077703,398760,333433
1098.14,0.076997,400987,335841
1101.79,0.076680,403477,338173
1105.43,0.076648,406116,340410
1109.06,0.075675,407701,342505
1112.7,0.074716,409859,345079
1117.53,0.074908,412494,347144
1121.15,0.075338,414909,348831
1124.77,0.075909,416559,349758
1128.38,0.077052,418532,350491
1131.99,0.077851,419956,351037
1135.6,0.079194,421946,351611
1139.2,0.080963,423881,351788
1143.99,0.082531,426786,352922
1147.58,0.083437,428617,353698
1151.17,0.084391,431169,355023
1154.75,0.084875,433579,356610
1158.33,0.086291,436264,357650
1161.91,0.087938,439132,358639
1165.48,0.090047,442389,359548
1169.04,0.092701,446101,360356
1173.79,0.096566,451929,361830
1177.34,0.098101,456026,363822
1180.9,0.100764,461306,365784
1184.44,0.101727,467657,369999
1187.99,0.103114,473969,373797
1191.52,0.102894,479856,378632
1195.06,0.102830,487372,384619
1199.76,0.102344,497347,392930
1203.29,0.101448,504311,399255
1206.81,0.101020,511507,405351
1210.33,0.100735,519078,411621
1213.84,0.099881,527163,418855
1217.35,0.099100,534208,425217
1220.85,0.098521,540472,430777
1225.51,0.097745,549929,439098
1229.01,0.097443,556888,444964
1232.5,0.097066,562180,449582
1235.98,0.096208,567975,455115
1239.46,0.095158,574815,461711
1242.94,0.093777,582782,469601
1246.41,0.093256,591476,477179
1251.03,0.093784,604016,486703
1254.5,0.093551,612289,493634
1257.96,0.094257,619125,498335
1261.41,0.094763,624551,502117
1264.86,0.095521,629900,505534
1268.31,0.095614,634345,508993
1271.75,0.096240,638574,511648
1276.33,0.096419,642499,514581
1279.76,0.096959,645905,516666
1283.19,0.095247,648307,520636
1286.61,0.095305,650446,522284
1290.03,0.095351,652132,523582
1293.44,0.094534,653907,525996
1296.85,0.094488,655963,527705
1301.39,0.094097,657349,529297
1304.8,0.094240,657558,529290
1308.19,0.094406,658515,529858
1311.58,0.094516,658804,529956
1314.97,0.094957,659011,529585
1318.36,0.095354,658272,528508
1321.73,0.095670,658022,527923
1326.23,0.096603,657870,526668
1329.6,0.097802,656482,524108
1332.97,0.098548,654926,521969
1336.33,0.099680,653727,519656
1339.69,0.101301,652497,516746
1343.04,0.102466,649913,513321
1346.39,0.104760,647671,508855
1349.73,0.106621,645338,504854
1354.18,0.109544,641175,498233
1357.52,0.111686,638376,493618
1360.85,0.113511,635805,489568
1364.17,0.115652,633413,485328
1367.49,0.117517,631026,481427
1370.81,0.120239,628050,476162
1374.12,0.121818,625034,472156
1378.54,0.124780,620272,465374
1381.84,0.127454,616892,459997
1385.14,0.131594,613613,453211
1388.43,0.135325,611526,447806
1391.72,0.139610,610663,442784
1395.01,0.143754,610634,438558
1398.29,0.148499,611700,434550
1402.66,0.155015,614051,429724
1405.93,0.161247,616268,425131
1409.2,0.166068,617795,421479
1412.46,0.170063,618872,418348
1415.72,0.174438,619795,414773
1418.98,0.177855,620495,411987
1422.23,0.181549,621087,408887
1426.56,0.185530,621375,405344
1429.8,0.188212,621616,403005
1433.04,0.190614,622129,401113
1436.27,0.193040,621526,398492
1439.5,0.194943,621113,396486
1442.72,0.197583,620921,393961
1445.94,0.199480,620270,391833
1450.23,0.203305,618860,387514
1453.44,0.205950,617697,384437
1456.64,0.208511,616264,381290
1459.85,0.211489,614413,377547
1463.04,0.214042,612307,374048
1466.24,0.216885,610032,370227
1469.43,0.220951,607345,365161
1473.67,0.226738,603789,358218
1476.85,0.231155,601175,353058
1480.02,0.237607,597737,345862
1483.19,0.243568,594479,339288
1486.36,0.249348,591232,332974
1489.52,0.253525,587853,327902
1492.68,0.256918,583875,323148
1496.89,0.258626,578062,318675
1500.03,0.259469,574159,315910
1503.18,0.259319,570285,313887
1506.32,0.258316,565444,311942
1509.45,0.257364,560571,309932
1512.58,0.255518,555821,308615
1515.71,0.253957,550344,306674
1519.87,0.250261,543983,305720
1522.99,0.248321,538764,304143
1526.1,0.245520,533692,303229
1529.21,0.242522,527902,302017
1532.32,0.240449,521886,300004
1535.42,0.236346,515888,299371
1538.51,0.233604,509987,297821
1541.6,0.231467,503936,295739
1545.72,0.227062,494694,293275
1548.8,0.224122,488378,291497
1551.88,0.222068,481832,288953
1554.95,0.219586,474989,286482
1558.02,0.218605,467818,282795
1561.08,0.217436,460730,279261
1564.15,0.217146,454170,275469
1568.22,0.215915,444181,270175
1571.27,0.214230,436947,266808
1574.32,0.213915,429598,262511
1577.36,0.212855,422039,258522
1580.4,0.211832,414375,254426
1583.43,0.210421,406354,250313
1586.46,0.207957,398475,246856
1590.49,0.206700,388982,241674
1593.51,0.204870,380708,237532
1596.53,0.202838,372727,233643
1599.54,0.199831,365060,230427
1602.55,0.198157,357543,226554
1605.55,0.197466,349495,221807
1608.55,0.196413,341154,217039
1612.54,0.193116,330877,212105
1615.53,0.190461,322904,208263
1618.51,0.190090,315116,203414
1621.49,0.189711,307217,198488
1624.47,0.188033,299481,194239
1627.44,0.187897,292112,189519
1630.41,0.186514,284245,185003
1634.36,0.184974,274079,179020
1637.32,0.184223,266916,174643
1640.27,0.183952,259612,169970
1643.22,0.182029,251804,165590
1646.16,0.182466,244348,160525
1649.1,0.182806,236703,155381
1652.04,0.179229,228171,151019
1655.95,0.176837,215408,143359
1658.88,0.173472,204937,137451
1661.8,0.169181,193395,130998
1664.72,0.159774,179728,124406
1667.63,0.147036,163642,116643
1670.54,0.132242,146312,107904
1673.44,0.117919,128451,97908
1677.31,0.098696,105080,83719
1680.21,0.088138,88906,72576
1683.1,0.085009,75033,61694
1685.99,0.085273,63520,52196
1688.87,0.087415,53714,43921
1691.75,0.088075,45653,37273
1694.62,0.099967,39137,31090
1697.49,0.103221,33776,26631
1701.31,0.114607,28175,21640