File: samples/wool/wool-000811/Column 1_050569_20150331_120844.csv
Method:,Column 1,,
Host Date-Time:,31/3/15 @ 12:8:44,,
Header Version:,1,,
System Temp (C):,34.03,,
Detector Temp (C):,33.99,,
Humidity (%):,1.76,,
Lamp PD:,3818,,
Shift Vector Coefficients:,-10.5391,0.0761263,-0.000134223,,
Pixel to Wavelength Coefficients:,1775.68,-0.916766,-0.000235065,,
Serial Number:,5510004,,
Scan Config Name:,Column 1,,
Scan Config Type:,Slew,,
Section 1,,
Start wavelength (nm):,900,,
End wavelength (nm):,1700,,
Pattern Pixel Width (nm):,   7.03,,,,
Exposure (ms):,  0.635,,,,
Digital Resolution:,228,,
Num Repeats:,6,,
PGA Gain:,64,,
Total Measurement Time in sec:,  2.664,,
Wavelength (nm),Absorbance (AU),Reference Signal (unitless),Sample Signal (unitless)
901.51,0.036792,108485,99673
905.376,0.041567,121306,110234
909.237,0.043012,131909,119471
913.095,0.043384,143299,129676
916.948,0.046686,156982,140982
922.079,0.047494,179937,161297
925.923,0.049010,200504,179107
929.762,0.048846,222660,198974
933.597,0.049785,244426,217953
937.427,0.049606,263972,235479
941.254,0.047785,281845,252479
945.076,0.047245,297271,266629
950.165,0.046813,315605,283355
953.978,0.046895,328029,294454
957.786,0.046710,340470,305752
961.59,0.047623,352317,315726
965.389,0.047124,363056,325724
969.185,0.047510,373162,334493
972.976,0.047732,382632,342807
976.763,0.048233,391202,350081
981.806,0.049028,400190,357469
985.583,0.049450,406088,362385
989.355,0.050179,410162,365407
993.124,0.050281,412868,367731
996.888,0.051093,414263,368284
1000.65,0.052310,415476,368329
1004.4,0.053276,415479,367513
1009.41,0.054566,414358,365435
1013.15,0.055113,412923,363711
1016.89,0.055251,411526,362365
1020.63,0.054904,409066,360487
1024.36,0.055204,406777,358222
1028.09,0.055341,404427,356040
1031.82,0.054756,401911,354302
1036.78,0.054247,398410,351628
1040.49,0.054275,396204,349658
1044.2,0.054241,394236,347949
1047.91,0.053426,392042,346662
1051.61,0.052826,389823,345177
1055.31,0.053302,388234,343393
1059,0.052064,387599,343810
1063.92,0.050357,386688,344353
1067.61,0.049536,386598,344924
1071.29,0.049397,387377,345730
1074.96,0.049192,388536,346928
1078.63,0.048175,389855,348922
1082.3,0.047718,391215,350508
1085.96,0.047118,393215,352787
1090.84,0.046183,396270,356294
1094.49,0.045467,398760,359124
1098.14,0.044749,400987,361727
1101.79,0.045230,403477,363571
1105.43,0.044488,406116,366574
1109.06,0.045047,407701,367532
1112.7,0.044347,409859,370073
1117.53,0.044348,412494,372451
1121.15,0.045218,414909,373882
1124.77,0.045795,416559,374871
1128.38,0.047652,418532,375039
1131.99,0.048707,419956,375402
1135.6,0.050155,421946,375926
1139.2,0.051747,423881,376268
1143.99,0.054663,426786,376311
1147.58,0.055322,428617,377353
1151.17,0.056862,431169,378256
1154.75,0.057436,433579,379868
1158.33,0.060077,436264,379903
1161.91,0.061760,439132,380921
1165.48,0.063676,442389,382057
1169.04,0.067291,446101,382069
1173.79,0.070452,451929,384254
1177.34,0.072574,456026,385847
1180.9,0.075048,461306,388098
1184.44,0.076865,467657,391798
1187.99,0.077579,473969,396434
1191.52,0.077398,479856,401525
1195.06,0.077286,487372,407920
1199.76,0.076304,497347,417211
1203.29,0.075039,504311,424287
1206.81,0.074576,511507,430800
1210.33,0.073935,519078,437822
1213.84,0.073392,527163,445198
1217.35,0.072383,534208,452197
1220.85,0.071410,540472,458525
1225.51,0.070647,549929,467369
1229.01,0.070044,556888,473940
1232.5,0.069668,562180,478859
1235.98,0.068601,567975,484985
1239.46,0.067611,574815,491946
1242.94,0.066766,582782,499735
1246.41,0.066063,591476,508012
1251.03,0.065989,604016,518871
1254.5,0.066233,612289,525683
1257.96,0.066121,619125,531688
1261.41,0.067054,624551,535197
1264.86,0.067687,629900,538995
1268.31,0.068686,634345,541551
1271.75,0.069067,638574,544684
1276.33,0.069482,642499,547508
1279.76,0.069654,645905,550193
1283.19,0.069049,648307,553009
1286.61,0.068548,650446,555474
1290.03,0.067845,652132,557816
1293.44,0.067578,653907,559678
1296.85,0.067397,655963,561671
1301.39,0.067342,657349,562930
1304.8,0.067124,657558,563391
1308.19,0.067364,658515,563900
1311.58,0.067862,658804,563501
1314.97,0.068093,659011,563378
1318.36,0.068643,658272,562034
1321.73,0.068833,658022,561574
1326.23,0.069965,657870,559983
1329.6,0.070479,656482,558141
1332.97,0.071409,654926,555627
1336.33,0.072604,653727,553086
1339.69,0.074556,652497,549570
1343.04,0.076154,649913,545383
1346.39,0.078748,647671,540264
1349.73,0.080265,645338,536441
1354.18,0.083580,641175,528928
1357.52,0.086056,638376,523625
1360.85,0.088428,635805,518676
1364.17,0.090226,633413,514589
1367.49,0.092679,631026,509763
1370.81,0.095492,628050,504083
1374.12,0.097937,625034,498846
1378.54,0.100973,620272,491597
1381.84,0.104263,616892,485228
1385.14,0.108192,613613,478302
1388.43,0.112174,611526,472325
1391.72,0.117391,610663,466027
1395.01,0.121977,610634,461109
1398.29,0.127243,611700,456347
1402.66,0.134208,614051,450813
1405.93,0.139998,616268,446449
1409.2,0.145658,617795,441760
1412.46,0.150455,618872,437669
1415.72,0.154756,619795,434002
1418.98,0.158385,620495,430877
1422.23,0.162370,621087,427349
1426.56,0.166302,621375,423693
1429.8,0.169468,621616,420779
1433.04,0.172212,622129,418474
1436.27,0.174931,621526,415459
1439.5,0.177044,621113,413168
1442.72,0.179142,620921,411050
1445.94,0.181764,620270,408147
1450.23,0.185703,618860,403543
1453.44,0.188610,617697,400097
1456.64,0.191134,616264,396856
1459.85,0.194334,614413,392759
1463.04,0.196969,612307,389045
1466.24,0.200524,610032,384440
1469.43,0.204419,607345,379329
1473.67,0.210656,603789,371731
1476.85,0.216310,601175,365335
1480.02,0.222477,597737,358124
1483.19,0.228916,594479,350930
1486.36,0.235595,591232,343687
1489.52,0.240684,587853,337742
1492.68,0.244839,583875,332262
1496.89,0.247327,578062,327075
1500.03,0.248068,574159,324313
1503.18,0.247937,570285,322222
1506.32,0.247113,565444,320093
1509.45,0.245802,560571,318294
1512.58,0.244534,555821,316520
1515.71,0.241544,550344,315566
1519.87,0.237860,543983,314576
1522.99,0.235958,538764,312925
1526.1,0.232674,533692,312332
1529.21,0.229968,527902,310875
1532.32,0.227447,521886,309121
1535.42,0.223369,515888,308451
1538.51,0.220666,509987,306827
1541.6,0.217577,503936,305350
1545.72,0.213649,494694,302474
1548.8,0.209483,488378,301490
1551.88,0.206966,481832,299178
1554.95,0.204964,474989,296292
1558.02,0.202957,467818,293170
1561.08,0.201960,460730,289392
1564.15,0.201605,454170,285505
1568.22,0.200106,444181,280191
1571.27,0.199817,436947,275811
1574.32,0.199115,429598,271611
1577.36,0.197716,422039,267693
1580.4,0.195605,414375,264112
1583.43,0.197733,406354,257734
1586.46,0.192115,398475,256027
1590.49,0.189423,388982,251482
1593.51,0.188196,380708,246829
1596.53,0.185549,372727,243132
1599.54,0.183429,365060,239296
1602.55,0.181614,357543,235350
1605.55,0.177998,349495,231976
1608.55,0.177116,341154,226900
1612.54,0.175406,330877,220933
1615.53,0.171858,322904,217378
1618.51,0.171056,315116,212527
1621.49,0.170392,307217,207517
1624.47,0.168989,299481,202946
1627.44,0.167905,292112,198447
1630.41,0.166424,284245,193762
1634.36,0.165774,274079,187112
1637.32,0.163746,266916,183075
1640.27,0.163458,259612,178183
1643.22,0.162653,251804,173145
1646.16,0.162948,244348,167904
1649.1,0.161702,236703,163118
1652.04,0.159832,228171,157917
1655.95,0.158464,215408,149554
1658.88,0.153318,204937,143980
1661.8,0.148180,193395,137488
1664.72,0.143269,179728,129225
1667.63,0.131864,163642,120790
1670.54,0.120662,146312,110820
1673.44,0.106753,128451,100458
1677.31,0.088560,105080,85696
1680.21,0.082325,88906,73554
1683.1,0.076408,75033,62928
1685.99,0.080696,63520,52749
1688.87,0.081474,53714,44526
1691.75,0.092008,45653,36937
1694.62,0.099032,39137,31157
1697.49,0.098549,33776,26919
1701.31,0.112644,28175,21738