File: samples/unknown/Column 1_078021_20241121_164137.csv
Method:,Column 1,,
Host Date-Time:,21/11/24 @ 16:41:37,,
Header Version:,1,,
System Temp (C):,29.78,,
Detector Temp (C):,24.92,,
Humidity (%):,7.2,,
Lamp PD:,3813,,
Shift Vector Coefficients:,-10.5391,0.0761263,-0.000134223,,
Pixel to Wavelength Coefficients:,1775.68,-0.916766,-0.000235065,,
Serial Number:,5510004,,
Scan Config Name:,Column 1,,
Scan Config Type:,Slew,,
Section 1,,
Start wavelength (nm):,900,,
End wavelength (nm):,1700,,
Pattern Pixel Width (nm):,   7.03,,,,
Exposure (ms):,  0.635,,,,
Digital Resolution:,228,,
Num Repeats:,6,,
PGA Gain:,64,,
Total Measurement Time in sec:,  2.710,,
Wavelength (nm),Absorbance (AU),Reference Signal (unitless),Sample Signal (unitless)
901.51,1.331391,108485,5058
905.376,1.325500,121306,5733
909.237,1.311321,131909,6441
913.095,1.296865,143299,7234
916.948,1.324335,156982,7439
922.079,1.307883,179937,8856
925.923,1.301299,200504,10019
929.762,1.320823,222660,10637
933.597,1.311762,244426,11923
937.427,1.305448,263972,13065
941.254,1.311708,281845,13750
945.076,1.305097,297271,14725
950.165,1.312103,315605,15383
953.978,1.314133,328029,15914
957.786,1.312730,340470,16571
961.59,1.309088,352317,17292
965.389,1.310457,363056,17763
969.185,1.313188,373162,18143
972.976,1.308647,382632,18799
976.763,1.311322,391202,19102
981.806,1.308926,400190,19649
985.583,1.314463,406088,19686
989.355,1.300947,410162,20512
993.124,1.312356,412868,20112
996.888,1.316007,414263,20011
1000.65,1.299190,415476,20862
1004.4,1.303314,415479,20665
1009.41,1.306449,414358,20461
1013.15,1.316536,412923,19922
1016.89,1.310338,411526,20140
1020.63,1.320025,409066,19578
1024.36,1.312450,406777,19811
1028.09,1.306093,404427,19987
1031.82,1.309179,401911,19722
1036.78,1.315674,398410,19260
1040.49,1.303144,396204,19714
1044.2,1.307373,394236,19426
1047.91,1.310190,392042,19193
1051.61,1.309766,389823,19103
1055.31,1.303491,388234,19302
1059,1.321516,387599,18487
1063.92,1.317918,386688,18597
1067.61,1.314513,386598,18739
1071.29,1.310479,387377,18952
1074.96,1.325819,388536,18349
1078.63,1.321273,389855,18605
1082.3,1.314394,391215,18968
1085.96,1.309929,393215,19262
1090.84,1.311108,396270,19359
1094.49,1.311814,398760,19449
1098.14,1.310232,400987,19629
1101.79,1.316096,403477,19486
1105.43,1.312512,406116,19776
1109.06,1.321043,407701,19467
1112.7,1.316628,409859,19770
1117.53,1.316914,412494,19884
1121.15,1.320039,414909,19857
1124.77,1.323165,416559,19793
1128.38,1.319441,418532,20058
1131.99,1.315858,419956,20293
1135.6,1.316970,421946,20337
1139.2,1.319299,423881,20321
1143.99,1.320133,426786,20421
1147.58,1.322695,428617,20388
1151.17,1.321498,431169,20566
1154.75,1.320658,433579,20721
1158.33,1.315714,436264,21088
1161.91,1.322241,439132,20910
1165.48,1.320494,442389,21150
1169.04,1.323630,446101,21174
1173.79,1.321482,451929,21557
1177.34,1.313989,456026,22131
1180.9,1.320423,461306,22058
1184.44,1.321545,467657,22304
1187.99,1.318559,473969,22761
1191.52,1.321997,479856,22862
1195.06,1.319165,487372,23372
1199.76,1.327147,497347,23416
1203.29,1.319009,504311,24193
1206.81,1.328532,511507,24006
1210.33,1.317188,519078,25006
1213.84,1.315030,527163,25522
1217.35,1.324693,534208,25294
1220.85,1.322941,540472,25694
1225.51,1.320268,549929,26305
1229.01,1.319631,556888,26677
1232.5,1.319639,562180,26930
1235.98,1.322885,567975,27005
1239.46,1.317001,574815,27703
1242.94,1.321336,582782,27808
1246.41,1.321673,591476,28201
1251.03,1.322698,604016,28731
1254.5,1.324903,612289,28977
1257.96,1.326262,619125,29209
1261.41,1.326719,624551,29434
1264.86,1.331664,629900,29350
1268.31,1.327352,634345,29852
1271.75,1.332119,638574,29723
1276.33,1.322890,642499,30548
1279.76,1.330406,645905,30183
1283.19,1.328593,648307,30422
1286.61,1.328499,650446,30529
1290.03,1.327820,652132,30656
1293.44,1.327558,653907,30758
1296.85,1.335422,655963,30301
1301.39,1.326785,657349,30975
1304.8,1.332340,657558,30591
1308.19,1.331512,658515,30694
1311.58,1.331462,658804,30711
1314.97,1.326971,659011,31040
1318.36,1.334191,658272,30494
1321.73,1.330862,658022,30717
1326.23,1.331469,657870,30667
1329.6,1.330552,656482,30667
1332.97,1.331480,654926,30529
1336.33,1.330769,653727,30523
1339.69,1.333824,652497,30252
1343.04,1.329510,649913,30433
1346.39,1.336730,647671,29828
1349.73,1.331206,645338,30101
1354.18,1.332789,641175,29798
1357.52,1.332203,638376,29708
1360.85,1.330845,635805,29681
1364.17,1.328507,633413,29729
1367.49,1.331198,631026,29434
1370.81,1.327290,628050,29560
1374.12,1.331176,625034,29156
1378.54,1.324826,620272,29360
1381.84,1.325869,616892,29130
1385.14,1.332456,613613,28539
1388.43,1.335581,611526,28238
1391.72,1.330089,610663,28557
1395.01,1.331165,610634,28485
1398.29,1.332014,611700,28479
1402.66,1.331429,614051,28627
1405.93,1.330981,616268,28760
1409.2,1.332887,617795,28705
1412.46,1.332223,618872,28799
1415.72,1.334049,619795,28721
1418.98,1.327906,620495,29163
1422.23,1.331999,621087,28917
1426.56,1.335654,621375,28688
1429.8,1.332925,621616,28880
1433.04,1.330226,622129,29084
1436.27,1.333359,621526,28847
1439.5,1.341906,621113,28266
1442.72,1.337385,620921,28553
1445.94,1.337325,620270,28527
1450.23,1.333438,618860,28718
1453.44,1.333348,617697,28670
1456.64,1.334176,616264,28549
1459.85,1.337027,614413,28277
1463.04,1.338077,612307,28112
1466.24,1.330599,610032,28494
1469.43,1.331925,607345,28282
1473.67,1.338547,603789,27691
1476.85,1.337636,601175,27629
1480.02,1.331451,597737,27865
1483.19,1.342725,594479,27003
1486.36,1.340073,591232,27020
1489.52,1.357868,587853,25787
1492.68,1.333431,583875,27095
1496.89,1.337109,578062,26599
1500.03,1.333351,574159,26649
1503.18,1.343212,570285,25875
1506.32,1.339090,565444,25900
1509.45,1.340153,560571,25614
1512.58,1.337476,555821,25554
1515.71,1.342625,550344,25004
1519.87,1.340784,543983,24820
1522.99,1.338262,538764,24725
1526.1,1.339118,533692,24444
1529.21,1.341222,527902,24062
1532.32,1.335973,521886,24077
1535.42,1.335869,515888,23806
1538.51,1.340520,509987,23283
1541.6,1.336457,503936,23223
1545.72,1.339806,494694,22622
1548.8,1.339653,488378,22341
1551.88,1.341481,481832,21949
1554.95,1.338008,474989,21811
1558.02,1.335885,467818,21587
1561.08,1.337008,460730,21205
1564.15,1.339134,454170,20801
1568.22,1.336145,444181,20484
1571.27,1.338293,436947,20051
1574.32,1.340363,429598,19620
1577.36,1.336902,422039,19429
1580.4,1.336588,414375,19090
1583.43,1.330814,406354,18971
1586.46,1.334994,398475,18425
1590.49,1.335043,388982,17984
1593.51,1.336389,380708,17547
1596.53,1.329670,372727,17447
1599.54,1.335198,365060,16872
1602.55,1.326187,357543,16871
1605.55,1.322653,349495,16626
1608.55,1.331362,341154,15907
1612.54,1.321339,330877,15788
1615.53,1.329206,322904,15131
1618.51,1.335488,315116,14554
1621.49,1.336597,307217,14153
1624.47,1.331422,299481,13962
1627.44,1.322878,292112,13889
1630.41,1.323745,284245,13488
1634.36,1.321036,274079,13087
1637.32,1.332883,266916,12402
1640.27,1.319679,259612,12435
1643.22,1.318385,251804,12097
1646.16,1.314217,244348,11852
1649.1,1.312563,236703,11525
1652.04,1.332054,228171,10622
1655.95,1.321903,215408,10265
1658.88,1.318537,204937,9842
1661.8,1.308128,193395,9513
1664.72,1.321939,179728,8564
1667.63,1.340458,163642,7472
1670.54,1.362711,146312,6347
1673.44,1.327269,128451,6046
1677.31,1.338203,105080,4823
1680.21,1.310442,88906,4350
1683.1,1.349172,75033,3358
1685.99,1.296676,63520,3208
1688.87,1.350782,53714,2395
1691.75,1.350265,45653,2038
1694.62,1.294390,39137,1987
1697.49,1.312971,33776,1643
1701.31,1.420480,28175,1070