File: samples/unknown/Column 1_078007_20241121_164056.csv
Method:,Column 1,,
Host Date-Time:,21/11/24 @ 16:40:56,,
Header Version:,1,,
System Temp (C):,29.22,,
Detector Temp (C):,25.26,,
Humidity (%):,7.69,,
Lamp PD:,3816,,
Shift Vector Coefficients:,-10.5391,0.0761263,-0.000134223,,
Pixel to Wavelength Coefficients:,1775.68,-0.916766,-0.000235065,,
Serial Number:,5510004,,
Scan Config Name:,Column 1,,
Scan Config Type:,Slew,,
Section 1,,
Start wavelength (nm):,900,,
End wavelength (nm):,1700,,
Pattern Pixel Width (nm):,   7.03,,,,
Exposure (ms):,  0.635,,,,
Digital Resolution:,228,,
Num Repeats:,6,,
PGA Gain:,64,,
Total Measurement Time in sec:,  2.706,,
Wavelength (nm),Absorbance (AU),Reference Signal (unitless),Sample Signal (unitless)
901.51,1.316868,108485,5230
905.376,1.324970,121306,5740
909.237,1.333594,131909,6119
913.095,1.309782,143299,7022
916.948,1.307277,156982,7737
922.079,1.294317,179937,9137
925.923,1.300389,200504,10040
929.762,1.307000,222660,10981
933.597,1.307593,244426,12038
937.427,1.316764,263972,12729
941.254,1.310761,281845,13780
945.076,1.318120,297271,14290
950.165,1.312046,315605,15385
953.978,1.316130,328029,15841
957.786,1.311945,340470,16601
961.59,1.311784,352317,17185
965.389,1.312393,363056,17684
969.185,1.315709,373162,18038
972.976,1.306503,382632,18892
976.763,1.301499,391202,19539
981.806,1.307844,400190,19698
985.583,1.303721,406088,20179
989.355,1.303751,410162,20380
993.124,1.316696,412868,19912
996.888,1.313130,414263,20144
1000.65,1.314465,415476,20141
1004.4,1.316695,415479,20038
1009.41,1.305707,414358,20496
1013.15,1.318590,412923,19828
1016.89,1.312630,411526,20034
1020.63,1.313180,409066,19889
1024.36,1.313701,406777,19754
1028.09,1.310812,404427,19771
1031.82,1.311320,401911,19625
1036.78,1.311924,398410,19427
1040.49,1.312362,396204,19300
1044.2,1.309569,394236,19328
1047.91,1.315769,392042,18948
1051.61,1.307883,389823,19186
1055.31,1.305159,388234,19228
1059,1.314387,387599,18793
1063.92,1.318666,386688,18565
1067.61,1.309398,386598,18961
1071.29,1.312155,387377,18879
1074.96,1.307557,388536,19137
1078.63,1.306901,389855,19231
1082.3,1.315655,391215,18913
1085.96,1.326333,393215,18548
1090.84,1.319924,396270,18970
1094.49,1.321844,398760,19005
1098.14,1.322711,400987,19073
1101.79,1.312191,403477,19662
1105.43,1.322823,406116,19312
1109.06,1.316780,407701,19659
1112.7,1.316101,409859,19794
1117.53,1.324049,412494,19560
1121.15,1.315730,414909,20055
1124.77,1.322573,416559,19820
1128.38,1.324296,418532,19835
1131.99,1.319705,419956,20114
1135.6,1.317675,421946,20304
1139.2,1.323055,423881,20146
1143.99,1.325590,426786,20166
1147.58,1.329500,428617,20071
1151.17,1.314584,431169,20896
1154.75,1.319569,433579,20773
1158.33,1.319665,436264,20897
1161.91,1.319219,439132,21056
1165.48,1.317160,442389,21313
1169.04,1.322054,446101,21251
1173.79,1.319191,451929,21671
1177.34,1.315955,456026,22031
1180.9,1.326929,461306,21730
1184.44,1.315627,467657,22610
1187.99,1.322854,473969,22537
1191.52,1.318365,479856,23054
1195.06,1.327154,487372,22946
1199.76,1.321197,497347,23739
1203.29,1.322324,504311,24009
1206.81,1.320253,511507,24468
1210.33,1.321622,519078,24752
1213.84,1.323449,527163,25032
1217.35,1.328539,534208,25071
1220.85,1.319826,540472,25879
1225.51,1.326822,549929,25911
1229.01,1.328978,556888,26109
1232.5,1.326793,562180,26490
1235.98,1.327054,567975,26747
1239.46,1.321065,574815,27445
1242.94,1.323701,582782,27657
1246.41,1.321534,591476,28210
1251.03,1.328358,604016,28359
1254.5,1.323526,612289,29069
1257.96,1.326529,619125,29191
1261.41,1.322417,624551,29727
1264.86,1.328450,629900,29568
1268.31,1.323326,634345,30130
1271.75,1.325190,638574,30201
1276.33,1.325299,642499,30379
1279.76,1.324674,645905,30584
1283.19,1.330582,648307,30283
1286.61,1.333032,650446,30212
1290.03,1.329908,652132,30509
1293.44,1.331843,653907,30456
1296.85,1.333092,655963,30464
1301.39,1.335408,657349,30366
1304.8,1.332497,657558,30580
1308.19,1.328200,658515,30929
1311.58,1.332652,658804,30627
1314.97,1.332973,659011,30614
1318.36,1.332032,658272,30646
1321.73,1.334981,658022,30427
1326.23,1.335667,657870,30372
1329.6,1.335981,656482,30286
1332.97,1.336588,654926,30172
1336.33,1.337913,653727,30025
1339.69,1.337313,652497,30010
1343.04,1.333122,649913,30181
1346.39,1.334552,647671,29978
1349.73,1.331697,645338,30067
1354.18,1.329957,641175,29993
1357.52,1.333491,638376,29620
1360.85,1.333002,635805,29534
1364.17,1.328843,633413,29706
1367.49,1.326268,631026,29770
1370.81,1.329883,628050,29384
1374.12,1.329392,625034,29276
1378.54,1.333446,620272,28783
1381.84,1.331269,616892,28770
1385.14,1.330149,613613,28691
1388.43,1.326887,611526,28809
1391.72,1.326756,610663,28777
1395.01,1.328232,610634,28678
1398.29,1.326468,611700,28845
1402.66,1.333040,614051,28521
1405.93,1.334407,616268,28534
1409.2,1.332010,617795,28763
1412.46,1.336878,618872,28492
1415.72,1.336429,619795,28564
1418.98,1.337437,620495,28530
1422.23,1.330500,621087,29017
1426.56,1.338189,621375,28521
1429.8,1.334628,621616,28767
1433.04,1.334006,622129,28832
1436.27,1.340830,621526,28355
1439.5,1.338250,621113,28505
1442.72,1.335412,620921,28683
1445.94,1.339553,620270,28381
1450.23,1.336367,618860,28525
1453.44,1.336159,617697,28485
1456.64,1.334465,616264,28530
1459.85,1.335326,614413,28388
1463.04,1.341770,612307,27874
1466.24,1.338117,610032,28005
1469.43,1.335209,607345,28069
1473.67,1.335592,603789,27880
1476.85,1.338942,601175,27546
1480.02,1.342261,597737,27180
1483.19,1.335879,594479,27432
1486.36,1.338020,591232,27148
1489.52,1.337841,587853,27004
1492.68,1.341847,583875,26575
1496.89,1.340272,578062,26406
1500.03,1.339109,574159,26298
1503.18,1.342457,570285,25920
1506.32,1.336015,565444,26084
1509.45,1.342125,560571,25498
1512.58,1.338753,555821,25479
1515.71,1.341012,550344,25097
1519.87,1.336570,543983,25062
1522.99,1.341772,538764,24526
1526.1,1.337080,533692,24559
1529.21,1.348502,527902,23662
1532.32,1.342278,521886,23730
1535.42,1.340343,515888,23562
1538.51,1.331694,509987,23761
1541.6,1.337731,503936,23155
1545.72,1.336669,494694,22786
1548.8,1.336651,488378,22496
1551.88,1.335039,481832,22277
1554.95,1.347754,474989,21327
1558.02,1.333497,467818,21706
1561.08,1.341103,460730,21006
1564.15,1.339322,454170,20792
1568.22,1.342187,444181,20201
1571.27,1.342493,436947,19858
1574.32,1.343273,429598,19489
1577.36,1.336366,422039,19453
1580.4,1.333731,414375,19216
1583.43,1.326781,406354,19148
1586.46,1.339924,398475,18217
1590.49,1.329381,388982,18220
1593.51,1.337355,380708,17508
1596.53,1.339386,372727,17061
1599.54,1.326735,365060,17204
1602.55,1.337929,357543,16421
1605.55,1.326958,349495,16462
1608.55,1.327043,341154,16066
1612.54,1.329952,330877,15478
1615.53,1.333939,322904,14967
1618.51,1.318718,315116,15127
1621.49,1.328299,307217,14426
1624.47,1.325398,299481,14157
1627.44,1.341926,292112,13293
1630.41,1.327984,284245,13357
1634.36,1.318323,274079,13169
1637.32,1.318893,266916,12808
1640.27,1.332941,259612,12061
1643.22,1.330618,251804,11761
1646.16,1.322616,244348,11625
1649.1,1.311847,236703,11544
1652.04,1.324154,228171,10817
1655.95,1.321142,215408,10283
1658.88,1.343231,204937,9298
1661.8,1.335351,193395,8935
1664.72,1.336323,179728,8285
1667.63,1.337908,163642,7516
1670.54,1.344225,146312,6623
1673.44,1.384462,128451,5300
1677.31,1.343093,105080,4769
1680.21,1.386757,88906,3649
1683.1,1.323558,75033,3562
1685.99,1.360274,63520,2771
1688.87,1.391432,53714,2181
1691.75,1.315667,45653,2207
1694.62,1.383609,39137,1618
1697.49,1.345338,33776,1525
1701.31,1.530786,28175,830