File: samples/unknown/Column 1_078089_20241121_164456.csv
Method:,Column 1,,
Host Date-Time:,21/11/24 @ 16:44:56,,
Header Version:,1,,
System Temp (C):,32.04,,
Detector Temp (C):,26.98,,
Humidity (%):,4.4,,
Lamp PD:,3808,,
Shift Vector Coefficients:,-10.5391,0.0761263,-0.000134223,,
Pixel to Wavelength Coefficients:,1775.68,-0.916766,-0.000235065,,
Serial Number:,5510004,,
Scan Config Name:,Column 1,,
Scan Config Type:,Slew,,
Section 1,,
Start wavelength (nm):,900,,
End wavelength (nm):,1700,,
Pattern Pixel Width (nm):,   7.03,,,,
Exposure (ms):,  0.635,,,,
Digital Resolution:,228,,
Num Repeats:,6,,
PGA Gain:,64,,
Total Measurement Time in sec:,  2.705,,
Wavelength (nm),Absorbance (AU),Reference Signal (unitless),Sample Signal (unitless)
901.51,1.314880,108485,5254
905.376,1.332911,121306,5636
909.237,1.305827,131909,6523
913.095,1.309103,143299,7033
916.948,1.322820,156982,7465
922.079,1.313162,179937,8749
925.923,1.301559,200504,10013
929.762,1.310295,222660,10898
933.597,1.318146,244426,11749
937.427,1.313568,263972,12823
941.254,1.324497,281845,13351
945.076,1.308027,297271,14626
950.165,1.312329,315605,15375
953.978,1.320096,328029,15697
957.786,1.312652,340470,16574
961.59,1.306434,352317,17398
965.389,1.302895,363056,18075
969.185,1.315805,373162,18034
972.976,1.312079,382632,18651
976.763,1.308219,391202,19239
981.806,1.301823,400190,19973
985.583,1.313669,406088,19722
989.355,1.304391,410162,20350
993.124,1.310009,412868,20221
996.888,1.311667,414263,20212
1000.65,1.311628,415476,20273
1004.4,1.310070,415479,20346
1009.41,1.306237,414358,20471
1013.15,1.311120,412923,20172
1016.89,1.314106,411526,19966
1020.63,1.301865,409066,20414
1024.36,1.309435,406777,19949
1028.09,1.300179,404427,20261
1031.82,1.319000,401911,19281
1036.78,1.312349,398410,19408
1040.49,1.315591,396204,19157
1044.2,1.311958,394236,19222
1047.91,1.312481,392042,19092
1051.61,1.316363,389823,18815
1055.31,1.306766,388234,19157
1059,1.312082,387599,18893
1063.92,1.308219,386688,19017
1067.61,1.315581,386598,18693
1071.29,1.317129,387377,18664
1074.96,1.320292,388536,18584
1078.63,1.314625,389855,18892
1082.3,1.315494,391215,18920
1085.96,1.314325,393215,19068
1090.84,1.318142,396270,19048
1094.49,1.315334,398760,19292
1098.14,1.319897,400987,19197
1101.79,1.316141,403477,19484
1105.43,1.317726,406116,19540
1109.06,1.313786,407701,19795
1112.7,1.308942,409859,20123
1117.53,1.317964,412494,19836
1121.15,1.315038,414909,20087
1124.77,1.319211,416559,19974
1128.38,1.318381,418532,20107
1131.99,1.313148,419956,20420
1135.6,1.316308,421946,20368
1139.2,1.329374,423881,19855
1143.99,1.317567,426786,20542
1147.58,1.314675,428617,20768
1151.17,1.320865,431169,20596
1154.75,1.321329,433579,20689
1158.33,1.318110,436264,20972
1161.91,1.318477,439132,21092
1165.48,1.324911,442389,20936
1169.04,1.315080,446101,21595
1173.79,1.330520,451929,21113
1177.34,1.313067,456026,22178
1180.9,1.321586,461306,21999
1184.44,1.324554,467657,22150
1187.99,1.324553,473969,22449
1191.52,1.321560,479856,22885
1195.06,1.325887,487372,23013
1199.76,1.322149,497347,23687
1203.29,1.325811,504311,23817
1206.81,1.321141,511507,24418
1210.33,1.321429,519078,24763
1213.84,1.320131,527163,25224
1217.35,1.317794,534208,25699
1220.85,1.319742,540472,25884
1225.51,1.323899,549929,26086
1229.01,1.326126,556888,26281
1232.5,1.323690,562180,26680
1235.98,1.318453,567975,27282
1239.46,1.323159,574815,27313
1242.94,1.325810,582782,27523
1246.41,1.320074,591476,28305
1251.03,1.325594,604016,28540
1254.5,1.322124,612289,29163
1257.96,1.320633,619125,29590
1261.41,1.321206,624551,29810
1264.86,1.329950,629900,29466
1268.31,1.325204,634345,30000
1271.75,1.330107,638574,29861
1276.33,1.325513,642499,30364
1279.76,1.331487,645905,30108
1283.19,1.330553,648307,30285
1286.61,1.330138,650446,30414
1290.03,1.324222,652132,30911
1293.44,1.334618,653907,30262
1296.85,1.331783,655963,30556
1301.39,1.333254,657349,30517
1304.8,1.333777,657558,30490
1308.19,1.330593,658515,30759
1311.58,1.330502,658804,30779
1314.97,1.335848,659011,30412
1318.36,1.328124,658272,30923
1321.73,1.332363,658022,30611
1326.23,1.338651,657870,30164
1329.6,1.327855,656482,30858
1332.97,1.337409,654926,30115
1336.33,1.335648,653727,30182
1339.69,1.333351,652497,30285
1343.04,1.331470,649913,30296
1346.39,1.330529,647671,30257
1349.73,1.334000,645338,29908
1354.18,1.327704,641175,30149
1357.52,1.331604,638376,29749
1360.85,1.327754,635805,29893
1364.17,1.325943,633413,29905
1367.49,1.327788,631026,29666
1370.81,1.329278,628050,29425
1374.12,1.328059,625034,29366
1378.54,1.329227,620272,29064
1381.84,1.332509,616892,28688
1385.14,1.326006,613613,28966
1388.43,1.325803,611526,28881
1391.72,1.326319,610663,28806
1395.01,1.332004,610634,28430
1398.29,1.332716,611700,28433
1402.66,1.332021,614051,28588
1405.93,1.326788,616268,29039
1409.2,1.329992,617795,28897
1412.46,1.333220,618872,28733
1415.72,1.335123,619795,28650
1418.98,1.335962,620495,28627
1422.23,1.332615,621087,28876
1426.56,1.337702,621375,28553
1429.8,1.335701,621616,28696
1433.04,1.335878,622129,28708
1436.27,1.336486,621526,28640
1439.5,1.336016,621113,28652
1442.72,1.332815,620921,28855
1445.94,1.330722,620270,28964
1450.23,1.336778,618860,28498
1453.44,1.331579,617697,28787
1456.64,1.335547,616264,28459
1459.85,1.344244,614413,27811
1463.04,1.339346,612307,28030
1466.24,1.335674,610032,28163
1469.43,1.339406,607345,27799
1473.67,1.338264,603789,27709
1476.85,1.342330,601175,27332
1480.02,1.334250,597737,27686
1483.19,1.337656,594479,27320
1486.36,1.336583,591232,27238
1489.52,1.337053,587853,27053
1492.68,1.336535,583875,26902
1496.89,1.335398,578062,26704
1500.03,1.335131,574159,26540
1503.18,1.333584,570285,26455
1506.32,1.335749,565444,26100
1509.45,1.335549,560571,25887
1512.58,1.336475,555821,25613
1515.71,1.334281,550344,25489
1519.87,1.337524,543983,25007
1522.99,1.337262,538764,24782
1526.1,1.326995,533692,25136
1529.21,1.337072,527902,24293
1532.32,1.347488,521886,23447
1535.42,1.334867,515888,23861
1538.51,1.341659,509987,23222
1541.6,1.340780,503936,22993
1545.72,1.337928,494694,22720
1548.8,1.339887,488378,22329
1551.88,1.341244,481832,21961
1554.95,1.327659,474989,22337
1558.02,1.340211,467818,21373
1561.08,1.337275,460730,21192
1564.15,1.339594,454170,20779
1568.22,1.339871,444181,20309
1571.27,1.336348,436947,20141
1574.32,1.334275,429598,19897
1577.36,1.336344,422039,19454
1580.4,1.330286,414375,19369
1583.43,1.330585,406354,18981
1586.46,1.339186,398475,18248
1590.49,1.328928,388982,18239
1593.51,1.334389,380708,17628
1596.53,1.326545,372727,17573
1599.54,1.330640,365060,17050
1602.55,1.323902,357543,16960
1605.55,1.334006,349495,16197
1608.55,1.327827,341154,16037
1612.54,1.334947,330877,15301
1615.53,1.322852,322904,15354
1618.51,1.335846,315116,14542
1621.49,1.325479,307217,14520
1624.47,1.304292,299481,14862
1627.44,1.328924,292112,13697
1630.41,1.312431,284245,13844
1634.36,1.326613,274079,12920
1637.32,1.324971,266916,12630
1640.27,1.321780,259612,12375
1643.22,1.322860,251804,11973
1646.16,1.300582,244348,12230
1649.1,1.306352,236703,11691
1652.04,1.322431,228171,10860
1655.95,1.312735,215408,10484
1658.88,1.316336,204937,9892
1661.8,1.306215,193395,9555
1664.72,1.330336,179728,8400
1667.63,1.320855,163642,7817
1670.54,1.262244,146312,7999
1673.44,1.297028,128451,6482
1677.31,1.284168,105080,5462
1680.21,1.306467,88906,4390
1683.1,1.313555,75033,3645
1685.99,1.347761,63520,2852
1688.87,1.250944,53714,3014
1691.75,1.254123,45653,2543
1694.62,1.434829,39137,1438
1697.49,1.359816,33776,1475
1701.31,1.293921,28175,1432