File: samples/unknown/Column 1_078099_20241121_164525.csv
Method:,Column 1,,
Host Date-Time:,21/11/24 @ 16:45:25,,
Header Version:,1,,
System Temp (C):,32.26,,
Detector Temp (C):,27.38,,
Humidity (%):,4.2,,
Lamp PD:,3807,,
Shift Vector Coefficients:,-10.5391,0.0761263,-0.000134223,,
Pixel to Wavelength Coefficients:,1775.68,-0.916766,-0.000235065,,
Serial Number:,5510004,,
Scan Config Name:,Column 1,,
Scan Config Type:,Slew,,
Section 1,,
Start wavelength (nm):,900,,
End wavelength (nm):,1700,,
Pattern Pixel Width (nm):,   7.03,,,,
Exposure (ms):,  0.635,,,,
Digital Resolution:,228,,
Num Repeats:,6,,
PGA Gain:,64,,
Total Measurement Time in sec:,  2.720,,
Wavelength (nm),Absorbance (AU),Reference Signal (unitless),Sample Signal (unitless)
901.51,1.304910,108485,5376
905.376,1.293456,121306,6172
909.237,1.294459,131909,6696
913.095,1.310649,143299,7008
916.948,1.292651,156982,8002
922.079,1.327083,179937,8473
925.923,1.321574,200504,9562
929.762,1.311173,222660,10876
933.597,1.329456,244426,11447
937.427,1.311170,263972,12894
941.254,1.317847,281845,13557
945.076,1.311246,297271,14518
950.165,1.320368,315605,15093
953.978,1.317915,328029,15776
957.786,1.301426,340470,17008
961.59,1.315107,352317,17054
965.389,1.311314,363056,17728
969.185,1.325153,373162,17650
972.976,1.308369,382632,18811
976.763,1.314494,391202,18963
981.806,1.303326,400190,19904
985.583,1.304000,406088,20166
989.355,1.306852,410162,20235
993.124,1.310116,412868,20216
996.888,1.312936,414263,20153
1000.65,1.302701,415476,20694
1004.4,1.307177,415479,20482
1009.41,1.311638,414358,20218
1013.15,1.308887,412923,20276
1016.89,1.316790,411526,19843
1020.63,1.309722,409066,20048
1024.36,1.314053,406777,19738
1028.09,1.311339,404427,19747
1031.82,1.305430,401911,19893
1036.78,1.299365,398410,19997
1040.49,1.309826,396204,19413
1044.2,1.307015,394236,19442
1047.91,1.308947,392042,19248
1051.61,1.308835,389823,19144
1055.31,1.311255,388234,18960
1059,1.309972,387599,18985
1063.92,1.319415,386688,18533
1067.61,1.306772,386598,19076
1071.29,1.305534,387377,19169
1074.96,1.320619,388536,18570
1078.63,1.315707,389855,18845
1082.3,1.304032,391215,19426
1085.96,1.310312,393215,19245
1090.84,1.317458,396270,19078
1094.49,1.319655,398760,19101
1098.14,1.311318,400987,19580
1101.79,1.317480,403477,19424
1105.43,1.311503,406116,19822
1109.06,1.311118,407701,19917
1112.7,1.320090,409859,19613
1117.53,1.328714,412494,19351
1121.15,1.310328,414909,20306
1124.77,1.315897,416559,20127
1128.38,1.319831,418532,20040
1131.99,1.326341,419956,19809
1135.6,1.320379,421946,20178
1139.2,1.327236,423881,19953
1143.99,1.324988,426786,20194
1147.58,1.319067,428617,20559
1151.17,1.324890,431169,20406
1154.75,1.320574,433579,20725
1158.33,1.318897,436264,20934
1161.91,1.319983,439132,21019
1165.48,1.320124,442389,21168
1169.04,1.318877,446101,21407
1173.79,1.313596,451929,21952
1177.34,1.317496,456026,21953
1180.9,1.317362,461306,22214
1184.44,1.314553,467657,22666
1187.99,1.321353,473969,22615
1191.52,1.314147,479856,23279
1195.06,1.321120,487372,23267
1199.76,1.320722,497347,23765
1203.29,1.323230,504311,23959
1206.81,1.327556,511507,24060
1210.33,1.324598,519078,24583
1213.84,1.317385,527163,25384
1217.35,1.324127,534208,25327
1220.85,1.328162,540472,25387
1225.51,1.327477,549929,25872
1229.01,1.329044,556888,26105
1232.5,1.327844,562180,26426
1235.98,1.323448,567975,26970
1239.46,1.320922,574815,27454
1242.94,1.319062,582782,27954
1246.41,1.329802,591476,27678
1251.03,1.328342,604016,28360
1254.5,1.326209,612289,28890
1257.96,1.329171,619125,29014
1261.41,1.329249,624551,29263
1264.86,1.329803,629900,29476
1268.31,1.327425,634345,29847
1271.75,1.325449,638574,30183
1276.33,1.327362,642499,30235
1279.76,1.326767,645905,30437
1283.19,1.326471,648307,30571
1286.61,1.331683,650446,30306
1290.03,1.335351,652132,30129
1293.44,1.329908,653907,30592
1296.85,1.336125,655963,30252
1301.39,1.331606,657349,30633
1304.8,1.331291,657558,30665
1308.19,1.329395,658515,30844
1311.58,1.333248,658804,30585
1314.97,1.336333,659011,30378
1318.36,1.331578,658272,30678
1321.73,1.337285,658022,30266
1326.23,1.332873,657870,30568
1329.6,1.338238,656482,30129
1332.97,1.337886,654926,30082
1336.33,1.326860,653727,30799
1339.69,1.332162,652497,30368
1343.04,1.330968,649913,30331
1346.39,1.335988,647671,29879
1349.73,1.328015,645338,30323
1354.18,1.327905,641175,30135
1357.52,1.327579,638376,30026
1360.85,1.332194,635805,29589
1364.17,1.333015,633413,29422
1367.49,1.335185,631026,29165
1370.81,1.331794,628050,29255
1374.12,1.324128,625034,29633
1378.54,1.328018,620272,29145
1381.84,1.328336,616892,28965
1385.14,1.329242,613613,28751
1388.43,1.326134,611526,28859
1391.72,1.329375,610663,28604
1395.01,1.327007,610634,28759
1398.29,1.332456,611700,28450
1402.66,1.327427,614051,28892
1405.93,1.332069,616268,28688
1409.2,1.334372,617795,28607
1412.46,1.333931,618872,28686
1415.72,1.329027,619795,29055
1418.98,1.336843,620495,28569
1422.23,1.337045,621087,28583
1426.56,1.340571,621375,28365
1429.8,1.335746,621616,28693
1433.04,1.336453,622129,28670
1436.27,1.335668,621526,28694
1439.5,1.332318,621113,28897
1442.72,1.331313,620921,28955
1445.94,1.337904,620270,28489
1450.23,1.337724,618860,28436
1453.44,1.337962,617697,28367
1456.64,1.336571,616264,28392
1459.85,1.341132,614413,28011
1463.04,1.337969,612307,28119
1466.24,1.333474,610032,28306
1469.43,1.337411,607345,27927
1473.67,1.333557,603789,28011
1476.85,1.345519,601175,27132
1480.02,1.337288,597737,27493
1483.19,1.359665,594479,25970
1486.36,1.339173,591232,27076
1489.52,1.341572,587853,26773
1492.68,1.335890,583875,26942
1496.89,1.336717,578062,26623
1500.03,1.344878,574159,25951
1503.18,1.344978,570285,25770
1506.32,1.340635,565444,25808
1509.45,1.344447,560571,25362
1512.58,1.340632,555821,25369
1515.71,1.339717,550344,25172
1519.87,1.343539,543983,24663
1522.99,1.340711,538764,24586
1526.1,1.344643,533692,24135
1529.21,1.340572,527902,24098
1532.32,1.334712,521886,24147
1535.42,1.333812,515888,23919
1538.51,1.343008,509987,23150
1541.6,1.340629,503936,23001
1545.72,1.342753,494694,22469
1548.8,1.341016,488378,22271
1551.88,1.330694,481832,22501
1554.95,1.347428,474989,21343
1558.02,1.335362,467818,21613
1561.08,1.347120,460730,20717
1564.15,1.341248,454170,20700
1568.22,1.329894,444181,20781
1571.27,1.339594,436947,19991
1574.32,1.335937,429598,19821
1577.36,1.342595,422039,19176
1580.4,1.333030,414375,19247
1583.43,1.331204,406354,18954
1586.46,1.329001,398475,18681
1590.49,1.324357,388982,18432
1593.51,1.327666,380708,17903
1596.53,1.331616,372727,17369
1599.54,1.323390,365060,17337
1602.55,1.328795,357543,16770
1605.55,1.336292,349495,16112
1608.55,1.328586,341154,16009
1612.54,1.323905,330877,15695
1615.53,1.333243,322904,14991
1618.51,1.336175,315116,14531
1621.49,1.332869,307217,14275
1624.47,1.327150,299481,14100
1627.44,1.331787,292112,13607
1630.41,1.323617,284245,13492
1634.36,1.320870,274079,13092
1637.32,1.311397,266916,13031
1640.27,1.317415,259612,12500
1643.22,1.331136,251804,11747
1646.16,1.310605,244348,11951
1649.1,1.325335,236703,11191
1652.04,1.310363,228171,11166
1655.95,1.317776,215408,10363
1658.88,1.294086,204937,10412
1661.8,1.308493,193395,9505
1664.72,1.319209,179728,8618
1667.63,1.291014,163642,8373
1670.54,1.303925,146312,7267
1673.44,1.302897,128451,6395
1677.31,1.305433,105080,5201
1680.21,1.300181,88906,4454
1683.1,1.277557,75033,3960
1685.99,1.310709,63520,3106
1688.87,1.329204,53714,2517
1691.75,1.278174,45653,2406
1694.62,1.265229,39137,2125
1697.49,1.344201,33776,1529
1701.31,1.309356,28175,1382