File: samples/unknown/Column 1_078094_20241121_164510.csv
Method:,Column 1,,
Host Date-Time:,21/11/24 @ 16:45:10,,
Header Version:,1,,
System Temp (C):,32.11,,
Detector Temp (C):,27.21,,
Humidity (%):,4.3,,
Lamp PD:,3808,,
Shift Vector Coefficients:,-10.5391,0.0761263,-0.000134223,,
Pixel to Wavelength Coefficients:,1775.68,-0.916766,-0.000235065,,
Serial Number:,5510004,,
Scan Config Name:,Column 1,,
Scan Config Type:,Slew,,
Section 1,,
Start wavelength (nm):,900,,
End wavelength (nm):,1700,,
Pattern Pixel Width (nm):,   7.03,,,,
Exposure (ms):,  0.635,,,,
Digital Resolution:,228,,
Num Repeats:,6,,
PGA Gain:,64,,
Total Measurement Time in sec:,  2.705,,
Wavelength (nm),Absorbance (AU),Reference Signal (unitless),Sample Signal (unitless)
901.51,1.305557,108485,5368
905.376,1.329152,121306,5685
909.237,1.322315,131909,6280
913.095,1.347965,143299,6431
916.948,1.317788,156982,7552
922.079,1.322089,179937,8571
925.923,1.315396,200504,9699
929.762,1.296104,222660,11260
933.597,1.329190,244426,11454
937.427,1.310161,263972,12924
941.254,1.324952,281845,13337
945.076,1.322918,297271,14133
950.165,1.316672,315605,15222
953.978,1.317778,328029,15781
957.786,1.315781,340470,16455
961.59,1.311001,352317,17216
965.389,1.307121,363056,17900
969.185,1.316432,373162,18008
972.976,1.309780,382632,18750
976.763,1.304085,391202,19423
981.806,1.303304,400190,19905
985.583,1.311385,406088,19826
989.355,1.314452,410162,19884
993.124,1.305798,412868,20418
996.888,1.315487,414263,20035
1000.65,1.316388,415476,20052
1004.4,1.306181,415479,20529
1009.41,1.312713,414358,20168
1013.15,1.309208,412923,20261
1016.89,1.314650,411526,19941
1020.63,1.318342,409066,19654
1024.36,1.309936,406777,19926
1028.09,1.309627,404427,19825
1031.82,1.303578,401911,19978
1036.78,1.317799,398410,19166
1040.49,1.305884,396204,19590
1044.2,1.316706,394236,19013
1047.91,1.313460,392042,19049
1051.61,1.311908,389823,19009
1055.31,1.304911,388234,19239
1059,1.314271,387599,18798
1063.92,1.312349,386688,18837
1067.61,1.306203,386598,19101
1071.29,1.322656,387377,18428
1074.96,1.317218,388536,18716
1078.63,1.327693,389855,18332
1082.3,1.313730,391215,18997
1085.96,1.317044,393215,18949
1090.84,1.323049,396270,18834
1094.49,1.323240,398760,18944
1098.14,1.319106,400987,19232
1101.79,1.324331,403477,19120
1105.43,1.312490,406116,19777
1109.06,1.316935,407701,19652
1112.7,1.323559,409859,19457
1117.53,1.317570,412494,19854
1121.15,1.321770,414909,19778
1124.77,1.325431,416559,19690
1128.38,1.328830,418532,19629
1131.99,1.324176,419956,19908
1135.6,1.315605,421946,20401
1139.2,1.324156,423881,20095
1143.99,1.317673,426786,20537
1147.58,1.320888,428617,20473
1151.17,1.321118,431169,20584
1154.75,1.328931,433579,20330
1158.33,1.324598,436264,20661
1161.91,1.319364,439132,21049
1165.48,1.318200,442389,21262
1169.04,1.320402,446101,21332
1173.79,1.323906,451929,21437
1177.34,1.322890,456026,21682
1180.9,1.328591,461306,21647
1184.44,1.318537,467657,22459
1187.99,1.323915,473969,22482
1191.52,1.324836,479856,22713
1195.06,1.322054,487372,23217
1199.76,1.327648,497347,23389
1203.29,1.322813,504311,23982
1206.81,1.319331,511507,24520
1210.33,1.323680,519078,24635
1213.84,1.332743,527163,24502
1217.35,1.322569,534208,25418
1220.85,1.324958,540472,25575
1225.51,1.326554,549929,25927
1229.01,1.330845,556888,25997
1232.5,1.330415,562180,26270
1235.98,1.326567,567975,26777
1239.46,1.320764,574815,27464
1242.94,1.332425,582782,27107
1246.41,1.325167,591476,27975
1251.03,1.325032,604016,28577
1254.5,1.323243,612289,29088
1257.96,1.324526,619125,29326
1261.41,1.332093,624551,29072
1264.86,1.328200,629900,29585
1268.31,1.331533,634345,29566
1271.75,1.328611,638574,29964
1276.33,1.328499,642499,30156
1279.76,1.333743,645905,29952
1283.19,1.335456,648307,29945
1286.61,1.330795,650446,30368
1290.03,1.336751,652132,30032
1293.44,1.328406,653907,30698
1296.85,1.331342,655963,30587
1301.39,1.331153,657349,30665
1304.8,1.337108,657558,30257
1308.19,1.334237,658515,30502
1311.58,1.336426,658804,30362
1314.97,1.332193,659011,30669
1318.36,1.339954,658272,30092
1321.73,1.333386,658022,30539
1326.23,1.335081,657870,30413
1329.6,1.331445,656482,30604
1332.97,1.336775,654926,30159
1336.33,1.331624,653727,30463
1339.69,1.335392,652497,30143
1343.04,1.335604,649913,30009
1346.39,1.331966,647671,30157
1349.73,1.331004,645338,30115
1354.18,1.332047,641175,29849
1357.52,1.332481,638376,29689
1360.85,1.333708,635805,29486
1364.17,1.330395,633413,29600
1367.49,1.333046,631026,29309
1370.81,1.335761,628050,28989
1374.12,1.334735,625034,28918
1378.54,1.331219,620272,28931
1381.84,1.330033,616892,28852
1385.14,1.331028,613613,28633
1388.43,1.334414,611526,28314
1391.72,1.326877,610663,28769
1395.01,1.334071,610634,28295
1398.29,1.331678,611700,28501
1402.66,1.335912,614051,28333
1405.93,1.338259,616268,28282
1409.2,1.330563,617795,28859
1412.46,1.336314,618872,28529
1415.72,1.335214,619795,28644
1418.98,1.332532,620495,28854
1422.23,1.333278,621087,28832
1426.56,1.336199,621375,28652
1429.8,1.334401,621616,28782
1433.04,1.335817,622129,28712
1436.27,1.340661,621526,28366
1439.5,1.329516,621113,29084
1442.72,1.336200,620921,28631
1445.94,1.336868,620270,28557
1450.23,1.332396,618860,28787
1453.44,1.341822,617697,28116
1456.64,1.340396,616264,28143
1459.85,1.347127,614413,27627
1463.04,1.339563,612307,28016
1466.24,1.336894,610032,28084
1469.43,1.342951,607345,27573
1473.67,1.339426,603789,27635
1476.85,1.335316,601175,27777
1480.02,1.331607,597737,27855
1483.19,1.337449,594479,27333
1486.36,1.339206,591232,27074
1489.52,1.341134,587853,26800
1492.68,1.337456,583875,26845
1496.89,1.339729,578062,26439
1500.03,1.335541,574159,26515
1503.18,1.344691,570285,25787
1506.32,1.339509,565444,25875
1509.45,1.340306,560571,25605
1512.58,1.340632,555821,25369
1515.71,1.345972,550344,24812
1519.87,1.344721,543983,24596
1522.99,1.348679,538764,24139
1526.1,1.332279,533692,24832
1529.21,1.340518,527902,24101
1532.32,1.346046,521886,23525
1535.42,1.339312,515888,23618
1538.51,1.341921,509987,23208
1541.6,1.340799,503936,22992
1545.72,1.337775,494694,22728
1548.8,1.340295,488378,22308
1551.88,1.335585,481832,22249
1554.95,1.333847,474989,22021
1558.02,1.339318,467818,21417
1561.08,1.342242,460730,20951
1564.15,1.339448,454170,20786
1568.22,1.341564,444181,20230
1571.27,1.337168,436947,20103
1574.32,1.332358,429598,19985
1577.36,1.340223,422039,19281
1580.4,1.333392,414375,19231
1583.43,1.335903,406354,18750
1586.46,1.325897,398475,18815
1590.49,1.333092,388982,18065
1593.51,1.334537,380708,17622
1596.53,1.330742,372727,17404
1599.54,1.324996,365060,17273
1602.55,1.330794,357543,16693
1605.55,1.330402,349495,16332
1608.55,1.343685,341154,15462
1612.54,1.336226,330877,15256
1615.53,1.325206,322904,15271
1618.51,1.323800,315116,14951
1621.49,1.325987,307217,14503
1624.47,1.330707,299481,13985
1627.44,1.324351,292112,13842
1630.41,1.319229,284245,13629
1634.36,1.330225,274079,12813
1637.32,1.323255,266916,12680
1640.27,1.341597,259612,11823
1643.22,1.322461,251804,11984
1646.16,1.323102,244348,11612
1649.1,1.322473,236703,11265
1652.04,1.332218,228171,10618
1655.95,1.321226,215408,10281
1658.88,1.312838,204937,9972
1661.8,1.295707,193395,9789
1664.72,1.324584,179728,8512
1667.63,1.308801,163642,8037
1670.54,1.309943,146312,7167
1673.44,1.284937,128451,6665
1677.31,1.359991,105080,4587
1680.21,1.336889,88906,4093
1683.1,1.254908,75033,4172
1685.99,1.289693,63520,3260
1688.87,1.283240,53714,2798
1691.75,1.297930,45653,2299
1694.62,1.329899,39137,1831
1697.49,1.249398,33776,1902
1701.31,1.312193,28175,1373