File: samples/unknown/Column 1_078040_20241121_164232.csv
Method:,Column 1,,
Host Date-Time:,21/11/24 @ 16:42:32,,
Header Version:,1,,
System Temp (C):,30.55,,
Detector Temp (C):,25.33,,
Humidity (%):,5.8,,
Lamp PD:,3810,,
Shift Vector Coefficients:,-10.5391,0.0761263,-0.000134223,,
Pixel to Wavelength Coefficients:,1775.68,-0.916766,-0.000235065,,
Serial Number:,5510004,,
Scan Config Name:,Column 1,,
Scan Config Type:,Slew,,
Section 1,,
Start wavelength (nm):,900,,
End wavelength (nm):,1700,,
Pattern Pixel Width (nm):,   7.03,,,,
Exposure (ms):,  0.635,,,,
Digital Resolution:,228,,
Num Repeats:,6,,
PGA Gain:,64,,
Total Measurement Time in sec:,  2.705,,
Wavelength (nm),Absorbance (AU),Reference Signal (unitless),Sample Signal (unitless)
901.51,1.344996,108485,4902
905.376,1.331450,121306,5655
909.237,1.317774,131909,6346
913.095,1.341396,143299,6529
916.948,1.352679,156982,6969
922.079,1.326315,179937,8488
925.923,1.312184,200504,9771
929.762,1.316517,222660,10743
933.597,1.305542,244426,12095
937.427,1.313433,263972,12827
941.254,1.321385,281845,13447
945.076,1.319948,297271,14230
950.165,1.302084,315605,15742
953.978,1.315034,328029,15881
957.786,1.312547,340470,16578
961.59,1.319716,352317,16874
965.389,1.316043,363056,17536
969.185,1.313404,373162,18134
972.976,1.312662,382632,18626
976.763,1.312574,391202,19047
981.806,1.312677,400190,19480
985.583,1.308982,406088,19936
989.355,1.317256,410162,19756
993.124,1.314347,412868,20020
996.888,1.311624,414263,20214
1000.65,1.309726,415476,20362
1004.4,1.319674,415479,19901
1009.41,1.314223,414358,20098
1013.15,1.305473,412923,20436
1016.89,1.307994,411526,20249
1020.63,1.314164,409066,19844
1024.36,1.308565,406777,19989
1028.09,1.316472,404427,19515
1031.82,1.312051,401911,19592
1036.78,1.307122,398410,19643
1040.49,1.318183,396204,19043
1044.2,1.317094,394236,18996
1047.91,1.314876,392042,18987
1051.61,1.320748,389823,18626
1055.31,1.312149,388234,18921
1059,1.319010,387599,18594
1063.92,1.313642,386688,18781
1067.61,1.317887,386598,18594
1071.29,1.323765,387377,18381
1074.96,1.314489,388536,18834
1078.63,1.323075,389855,18528
1082.3,1.320644,391215,18697
1085.96,1.319134,393215,18858
1090.84,1.315482,396270,19165
1094.49,1.324664,398760,18882
1098.14,1.326554,400987,18905
1101.79,1.318398,403477,19383
1105.43,1.319931,406116,19441
1109.06,1.322227,407701,19414
1112.7,1.319294,409859,19649
1117.53,1.324049,412494,19560
1121.15,1.325055,414909,19629
1124.77,1.325938,416559,19667
1128.38,1.327417,418532,19693
1131.99,1.317637,419956,20210
1135.6,1.325205,421946,19955
1139.2,1.324286,423881,20089
1143.99,1.325483,426786,20171
1147.58,1.310802,428617,20954
1151.17,1.321878,431169,20548
1154.75,1.328099,433579,20369
1158.33,1.319915,436264,20885
1161.91,1.324761,439132,20789
1165.48,1.319182,442389,21214
1169.04,1.323651,446101,21173
1173.79,1.318590,451929,21701
1177.34,1.315364,456026,22061
1180.9,1.321843,461306,21986
1184.44,1.323614,467657,22198
1187.99,1.325134,473969,22419
1191.52,1.325276,479856,22690
1195.06,1.327135,487372,22947
1199.76,1.333236,497347,23090
1203.29,1.322849,504311,23980
1206.81,1.328405,511507,24013
1210.33,1.330199,519078,24268
1213.84,1.328335,527163,24752
1217.35,1.323544,534208,25361
1220.85,1.321979,540472,25751
1225.51,1.324082,549929,26075
1229.01,1.327715,556888,26185
1232.5,1.324912,562180,26605
1235.98,1.325547,567975,26840
1239.46,1.327024,574815,27071
1242.94,1.327660,582782,27406
1246.41,1.323942,591476,28054
1251.03,1.319310,604016,28956
1254.5,1.329711,612289,28658
1257.96,1.329965,619125,28961
1261.41,1.325496,624551,29517
1264.86,1.329052,629900,29527
1268.31,1.326901,634345,29883
1271.75,1.330252,638574,29851
1276.33,1.335043,642499,29705
1279.76,1.333511,645905,29968
1283.19,1.331400,648307,30226
1286.61,1.333506,650446,30179
1290.03,1.332434,652132,30332
1293.44,1.328916,653907,30662
1296.85,1.332380,655963,30514
1301.39,1.334665,657349,30418
1304.8,1.334561,657558,30435
1308.19,1.332036,658515,30657
1311.58,1.335112,658804,30454
1314.97,1.337765,659011,30278
1318.36,1.334106,658272,30500
1321.73,1.334625,658022,30452
1326.23,1.335781,657870,30364
1329.6,1.333636,656482,30450
1332.97,1.333019,654926,30421
1336.33,1.332266,653727,30418
1339.69,1.330635,652497,30475
1343.04,1.335228,649913,30035
1346.39,1.335103,647671,29940
1349.73,1.329162,645338,30243
1354.18,1.333548,641175,29746
1357.52,1.336331,638376,29427
1360.85,1.330436,635805,29709
1364.17,1.331129,633413,29550
1367.49,1.332987,631026,29313
1370.81,1.333371,628050,29149
1374.12,1.335908,625034,28840
1378.54,1.324383,620272,29390
1381.84,1.329522,616892,28886
1385.14,1.328050,613613,28830
1388.43,1.333204,611526,28393
1391.72,1.330424,610663,28535
1395.01,1.327445,610634,28730
1398.29,1.334154,611700,28339
1402.66,1.329899,614051,28728
1405.93,1.332690,616268,28647
1409.2,1.330082,617795,28891
1412.46,1.335189,618872,28603
1415.72,1.336368,619795,28568
1418.98,1.336904,620495,28565
1422.23,1.331039,621087,28981
1426.56,1.339898,621375,28409
1429.8,1.340143,621616,28404
1433.04,1.332352,622129,28942
1436.27,1.333208,621526,28857
1439.5,1.342537,621113,28225
1442.72,1.328189,620921,29164
1445.94,1.337416,620270,28521
1450.23,1.340006,618860,28287
1453.44,1.336556,617697,28459
1456.64,1.338026,616264,28297
1459.85,1.338319,614413,28193
1463.04,1.340028,612307,27986
1466.24,1.339142,610032,27939
1469.43,1.344608,607345,27468
1473.67,1.344389,603789,27321
1476.85,1.337290,601175,27651
1480.02,1.332450,597737,27801
1483.19,1.339121,594479,27228
1486.36,1.340652,591232,26984
1489.52,1.338339,587853,26973
1492.68,1.342288,583875,26548
1496.89,1.338024,578062,26543
1500.03,1.337461,574159,26398
1503.18,1.348429,570285,25566
1506.32,1.338302,565444,25947
1509.45,1.341546,560571,25532
1512.58,1.340683,555821,25366
1515.71,1.336725,550344,25346
1519.87,1.345180,543983,24570
1522.99,1.344490,538764,24373
1526.1,1.338515,533692,24478
1529.21,1.345010,527902,23853
1532.32,1.341473,521886,23774
1535.42,1.338431,515888,23666
1538.51,1.339291,509987,23349
1541.6,1.344688,503936,22787
1545.72,1.340536,494694,22584
1548.8,1.337675,488378,22443
1551.88,1.337561,481832,22148
1554.95,1.345844,474989,21421
1558.02,1.333737,467818,21694
1561.08,1.340236,460730,21048
1564.15,1.340473,454170,20737
1568.22,1.340963,444181,20258
1571.27,1.347133,436947,19647
1574.32,1.341006,429598,19591
1577.36,1.335719,422039,19482
1580.4,1.342151,414375,18847
1583.43,1.335625,406354,18762
1586.46,1.325920,398475,18814
1590.49,1.340829,388982,17746
1593.51,1.337951,380708,17484
1596.53,1.331591,372727,17370
1599.54,1.348156,365060,16376
1602.55,1.329158,357543,16756
1605.55,1.327407,349495,16445
1608.55,1.340606,341154,15572
1612.54,1.332936,330877,15372
1615.53,1.329694,322904,15114
1618.51,1.348605,315116,14121
1621.49,1.329203,307217,14396
1624.47,1.329869,299481,14012
1627.44,1.318554,292112,14028
1630.41,1.324809,284245,13455
1634.36,1.327286,274079,12900
1637.32,1.321887,266916,12720
1640.27,1.324596,259612,12295
1643.22,1.327931,251804,11834
1646.16,1.322093,244348,11639
1649.1,1.337854,236703,10873
1652.04,1.328674,228171,10705
1655.95,1.323471,215408,10228
1658.88,1.323151,204937,9738
1661.8,1.329701,193395,9052
1664.72,1.325095,179728,8502
1667.63,1.359589,163642,7150
1670.54,1.349105,146312,6549
1673.44,1.361559,128451,5587
1677.31,1.344644,105080,4752
1680.21,1.342442,88906,4041
1683.1,1.425003,75033,2820
1685.99,1.350971,63520,2831
1688.87,1.266195,53714,2910
1691.75,1.282345,45653,2383
1694.62,1.342168,39137,1780
1697.49,1.295358,33776,1711
1701.31,1.554994,28175,785