File: samples/unknown/Column 1_078088_20241121_164453.csv
Method:,Column 1,,
Host Date-Time:,21/11/24 @ 16:44:53,,
Header Version:,1,,
System Temp (C):,31.95,,
Detector Temp (C):,26.91,,
Humidity (%):,4.4,,
Lamp PD:,3807,,
Shift Vector Coefficients:,-10.5391,0.0761263,-0.000134223,,
Pixel to Wavelength Coefficients:,1775.68,-0.916766,-0.000235065,,
Serial Number:,5510004,,
Scan Config Name:,Column 1,,
Scan Config Type:,Slew,,
Section 1,,
Start wavelength (nm):,900,,
End wavelength (nm):,1700,,
Pattern Pixel Width (nm):,   7.03,,,,
Exposure (ms):,  0.635,,,,
Digital Resolution:,228,,
Num Repeats:,6,,
PGA Gain:,64,,
Total Measurement Time in sec:,  2.721,,
Wavelength (nm),Absorbance (AU),Reference Signal (unitless),Sample Signal (unitless)
901.51,1.311914,108485,5290
905.376,1.325728,121306,5730
909.237,1.322938,131909,6271
913.095,1.317583,143299,6897
916.948,1.316009,156982,7583
922.079,1.308865,179937,8836
925.923,1.319400,200504,9610
929.762,1.309340,222660,10922
933.597,1.315934,244426,11809
937.427,1.308384,263972,12977
941.254,1.313829,281845,13683
945.076,1.316967,297271,14328
950.165,1.310553,315605,15438
953.978,1.324405,328029,15542
957.786,1.306434,340470,16813
961.59,1.311658,352317,17190
965.389,1.306030,363056,17945
969.185,1.316939,373162,17987
972.976,1.301339,382632,19118
976.763,1.302678,391202,19486
981.806,1.310054,400190,19598
985.583,1.310947,406088,19846
989.355,1.311882,410162,20002
993.124,1.294068,412868,20977
996.888,1.308157,414263,20376
1000.65,1.310302,415476,20335
1004.4,1.317497,415479,20001
1009.41,1.313661,414358,20124
1013.15,1.307817,412923,20326
1016.89,1.303895,411526,20441
1020.63,1.305604,409066,20239
1024.36,1.308891,406777,19974
1028.09,1.316249,404427,19525
1031.82,1.302536,401911,20026
1036.78,1.310140,398410,19507
1040.49,1.308152,396204,19488
1044.2,1.312206,394236,19211
1047.91,1.307663,392042,19305
1051.61,1.305265,389823,19302
1055.31,1.307560,388234,19122
1059,1.308191,387599,19063
1063.92,1.321223,386688,18456
1067.61,1.316139,386598,18669
1071.29,1.308467,387377,19040
1074.96,1.310175,388536,19022
1078.63,1.323591,389855,18506
1082.3,1.318073,391215,18808
1085.96,1.311397,393215,19197
1090.84,1.308335,396270,19483
1094.49,1.312552,398760,19416
1098.14,1.317978,400987,19282
1101.79,1.316141,403477,19484
1105.43,1.325869,406116,19177
1109.06,1.315523,407701,19716
1112.7,1.315925,409859,19802
1117.53,1.321128,412494,19692
1121.15,1.331227,414909,19352
1124.77,1.324527,416559,19731
1128.38,1.320113,418532,20027
1131.99,1.318067,419956,20190
1135.6,1.325205,421946,19955
1139.2,1.319299,423881,20321
1143.99,1.321688,426786,20348
1147.58,1.324787,428617,20290
1151.17,1.318279,431169,20719
1154.75,1.320783,433579,20715
1158.33,1.320831,436264,20841
1161.91,1.319054,439132,21064
1165.48,1.321275,442389,21112
1169.04,1.315684,446101,21565
1173.79,1.315857,451929,21838
1177.34,1.321431,456026,21755
1180.9,1.318517,461306,22155
1184.44,1.322051,467657,22278
1187.99,1.318520,473969,22763
1191.52,1.321579,479856,22884
1195.06,1.312709,487372,23722
1199.76,1.325370,497347,23512
1203.29,1.319278,504311,24178
1206.81,1.316894,511507,24658
1210.33,1.324916,519078,24565
1213.84,1.316445,527163,25439
1217.35,1.322791,534208,25405
1220.85,1.322283,540472,25733
1225.51,1.323649,549929,26101
1229.01,1.319989,556888,26655
1232.5,1.322146,562180,26775
1235.98,1.325854,567975,26821
1239.46,1.318179,574815,27628
1242.94,1.321790,582782,27779
1246.41,1.322783,591476,28129
1251.03,1.323833,604016,28656
1254.5,1.324933,612289,28975
1257.96,1.327647,619125,29116
1261.41,1.329546,624551,29243
1264.86,1.330172,629900,29451
1268.31,1.326262,634345,29927
1271.75,1.334169,638574,29583
1276.33,1.331476,642499,29950
1279.76,1.327895,645905,30358
1283.19,1.325251,648307,30657
1286.61,1.328812,650446,30507
1290.03,1.330321,652132,30480
1293.44,1.329937,653907,30590
1296.85,1.327188,655963,30881
1301.39,1.329556,657349,30778
1304.8,1.331759,657558,30632
1308.19,1.330876,658515,30739
1311.58,1.337801,658804,30266
1314.97,1.338268,659011,30243
1318.36,1.331140,658272,30709
1321.73,1.332718,658022,30586
1326.23,1.333200,657870,30545
1329.6,1.328799,656482,30791
1332.97,1.331778,654926,30508
1336.33,1.334700,653727,30248
1339.69,1.331291,652497,30429
1343.04,1.336400,649913,29954
1346.39,1.331664,647671,30178
1349.73,1.325174,645338,30522
1354.18,1.331291,641175,29901
1357.52,1.335093,638376,29511
1360.85,1.332825,635805,29546
1364.17,1.326699,633413,29853
1367.49,1.328213,631026,29637
1370.81,1.320526,628050,30024
1374.12,1.328029,625034,29368
1378.54,1.320250,620272,29671
1381.84,1.327033,616892,29052
1385.14,1.333095,613613,28497
1388.43,1.325743,611526,28885
1391.72,1.329800,610663,28576
1395.01,1.327022,610634,28758
1398.29,1.329763,611700,28627
1402.66,1.326301,614051,28967
1405.93,1.326340,616268,29069
1409.2,1.326146,617795,29154
1412.46,1.331320,618872,28859
1415.72,1.334351,619795,28701
1418.98,1.335189,620495,28678
1422.23,1.332375,621087,28892
1426.56,1.323620,621375,29494
1429.8,1.334658,621616,28765
1433.04,1.336544,622129,28664
1436.27,1.333389,621526,28845
1439.5,1.326081,621113,29315
1442.72,1.335639,620921,28668
1445.94,1.337355,620270,28525
1450.23,1.335242,618860,28599
1453.44,1.332848,617697,28703
1456.64,1.329726,616264,28843
1459.85,1.336275,614413,28326
1463.04,1.335121,612307,28304
1466.24,1.334765,610032,28222
1469.43,1.333186,607345,28200
1473.67,1.336794,603789,27803
1476.85,1.330635,601175,28078
1480.02,1.335947,597737,27578
1483.19,1.340159,594479,27163
1486.36,1.334928,591232,27342
1489.52,1.337905,587853,27000
1492.68,1.339094,583875,26744
1496.89,1.335740,578062,26683
1500.03,1.336705,574159,26444
1503.18,1.340351,570285,26046
1506.32,1.333475,565444,26237
1509.45,1.340696,560571,25582
1512.58,1.334850,555821,25709
1515.71,1.348166,550344,24687
1519.87,1.332877,543983,25276
1522.99,1.337665,538764,24759
1526.1,1.338266,533692,24492
1529.21,1.334363,527902,24445
1532.32,1.335973,521886,24077
1535.42,1.332091,515888,24014
1538.51,1.334923,509987,23585
1541.6,1.334182,503936,23345
1545.72,1.339575,494694,22634
1548.8,1.327123,488378,22995
1551.88,1.332745,481832,22395
1554.95,1.340344,474989,21694
1558.02,1.339501,467818,21408
1561.08,1.337172,460730,21197
1564.15,1.340996,454170,20712
1568.22,1.333883,444181,20591
1571.27,1.338574,436947,20038
1574.32,1.339125,429598,19676
1577.36,1.336299,422039,19456
1580.4,1.334047,414375,19202
1583.43,1.329922,406354,19010
1586.46,1.326128,398475,18805
1590.49,1.324899,388982,18409
1593.51,1.330001,380708,17807
1596.53,1.336393,372727,17179
1599.54,1.328100,365060,17150
1602.55,1.327941,357543,16803
1605.55,1.322470,349495,16633
1608.55,1.325990,341154,16105
1612.54,1.335970,330877,15265
1615.53,1.322032,322904,15383
1618.51,1.326949,315116,14843
1621.49,1.329475,307217,14387
1624.47,1.317525,299481,14416
1627.44,1.321318,292112,13939
1630.41,1.330201,284245,13289
1634.36,1.317006,274079,13209
1637.32,1.326936,266916,12573
1640.27,1.320203,259612,12420
1643.22,1.330951,251804,11752
1646.16,1.329127,244348,11452
1649.1,1.317871,236703,11385
1652.04,1.321751,228171,10877
1655.95,1.314853,215408,10433
1658.88,1.292878,204937,10441
1661.8,1.317216,193395,9316
1664.72,1.301726,179728,8972
1667.63,1.308639,163642,8040
1670.54,1.300413,146312,7326
1673.44,1.302693,128451,6398
1677.31,1.322463,105080,5001
1680.21,1.325992,88906,4197
1683.1,1.274279,75033,3990
1685.99,1.310569,63520,3107
1688.87,1.233711,53714,3136
1691.75,1.384619,45653,1883
1694.62,1.338765,39137,1794
1697.49,1.260264,33776,1855
1701.31,1.368157,28175,1207