File: samples/unknown/Column 1_078057_20241121_164322.csv
Method:,Column 1,,
Host Date-Time:,21/11/24 @ 16:43:22,,
Header Version:,1,,
System Temp (C):,31.11,,
Detector Temp (C):,25.86,,
Humidity (%):,5.37,,
Lamp PD:,3810,,
Shift Vector Coefficients:,-10.5391,0.0761263,-0.000134223,,
Pixel to Wavelength Coefficients:,1775.68,-0.916766,-0.000235065,,
Serial Number:,5510004,,
Scan Config Name:,Column 1,,
Scan Config Type:,Slew,,
Section 1,,
Start wavelength (nm):,900,,
End wavelength (nm):,1700,,
Pattern Pixel Width (nm):,   7.03,,,,
Exposure (ms):,  0.635,,,,
Digital Resolution:,228,,
Num Repeats:,6,,
PGA Gain:,64,,
Total Measurement Time in sec:,  2.706,,
Wavelength (nm),Absorbance (AU),Reference Signal (unitless),Sample Signal (unitless)
901.51,1.321040,108485,5180
905.376,1.333528,121306,5628
909.237,1.311119,131909,6444
913.095,1.314071,143299,6953
916.948,1.302033,156982,7831
922.079,1.326520,179937,8484
925.923,1.310675,200504,9805
929.762,1.305461,222660,11020
933.597,1.303035,244426,12165
937.427,1.305482,263972,13064
941.254,1.313956,281845,13679
945.076,1.316482,297271,14344
950.165,1.308868,315605,15498
953.978,1.308170,328029,16134
957.786,1.307649,340470,16766
961.59,1.312644,352317,17151
965.389,1.304967,363056,17989
969.185,1.304585,373162,18506
972.976,1.314344,382632,18554
976.763,1.300899,391202,19566
981.806,1.305184,400190,19819
985.583,1.309440,406088,19915
989.355,1.306337,410162,20259
993.124,1.297351,412868,20819
996.888,1.311495,414263,20220
1000.65,1.307343,415476,20474
1004.4,1.309921,415479,20353
1009.41,1.302477,414358,20649
1013.15,1.308780,412923,20281
1016.89,1.307479,411526,20273
1020.63,1.307389,409066,20156
1024.36,1.307502,406777,20038
1028.09,1.315671,404427,19551
1031.82,1.299015,401911,20189
1036.78,1.298953,398410,20016
1040.49,1.304446,396204,19655
1044.2,1.309322,394236,19339
1047.91,1.314305,392042,19012
1051.61,1.307996,389823,19181
1055.31,1.312931,388234,18887
1059,1.318473,387599,18617
1063.92,1.311198,386688,18887
1067.61,1.311580,386598,18866
1071.29,1.313976,387377,18800
1074.96,1.318589,388536,18657
1078.63,1.319503,389855,18681
1082.3,1.313982,391215,18986
1085.96,1.322649,393215,18706
1090.84,1.312681,396270,19289
1094.49,1.315717,398760,19275
1098.14,1.315015,400987,19414
1101.79,1.317391,403477,19428
1105.43,1.312182,406116,19791
1109.06,1.312341,407701,19861
1112.7,1.311648,409859,19998
1117.53,1.312222,412494,20100
1121.15,1.319952,414909,19861
1124.77,1.326137,416559,19658
1128.38,1.313826,418532,20319
1131.99,1.321241,419956,20043
1135.6,1.315244,421946,20418
1139.2,1.318509,423881,20358
1143.99,1.316786,426786,20579
1147.58,1.322141,428617,20414
1151.17,1.320127,431169,20631
1154.75,1.318713,433579,20814
1158.33,1.318607,436264,20948
1161.91,1.316977,439132,21165
1165.48,1.317710,442389,21286
1169.04,1.325727,446101,21072
1173.79,1.323582,451929,21453
1177.34,1.313008,456026,22181
1180.9,1.321448,461306,22006
1184.44,1.316569,467657,22561
1187.99,1.316826,473969,22852
1191.52,1.325181,479856,22695
1195.06,1.319239,487372,23368
1199.76,1.313563,497347,24160
1203.29,1.322632,504311,23992
1206.81,1.318977,511507,24540
1210.33,1.313780,519078,25203
1213.84,1.326025,527163,24884
1217.35,1.323613,534208,25357
1220.85,1.322013,540472,25749
1225.51,1.321277,549929,26244
1229.01,1.324625,556888,26372
1232.5,1.328485,562180,26387
1235.98,1.326940,567975,26754
1239.46,1.322650,574815,27345
1242.94,1.326252,582782,27495
1246.41,1.325913,591476,27927
1251.03,1.325716,604016,28532
1254.5,1.325068,612289,28966
1257.96,1.322266,619125,29479
1261.41,1.328389,624551,29321
1264.86,1.326735,629900,29685
1268.31,1.326538,634345,29908
1271.75,1.329540,638574,29900
1276.33,1.332376,642499,29888
1279.76,1.329889,645905,30219
1283.19,1.330840,648307,30265
1286.61,1.330366,650446,30398
1290.03,1.327438,652132,30683
1293.44,1.328052,653907,30723
1296.85,1.335036,655963,30328
1301.39,1.328372,657349,30862
1304.8,1.332852,657558,30555
1308.19,1.336564,658515,30339
1311.58,1.325856,658804,31110
1314.97,1.331189,659011,30740
1318.36,1.327366,658272,30977
1321.73,1.329605,658022,30806
1326.23,1.331554,657870,30661
1329.6,1.331161,656482,30624
1332.97,1.337092,654926,30137
1336.33,1.335030,653727,30225
1339.69,1.340814,652497,29769
1343.04,1.328826,649913,30481
1346.39,1.328881,647671,30372
1349.73,1.325473,645338,30501
1354.18,1.330536,641175,29953
1357.52,1.331940,638376,29726
1360.85,1.330129,635805,29730
1364.17,1.326394,633413,29874
1367.49,1.328917,631026,29589
1370.81,1.330002,628050,29376
1374.12,1.329511,625034,29268
1378.54,1.319636,620272,29713
1381.84,1.324365,616892,29231
1385.14,1.325841,613613,28977
1388.43,1.328382,611526,28710
1391.72,1.322760,610663,29043
1395.01,1.323892,610634,28966
1398.29,1.331221,611700,28531
1402.66,1.331110,614051,28648
1405.93,1.330588,616268,28786
1409.2,1.332448,617795,28734
1412.46,1.333235,618872,28732
1415.72,1.325959,619795,29261
1418.98,1.332337,620495,28867
1422.23,1.332691,621087,28871
1426.56,1.332396,621375,28904
1429.8,1.335066,621616,28738
1433.04,1.330480,622129,29067
1436.27,1.339041,621526,28472
1439.5,1.327357,621113,29229
1442.72,1.338009,620921,28512
1445.94,1.333203,620270,28799
1450.23,1.331447,618860,28850
1453.44,1.339726,617697,28252
1456.64,1.335318,616264,28474
1459.85,1.339615,614413,28109
1463.04,1.338943,612307,28056
1466.24,1.337544,610032,28042
1469.43,1.335642,607345,28041
1473.67,1.330775,603789,28191
1476.85,1.334753,601175,27813
1480.02,1.328577,597737,28050
1483.19,1.337084,594479,27356
1486.36,1.335389,591232,27313
1489.52,1.343376,587853,26662
1492.68,1.340281,583875,26671
1496.89,1.338270,578062,26528
1500.03,1.332667,574159,26691
1503.18,1.345652,570285,25730
1506.32,1.335134,565444,26137
1509.45,1.337196,560571,25789
1512.58,1.345867,555821,25065
1515.71,1.332751,550344,25579
1519.87,1.339683,543983,24883
1522.99,1.337999,538764,24740
1526.1,1.337912,533692,24512
1529.21,1.336554,527902,24322
1532.32,1.340360,521886,23835
1535.42,1.338265,515888,23675
1538.51,1.332005,509987,23744
1541.6,1.339027,503936,23086
1545.72,1.339153,494694,22656
1548.8,1.330364,488378,22824
1551.88,1.334844,481832,22287
1554.95,1.335150,474989,21955
1558.02,1.347961,467818,20995
1561.08,1.338136,460730,21150
1564.15,1.334958,454170,21002
1568.22,1.331758,444181,20692
1571.27,1.327744,436947,20544
1574.32,1.336573,429598,19792
1577.36,1.336723,422039,19437
1580.4,1.336337,414375,19101
1583.43,1.329124,406354,19045
1586.46,1.338591,398475,18273
1590.49,1.326459,388982,18343
1593.51,1.328395,380708,17873
1596.53,1.334350,372727,17260
1599.54,1.331558,365060,17014
1602.55,1.329365,357543,16748
1605.55,1.330694,349495,16321
1608.55,1.339019,341154,15629
1612.54,1.330176,330877,15470
1615.53,1.332172,322904,15028
1618.51,1.329443,315116,14758
1621.49,1.318800,307217,14745
1624.47,1.316111,299481,14463
1627.44,1.335023,292112,13506
1630.41,1.320409,284245,13592
1634.36,1.319413,274079,13136
1637.32,1.306723,266916,13172
1640.27,1.336376,259612,11966
1643.22,1.324896,251804,11917
1646.16,1.322728,244348,11622
1649.1,1.315664,236703,11443
1652.04,1.327620,228171,10731
1655.95,1.311659,215408,10510
1658.88,1.324133,204937,9716
1661.8,1.313040,193395,9406
1664.72,1.341067,179728,8195
1667.63,1.323194,163642,7775
1670.54,1.314266,146312,7096
1673.44,1.315226,128451,6216
1677.31,1.308366,105080,5166
1680.21,1.315665,88906,4298
1683.1,1.316664,75033,3619
1685.99,1.314219,63520,3081
1688.87,1.318636,53714,2579
1691.75,1.187005,45653,2968
1694.62,1.344369,39137,1771
1697.49,1.315622,33776,1633
1701.31,1.352954,28175,1250