File: samples/unknown/Column 1_078049_20241121_164259.csv
Method:,Column 1,,
Host Date-Time:,21/11/24 @ 16:42:59,,
Header Version:,1,,
System Temp (C):,30.79,,
Detector Temp (C):,25.59,,
Humidity (%):,5.36,,
Lamp PD:,3810,,
Shift Vector Coefficients:,-10.5391,0.0761263,-0.000134223,,
Pixel to Wavelength Coefficients:,1775.68,-0.916766,-0.000235065,,
Serial Number:,5510004,,
Scan Config Name:,Column 1,,
Scan Config Type:,Slew,,
Section 1,,
Start wavelength (nm):,900,,
End wavelength (nm):,1700,,
Pattern Pixel Width (nm):,   7.03,,,,
Exposure (ms):,  0.635,,,,
Digital Resolution:,228,,
Num Repeats:,6,,
PGA Gain:,64,,
Total Measurement Time in sec:,  2.722,,
Wavelength (nm),Absorbance (AU),Reference Signal (unitless),Sample Signal (unitless)
901.51,1.285711,108485,5619
905.376,1.302845,121306,6040
909.237,1.291937,131909,6735
913.095,1.301209,143299,7162
916.948,1.319690,156982,7519
922.079,1.326110,179937,8492
925.923,1.306839,200504,9892
929.762,1.301342,222660,11125
933.597,1.304287,244426,12130
937.427,1.311204,263972,12893
941.254,1.309691,281845,13814
945.076,1.311545,297271,14508
950.165,1.303078,315605,15706
953.978,1.304498,328029,16271
957.786,1.313307,340470,16549
961.59,1.313202,352317,17129
965.389,1.310947,363056,17743
969.185,1.307788,373162,18370
972.976,1.312685,382632,18625
976.763,1.307722,391202,19261
981.806,1.308550,400190,19666
985.583,1.305489,406088,20097
989.355,1.316137,410162,19807
993.124,1.307161,412868,20354
996.888,1.307093,414263,20426
1000.65,1.305438,415476,20564
1004.4,1.305209,415479,20575
1009.41,1.303951,414358,20579
1013.15,1.310131,412923,20218
1016.89,1.301903,411526,20535
1020.63,1.318962,409066,19626
1024.36,1.302181,406777,20285
1028.09,1.306462,404427,19970
1031.82,1.313072,401911,19546
1036.78,1.302701,398410,19844
1040.49,1.317158,396204,19088
1044.2,1.309547,394236,19329
1047.91,1.305329,392042,19409
1051.61,1.302238,389823,19437
1055.31,1.311461,388234,18951
1059,1.310842,387599,18947
1063.92,1.303201,386688,19238
1067.61,1.317700,386598,18602
1071.29,1.310089,387377,18969
1074.96,1.317799,388536,18691
1078.63,1.317439,389855,18770
1082.3,1.308707,391215,19218
1085.96,1.320472,393215,18800
1090.84,1.309831,396270,19416
1094.49,1.312977,398760,19397
1098.14,1.309922,400987,19643
1101.79,1.313563,403477,19600
1105.43,1.319351,406116,19467
1109.06,1.319662,407701,19529
1112.7,1.314918,409859,19848
1117.53,1.323982,412494,19563
1121.15,1.321529,414909,19789
1124.77,1.319233,416559,19973
1128.38,1.315475,418532,20242
1131.99,1.323326,419956,19947
1135.6,1.322904,421946,20061
1139.2,1.317082,423881,20425
1143.99,1.319921,426786,20431
1147.58,1.326074,428617,20230
1151.17,1.322237,431169,20531
1154.75,1.323011,433579,20609
1158.33,1.321790,436264,20795
1161.91,1.326310,439132,20715
1165.48,1.319346,442389,21206
1169.04,1.324431,446101,21135
1173.79,1.316156,451929,21823
1177.34,1.319220,456026,21866
1180.9,1.323981,461306,21878
1184.44,1.317398,467657,22518
1187.99,1.317739,473969,22804
1191.52,1.320290,479856,22952
1195.06,1.317847,487372,23443
1199.76,1.323564,497347,23610
1203.29,1.317164,504311,24296
1206.81,1.325036,511507,24200
1210.33,1.329358,519078,24315
1213.84,1.327091,527163,24823
1217.35,1.327570,534208,25127
1220.85,1.325927,540472,25518
1225.51,1.326504,549929,25930
1229.01,1.316791,556888,26852
1232.5,1.328798,562180,26368
1235.98,1.317721,567975,27328
1239.46,1.317739,574815,27656
1242.94,1.321383,582782,27805
1246.41,1.324748,591476,28002
1251.03,1.327638,604016,28406
1254.5,1.320578,612289,29267
1257.96,1.322914,619125,29435
1261.41,1.325628,624551,29508
1264.86,1.317041,629900,30355
1268.31,1.325871,634345,29954
1271.75,1.321553,638574,30455
1276.33,1.329017,642499,30120
1279.76,1.329013,645905,30280
1283.19,1.331918,648307,30190
1286.61,1.331095,650446,30347
1290.03,1.332664,652132,30316
1293.44,1.329468,653907,30623
1296.85,1.331243,655963,30594
1301.39,1.332273,657349,30586
1304.8,1.332340,657558,30591
1308.19,1.332121,658515,30651
1311.58,1.333148,658804,30592
1314.97,1.330004,659011,30824
1318.36,1.335161,658272,30426
1321.73,1.330579,658022,30737
1326.23,1.332135,657870,30620
1329.6,1.336296,656482,30264
1332.97,1.330755,654926,30580
1336.33,1.332723,653727,30386
1339.69,1.333767,652497,30256
1343.04,1.334967,649913,30053
1346.39,1.334668,647671,29970
1349.73,1.334479,645338,29875
1354.18,1.329740,641175,30008
1357.52,1.331341,638376,29767
1360.85,1.331241,635805,29654
1364.17,1.329941,633413,29631
1367.49,1.332469,631026,29348
1370.81,1.332715,628050,29193
1374.12,1.326863,625034,29447
1378.54,1.327720,620272,29165
1381.84,1.324633,616892,29213
1385.14,1.333187,613613,28491
1388.43,1.330672,611526,28559
1391.72,1.327980,610663,28696
1395.01,1.327990,610634,28694
1398.29,1.328641,611700,28701
1402.66,1.332203,614051,28576
1405.93,1.331086,616268,28753
1409.2,1.328866,617795,28972
1412.46,1.330643,618872,28904
1415.72,1.334018,619795,28723
1418.98,1.333934,620495,28761
1422.23,1.338079,621087,28515
1426.56,1.329640,621375,29088
1429.8,1.327872,621616,29218
1433.04,1.331333,622129,29010
1436.27,1.335154,621526,28728
1439.5,1.336850,621113,28597
1442.72,1.332093,620921,28903
1445.94,1.326990,620270,29214
1450.23,1.332607,618860,28773
1453.44,1.337855,617697,28374
1456.64,1.334526,616264,28526
1459.85,1.342234,614413,27940
1463.04,1.334401,612307,28351
1466.24,1.332371,610032,28378
1469.43,1.332725,607345,28230
1473.67,1.335141,603789,27909
1476.85,1.337872,601175,27614
1480.02,1.337873,597737,27456
1483.19,1.334157,594479,27541
1486.36,1.333770,591232,27415
1489.52,1.337214,587853,27043
1492.68,1.333479,583875,27092
1496.89,1.333791,578062,26803
1500.03,1.338862,574159,26313
1503.18,1.338438,570285,26161
1506.32,1.334918,565444,26150
1509.45,1.336843,560571,25810
1512.58,1.345815,555821,25068
1515.71,1.340200,550344,25144
1519.87,1.340941,543983,24811
1522.99,1.332210,538764,25072
1526.1,1.339403,533692,24428
1529.21,1.338505,527902,24213
1532.32,1.333043,521886,24240
1535.42,1.335049,515888,23851
1538.51,1.338399,509987,23397
1541.6,1.336551,503936,23218
1545.72,1.329617,494694,23159
1548.8,1.343853,488378,22126
1551.88,1.328960,481832,22591
1554.95,1.338267,474989,21798
1558.02,1.342371,467818,21267
1561.08,1.336906,460730,21210
1564.15,1.334111,454170,21043
1568.22,1.341435,444181,20236
1571.27,1.341379,436947,19909
1574.32,1.336595,429598,19791
1577.36,1.329939,422039,19743
1580.4,1.332467,414375,19272
1583.43,1.330471,406354,18986
1586.46,1.335937,398475,18385
1590.49,1.338340,388982,17848
1593.51,1.329855,380708,17813
1596.53,1.321703,372727,17770
1599.54,1.318880,365060,17518
1602.55,1.328200,357543,16793
1605.55,1.332374,349495,16258
1608.55,1.332510,341154,15865
1612.54,1.327127,330877,15579
1615.53,1.320286,322904,15445
1618.51,1.331005,315116,14705
1621.49,1.332687,307217,14281
1624.47,1.325153,299481,14165
1627.44,1.326773,292112,13765
1630.41,1.319229,284245,13629
1634.36,1.323498,274079,13013
1637.32,1.325660,266916,12610
1640.27,1.326685,259612,12236
1643.22,1.319427,251804,12068
1646.16,1.313485,244348,11872
1649.1,1.308661,236703,11629
1652.04,1.318529,228171,10958
1655.95,1.312114,215408,10499
1658.88,1.304001,204937,10177
1661.8,1.340435,193395,8831
1664.72,1.332929,179728,8350
1667.63,1.322915,163642,7780
1670.54,1.315738,146312,7072
1673.44,1.317538,128451,6183
1677.31,1.388254,105080,4298
1680.21,1.295526,88906,4502
1683.1,1.312009,75033,3658
1685.99,1.339764,63520,2905
1688.87,1.238306,53714,3103
1691.75,1.429020,45653,1700
1694.62,1.353789,39137,1733
1697.49,1.246893,33776,1913
1701.31,1.348461,28175,1263