File: samples/unknown/Column 1_078053_20241121_164310.csv
Method:,Column 1,,
Host Date-Time:,21/11/24 @ 16:43:10,,
Header Version:,1,,
System Temp (C):,30.97,,
Detector Temp (C):,25.73,,
Humidity (%):,5.37,,
Lamp PD:,3809,,
Shift Vector Coefficients:,-10.5391,0.0761263,-0.000134223,,
Pixel to Wavelength Coefficients:,1775.68,-0.916766,-0.000235065,,
Serial Number:,5510004,,
Scan Config Name:,Column 1,,
Scan Config Type:,Slew,,
Section 1,,
Start wavelength (nm):,900,,
End wavelength (nm):,1700,,
Pattern Pixel Width (nm):,   7.03,,,,
Exposure (ms):,  0.635,,,,
Digital Resolution:,228,,
Num Repeats:,6,,
PGA Gain:,64,,
Total Measurement Time in sec:,  2.724,,
Wavelength (nm),Absorbance (AU),Reference Signal (unitless),Sample Signal (unitless)
901.51,1.319116,108485,5203
905.376,1.306600,121306,5988
909.237,1.302379,131909,6575
913.095,1.299756,143299,7186
916.948,1.303533,156982,7804
922.079,1.311379,179937,8785
925.923,1.303297,200504,9973
929.762,1.311093,222660,10878
933.597,1.306512,244426,12068
937.427,1.309724,263972,12937
941.254,1.314051,281845,13676
945.076,1.316119,297271,14356
950.165,1.308812,315605,15500
953.978,1.313887,328029,15923
957.786,1.310143,340470,16670
961.59,1.309239,352317,17286
965.389,1.309188,363056,17815
969.185,1.314795,373162,18076
972.976,1.304279,382632,18989
976.763,1.310414,391202,19142
981.806,1.300087,400190,20053
985.583,1.309789,406088,19899
989.355,1.315852,410162,19820
993.124,1.311235,412868,20164
996.888,1.312247,414263,20185
1000.65,1.306284,415476,20524
1004.4,1.316391,415479,20052
1009.41,1.299793,414358,20777
1013.15,1.311896,412923,20136
1016.89,1.310920,411526,20113
1020.63,1.307820,409066,20136
1024.36,1.314692,406777,19709
1028.09,1.313787,404427,19636
1031.82,1.308651,401911,19746
1036.78,1.304807,398410,19748
1040.49,1.310005,396204,19405
1044.2,1.310154,394236,19302
1047.91,1.316228,392042,18928
1051.61,1.310767,389823,19059
1055.31,1.306789,388234,19156
1059,1.314618,387599,18783
1063.92,1.312741,386688,18820
1067.61,1.303529,386598,19219
1071.29,1.316571,387377,18688
1074.96,1.317450,388536,18706
1078.63,1.317670,389855,18760
1082.3,1.315058,391215,18939
1085.96,1.323509,393215,18669
1090.84,1.311288,396270,19351
1094.49,1.314255,398760,19340
1098.14,1.314613,400987,19432
1101.79,1.314272,403477,19568
1105.43,1.312314,406116,19785
1109.06,1.310856,407701,19929
1112.7,1.314262,409859,19878
1117.53,1.324249,412494,19551
1121.15,1.329033,414909,19450
1124.77,1.320954,416559,19894
1128.38,1.317087,418532,20167
1131.99,1.326846,419956,19786
1135.6,1.318489,421946,20266
1139.2,1.318978,423881,20336
1143.99,1.329789,426786,19972
1147.58,1.318434,428617,20589
1151.17,1.314917,431169,20880
1154.75,1.321329,433579,20689
1158.33,1.328632,436264,20470
1161.91,1.318931,439132,21070
1165.48,1.324434,442389,20959
1169.04,1.317076,446101,21496
1173.79,1.322248,451929,21519
1177.34,1.314833,456026,22088
1180.9,1.315334,461306,22318
1184.44,1.320106,467657,22378
1187.99,1.319820,473969,22695
1191.52,1.323633,479856,22776
1195.06,1.319629,487372,23347
1199.76,1.325093,497347,23527
1203.29,1.325246,504311,23848
1206.81,1.321729,511507,24385
1210.33,1.323081,519078,24669
1213.84,1.320544,527163,25200
1217.35,1.322330,534208,25432
1220.85,1.316416,540472,26083
1225.51,1.322271,549929,26184
1229.01,1.327019,556888,26227
1232.5,1.322016,562180,26783
1235.98,1.324012,567975,26935
1239.46,1.328712,574815,26966
1242.94,1.322666,582782,27723
1246.41,1.322644,591476,28138
1251.03,1.324804,604016,28592
1254.5,1.321633,612289,29196
1257.96,1.329261,619125,29008
1261.41,1.328137,624551,29338
1264.86,1.335334,629900,29103
1268.31,1.322319,634345,30200
1271.75,1.330092,638574,29862
1276.33,1.329522,642499,30085
1279.76,1.326168,645905,30479
1283.19,1.326969,648307,30536
1286.61,1.328271,650446,30545
1290.03,1.331762,652132,30379
1293.44,1.329965,653907,30588
1296.85,1.328216,655963,30808
1301.39,1.333027,657349,30533
1304.8,1.334675,657558,30427
1308.19,1.329268,658515,30853
1311.58,1.331194,658804,30730
1314.97,1.328204,659011,30952
1318.36,1.332244,658272,30631
1321.73,1.330678,658022,30730
1326.23,1.328857,657870,30852
1329.6,1.333650,656482,30449
1332.97,1.334062,654926,30348
1336.33,1.327396,653727,30761
1339.69,1.327737,652497,30679
1343.04,1.334361,649913,30095
1346.39,1.334581,647671,29976
1349.73,1.331842,645338,30057
1354.18,1.331059,641175,29917
1357.52,1.332466,638376,29690
1360.85,1.331153,635805,29660
1364.17,1.331585,633413,29519
1367.49,1.328389,631026,29625
1370.81,1.332344,628050,29218
1374.12,1.326715,625034,29457
1378.54,1.329511,620272,29045
1381.84,1.325377,616892,29163
1385.14,1.332167,613613,28558
1388.43,1.334383,611526,28316
1391.72,1.334737,610663,28253
1395.01,1.333780,610634,28314
1398.29,1.327840,611700,28754
1402.66,1.334244,614051,28442
1405.93,1.330664,616268,28781
1409.2,1.337480,617795,28403
1412.46,1.332631,618872,28772
1415.72,1.328684,619795,29078
1418.98,1.330355,620495,28999
1422.23,1.334923,621087,28723
1426.56,1.331001,621375,28997
1429.8,1.338342,621616,28522
1433.04,1.333133,622129,28890
1436.27,1.335714,621526,28691
1439.5,1.337808,621113,28534
1442.72,1.342679,620921,28207
1445.94,1.334653,620270,28703
1450.23,1.329120,618860,29005
1453.44,1.334956,617697,28564
1456.64,1.329787,616264,28839
1459.85,1.330775,614413,28687
1463.04,1.337275,612307,28164
1466.24,1.333489,610032,28305
1469.43,1.339110,607345,27818
1473.67,1.338547,603789,27691
1476.85,1.335566,601175,27761
1480.02,1.332840,597737,27776
1483.19,1.341841,594479,27058
1486.36,1.333026,591232,27462
1489.52,1.339856,587853,26879
1492.68,1.332118,583875,27177
1496.89,1.341821,578062,26312
1500.03,1.338383,574159,26342
1503.18,1.334702,570285,26387
1506.32,1.334951,565444,26148
1509.45,1.341410,560571,25540
1512.58,1.340597,555821,25371
1515.71,1.338700,550344,25231
1519.87,1.339421,543983,24898
1522.99,1.345810,538764,24299
1526.1,1.338213,533692,24495
1529.21,1.340680,527902,24092
1532.32,1.335342,521886,24112
1535.42,1.338798,515888,23646
1538.51,1.338993,509987,23365
1541.6,1.337018,503936,23193
1545.72,1.333952,494694,22929
1548.8,1.339187,488378,22365
1551.88,1.338287,481832,22111
1554.95,1.339784,474989,21722
1558.02,1.339623,467818,21402
1561.08,1.339205,460730,21098
1564.15,1.334875,454170,21006
1568.22,1.338996,444181,20350
1571.27,1.334326,436947,20235
1574.32,1.343496,429598,19479
1577.36,1.333362,422039,19588
1580.4,1.343605,414375,18784
1583.43,1.326554,406354,19158
1586.46,1.332315,398475,18539
1590.49,1.342128,388982,17693
1593.51,1.333921,380708,17647
1596.53,1.330742,372727,17404
1599.54,1.328176,365060,17147
1602.55,1.338220,357543,16410
1605.55,1.332855,349495,16240
1608.55,1.327530,341154,16048
1612.54,1.325180,330877,15649
1615.53,1.325320,322904,15267
1618.51,1.325897,315116,14879
1621.49,1.323449,307217,14588
1624.47,1.317464,299481,14418
1627.44,1.319452,292112,13999
1630.41,1.321497,284245,13558
1634.36,1.325438,274079,12955
1637.32,1.325178,266916,12624
1640.27,1.322939,259612,12342
1643.22,1.331654,251804,11733
1646.16,1.314804,244348,11836
1649.1,1.326734,236703,11155
1652.04,1.321512,228171,10883
1655.95,1.311948,215408,10503
1658.88,1.321948,204937,9765
1661.8,1.321291,193395,9229
1664.72,1.332877,179728,8351
1667.63,1.332624,163642,7608
1670.54,1.311764,146312,7137
1673.44,1.299312,128451,6448
1677.31,1.312759,105080,5114
1680.21,1.316879,88906,4286
1683.1,1.287093,75033,3874
1685.99,1.353124,63520,2817
1688.87,1.266493,53714,2908
1691.75,1.286926,45653,2358
1694.62,1.379335,39137,1634
1697.49,1.212218,33776,2072
1701.31,1.448563,28175,1003