File: samples/unknown/Column 1_078100_20241121_173225.csv
Method:,Column 1,,
Host Date-Time:,21/11/24 @ 17:32:25,,
Header Version:,1,,
System Temp (C):,37.75,,
Detector Temp (C):,36.99,,
Humidity (%):,0.59,,
Lamp PD:,3795,,
Shift Vector Coefficients:,-10.5391,0.0761263,-0.000134223,,
Pixel to Wavelength Coefficients:,1775.68,-0.916766,-0.000235065,,
Serial Number:,5510004,,
Scan Config Name:,Column 1,,
Scan Config Type:,Slew,,
Section 1,,
Start wavelength (nm):,900,,
End wavelength (nm):,1700,,
Pattern Pixel Width (nm):,   7.03,,,,
Exposure (ms):,  0.635,,,,
Digital Resolution:,228,,
Num Repeats:,6,,
PGA Gain:,64,,
Total Measurement Time in sec:,  2.726,,
Wavelength (nm),Absorbance (AU),Reference Signal (unitless),Sample Signal (unitless)
901.51,1.311504,108485,5295
905.376,1.325652,121306,5731
909.237,1.347440,131909,5927
913.095,1.338678,143299,6570
916.948,1.317960,156982,7549
922.079,1.341201,179937,8202
925.923,1.333920,200504,9294
929.762,1.325833,222660,10515
933.597,1.309836,244426,11976
937.427,1.321705,263972,12585
941.254,1.317398,281845,13571
945.076,1.305717,297271,14704
950.165,1.300624,315605,15795
953.978,1.312009,328029,15992
957.786,1.311396,340470,16622
961.59,1.314064,352317,17095
965.389,1.307922,363056,17867
969.185,1.295826,373162,18883
972.976,1.316079,382632,18480
976.763,1.306416,391202,19319
981.806,1.307646,400190,19707
985.583,1.308416,406088,19962
989.355,1.304861,410162,20328
993.124,1.304481,412868,20480
996.888,1.300991,414263,20715
1000.65,1.302345,415476,20711
1004.4,1.303419,415479,20660
1009.41,1.312799,414358,20164
1013.15,1.302783,412923,20563
1016.89,1.322163,411526,19599
1020.63,1.301950,409066,20410
1024.36,1.309740,406777,19935
1028.09,1.298425,404427,20343
1031.82,1.304688,401911,19927
1036.78,1.306968,398410,19650
1040.49,1.316795,396204,19104
1044.2,1.314950,394236,19090
1047.91,1.308924,392042,19249
1051.61,1.307069,389823,19222
1055.31,1.313046,388234,18882
1059,1.313025,387599,18852
1063.92,1.305646,386688,19130
1067.61,1.304773,386598,19164
1071.29,1.308535,387377,19037
1074.96,1.317288,388536,18713
1078.63,1.318481,389855,18725
1082.3,1.307466,391215,19273
1085.96,1.313847,393215,19089
1090.84,1.313177,396270,19267
1094.49,1.314435,398760,19332
1098.14,1.322575,400987,19079
1101.79,1.314383,403477,19563
1105.43,1.314096,406116,19704
1109.06,1.310747,407701,19934
1112.7,1.306682,409859,20228
1117.53,1.314040,412494,20016
1121.15,1.316033,414909,20041
1124.77,1.311817,416559,20317
1128.38,1.313655,418532,20327
1131.99,1.315366,419956,20316
1135.6,1.316970,421946,20337
1139.2,1.317039,423881,20427
1143.99,1.308674,426786,20967
1147.58,1.320146,428617,20508
1151.17,1.314044,431169,20922
1154.75,1.313424,433579,21069
1158.33,1.310759,436264,21330
1161.91,1.312080,439132,21405
1165.48,1.315350,442389,21402
1169.04,1.311136,446101,21792
1173.79,1.313003,451929,21982
1177.34,1.317733,456026,21941
1180.9,1.315042,461306,22333
1184.44,1.313213,467657,22736
1187.99,1.314873,473969,22955
1191.52,1.315735,479856,23194
1195.06,1.320803,487372,23284
1199.76,1.324945,497347,23535
1203.29,1.320862,504311,24090
1206.81,1.313176,511507,24870
1210.33,1.314781,519078,25145
1213.84,1.316616,527163,25429
1217.35,1.319640,534208,25590
1220.85,1.319691,540472,25887
1225.51,1.325651,549929,25981
1229.01,1.317974,556888,26779
1232.5,1.323136,562180,26714
1235.98,1.325563,567975,26839
1239.46,1.317707,574815,27658
1242.94,1.321024,582782,27828
1246.41,1.321934,591476,28184
1251.03,1.323151,604016,28701
1254.5,1.315929,612289,29582
1257.96,1.321000,619125,29565
1261.41,1.324335,624551,29596
1264.86,1.323136,629900,29932
1268.31,1.322578,634345,30182
1271.75,1.320271,638574,30545
1276.33,1.326645,642499,30285
1279.76,1.327981,645905,30352
1283.19,1.319090,648307,31095
1286.61,1.321332,650446,31037
1290.03,1.325263,652132,30837
1293.44,1.325839,653907,30880
1296.85,1.322446,655963,31220
1301.39,1.333340,657349,30511
1304.8,1.327231,657558,30953
1308.19,1.327288,658515,30994
1311.58,1.330925,658804,30749
1314.97,1.326565,659011,31069
1318.36,1.326316,658272,31052
1321.73,1.322682,658022,31301
1326.23,1.332206,657870,30615
1329.6,1.338051,656482,30142
1332.97,1.328305,654926,30753
1336.33,1.327452,653727,30757
1339.69,1.327044,652497,30728
1343.04,1.326113,649913,30672
1346.39,1.324612,647671,30672
1349.73,1.323541,645338,30637
1354.18,1.323703,641175,30428
1357.52,1.325142,638376,30195
1360.85,1.325899,635805,30021
1364.17,1.320029,633413,30315
1367.49,1.322897,631026,30002
1370.81,1.330638,628050,29333
1374.12,1.326229,625034,29490
1378.54,1.322275,620272,29533
1381.84,1.322675,616892,29345
1385.14,1.325766,613613,28982
1388.43,1.328246,611526,28719
1391.72,1.325054,610663,28890
1395.01,1.321590,610634,29120
1398.29,1.324425,611700,28981
1402.66,1.324924,614051,29059
1405.93,1.328556,616268,28921
1409.2,1.329571,617795,28925
1412.46,1.326798,618872,29161
1415.72,1.322529,619795,29493
1418.98,1.325485,620495,29326
1422.23,1.332721,621087,28869
1426.56,1.332095,621375,28924
1429.8,1.328258,621616,29192
1433.04,1.330062,622129,29095
1436.27,1.334580,621526,28766
1439.5,1.333522,621113,28817
1442.72,1.331658,620921,28932
1445.94,1.330228,620270,28997
1450.23,1.334301,618860,28661
1453.44,1.334941,617697,28565
1456.64,1.327923,616264,28963
1459.85,1.335004,614413,28409
1463.04,1.336951,612307,28185
1466.24,1.326775,610032,28746
1469.43,1.334590,607345,28109
1473.67,1.335188,603789,27906
1476.85,1.363227,601175,26048
1480.02,1.331093,597737,27888
1483.19,1.328828,594479,27881
1486.36,1.328761,591232,27733
1489.52,1.333472,587853,27277
1492.68,1.337230,583875,26859
1496.89,1.327262,578062,27209
1500.03,1.332667,574159,26691
1503.18,1.335361,570285,26347
1506.32,1.338118,565444,25958
1509.45,1.336422,560571,25835
1512.58,1.340135,555821,25398
1515.71,1.333617,550344,25528
1519.87,1.333978,543983,25212
1522.99,1.332123,538764,25077
1526.1,1.337292,533692,24547
1529.21,1.328154,527902,24797
1532.32,1.320784,521886,24934
1535.42,1.335213,515888,23842
1538.51,1.334518,509987,23607
1541.6,1.335915,503936,23252
1545.72,1.328549,494694,23216
1548.8,1.330916,488378,22795
1551.88,1.332745,481832,22395
1554.95,1.335111,474989,21957
1558.02,1.333077,467818,21727
1561.08,1.332850,460730,21409
1564.15,1.338946,454170,20810
1568.22,1.326314,444181,20953
1571.27,1.334927,436947,20207
1574.32,1.328399,429598,20168
1577.36,1.330027,422039,19739
1580.4,1.336883,414375,19077
1583.43,1.323190,406354,19307
1586.46,1.330305,398475,18625
1590.49,1.324216,388982,18438
1593.51,1.329416,380708,17831
1596.53,1.312227,372727,18162
1599.54,1.323616,365060,17328
1602.55,1.311483,357543,17452
1605.55,1.325878,349495,16503
1608.55,1.324160,341154,16173
1612.54,1.312598,330877,16109
1615.53,1.313395,322904,15692
1618.51,1.316256,315116,15213
1621.49,1.318948,307217,14740
1624.47,1.317494,299481,14417
1627.44,1.319266,292112,14005
1630.41,1.317575,284245,13681
1634.36,1.309153,274079,13450
1637.32,1.315516,266916,12908
1640.27,1.314437,259612,12586
1643.22,1.313352,251804,12238
1646.16,1.309516,244348,11981
1649.1,1.296291,236703,11965
1652.04,1.315173,228171,11043
1655.95,1.304487,215408,10685
1658.88,1.303659,204937,10185
1661.8,1.275298,193395,10260
1664.72,1.249006,179728,10130
1667.63,1.233800,163642,9552
1670.54,1.219861,146312,8819
1673.44,1.178910,128451,8508
1677.31,1.160225,105080,7266
1680.21,1.110586,88906,6892
1683.1,1.124435,75033,5634
1685.99,1.109271,63520,4939
1688.87,1.082998,53714,4437
1691.75,1.084397,45653,3759
1694.62,1.134252,39137,2873
1697.49,1.116316,33776,2584
1701.31,1.110611,28175,2184