File: samples/unknown/Column 1_078005_20241121_164050.csv
Method:,Column 1,,
Host Date-Time:,21/11/24 @ 16:40:50,,
Header Version:,1,,
System Temp (C):,29.16,,
Detector Temp (C):,25.66,,
Humidity (%):,7.88,,
Lamp PD:,3817,,
Shift Vector Coefficients:,-10.5391,0.0761263,-0.000134223,,
Pixel to Wavelength Coefficients:,1775.68,-0.916766,-0.000235065,,
Serial Number:,5510004,,
Scan Config Name:,Column 1,,
Scan Config Type:,Slew,,
Section 1,,
Start wavelength (nm):,900,,
End wavelength (nm):,1700,,
Pattern Pixel Width (nm):,   7.03,,,,
Exposure (ms):,  0.635,,,,
Digital Resolution:,228,,
Num Repeats:,6,,
PGA Gain:,64,,
Total Measurement Time in sec:,  2.706,,
Wavelength (nm),Absorbance (AU),Reference Signal (unitless),Sample Signal (unitless)
901.51,1.320119,108485,5191
905.376,1.331834,121306,5650
909.237,1.325996,131909,6227
913.095,1.322268,143299,6823
916.948,1.289299,156982,8064
922.079,1.323459,179937,8544
925.923,1.312762,200504,9758
929.762,1.300212,222660,11154
933.597,1.309908,244426,11974
937.427,1.311103,263972,12896
941.254,1.312561,281845,13723
945.076,1.309544,297271,14575
950.165,1.311849,315605,15392
953.978,1.320262,328029,15691
957.786,1.308272,340470,16742
961.59,1.306060,352317,17413
965.389,1.320224,363056,17368
969.185,1.308545,373162,18338
972.976,1.297404,382632,19292
976.763,1.310164,391202,19153
981.806,1.299979,400190,20058
985.583,1.307482,406088,20005
989.355,1.308896,410162,20140
993.124,1.300450,412868,20671
996.888,1.311516,414263,20219
1000.65,1.307046,415476,20488
1004.4,1.311931,415479,20259
1009.41,1.314180,414358,20100
1013.15,1.316057,412923,19944
1016.89,1.311547,411526,20084
1020.63,1.311742,409066,19955
1024.36,1.305189,406777,20145
1028.09,1.304423,404427,20064
1031.82,1.309157,401911,19723
1036.78,1.311411,398410,19450
1040.49,1.301890,396204,19771
1044.2,1.306524,394236,19464
1047.91,1.308789,392042,19255
1051.61,1.312137,389823,18999
1055.31,1.308151,388234,19096
1059,1.305647,387599,19175
1063.92,1.318876,386688,18556
1067.61,1.307114,386598,19061
1071.29,1.307169,387377,19097
1074.96,1.319498,388536,18618
1078.63,1.316560,389855,18808
1082.3,1.310587,391215,19135
1085.96,1.320080,393215,18817
1090.84,1.313042,396270,19273
1094.49,1.320384,398760,19069
1098.14,1.318925,400987,19240
1101.79,1.314939,403477,19538
1105.43,1.318259,406116,19516
1109.06,1.319995,407701,19514
1112.7,1.310347,409859,20058
1117.53,1.318994,412494,19789
1121.15,1.317901,414909,19955
1124.77,1.323648,416559,19771
1128.38,1.317174,418532,20163
1131.99,1.310878,419956,20527
1135.6,1.317440,421946,20315
1139.2,1.323486,423881,20126
1143.99,1.329224,426786,19998
1147.58,1.322354,428617,20404
1151.17,1.320401,431169,20618
1154.75,1.320741,433579,20717
1158.33,1.315467,436264,21100
1161.91,1.321328,439132,20954
1165.48,1.320802,442389,21135
1169.04,1.324451,446101,21134
1173.79,1.325022,451929,21382
1177.34,1.315817,456026,22038
1180.9,1.319224,461306,22119
1184.44,1.319195,467657,22425
1187.99,1.313607,473969,23022
1191.52,1.319232,479856,23008
1195.06,1.328898,487372,22854
1199.76,1.326331,497347,23460
1203.29,1.320952,504311,24085
1206.81,1.324194,511507,24247
1210.33,1.319452,519078,24876
1213.84,1.329301,527163,24697
1217.35,1.328643,534208,25065
1220.85,1.322925,540472,25695
1225.51,1.322685,549929,26159
1229.01,1.327500,556888,26198
1232.5,1.322113,562180,26777
1235.98,1.323690,567975,26955
1239.46,1.322190,574815,27374
1242.94,1.328263,582782,27368
1246.41,1.323757,591476,28066
1251.03,1.326478,604016,28482
1254.5,1.327112,612289,28830
1257.96,1.326410,619125,29199
1261.41,1.329546,624551,29243
1264.86,1.324793,629900,29818
1268.31,1.328561,634345,29769
1271.75,1.325247,638574,30197
1276.33,1.326688,642499,30282
1279.76,1.324561,645905,30592
1283.19,1.330940,648307,30258
1286.61,1.337076,650446,29932
1290.03,1.328004,652132,30643
1293.44,1.331886,653907,30453
1296.85,1.328357,655963,30798
1301.39,1.331833,657349,30617
1304.8,1.330838,657558,30697
1308.19,1.334950,658515,30452
1311.58,1.330107,658804,30807
1314.97,1.330836,659011,30765
1318.36,1.327282,658272,30983
1321.73,1.333059,658022,30562
1326.23,1.334367,657870,30463
1329.6,1.333094,656482,30488
1332.97,1.335467,654926,30250
1336.33,1.335188,653727,30214
1339.69,1.337255,652497,30014
1343.04,1.335213,649913,30036
1346.39,1.337546,647671,29772
1349.73,1.332709,645338,29997
1354.18,1.333125,641175,29775
1357.52,1.326871,638376,30075
1360.85,1.329779,635805,29754
1364.17,1.330425,633413,29598
1367.49,1.333358,631026,29288
1370.81,1.333758,628050,29123
1374.12,1.331042,625034,29165
1378.54,1.326976,620272,29215
1381.84,1.325764,616892,29137
1385.14,1.334821,613613,28384
1388.43,1.331829,611526,28483
1391.72,1.326877,610663,28769
1395.01,1.329825,610634,28573
1398.29,1.327765,611700,28759
1402.66,1.331171,614051,28644
1405.93,1.328196,616268,28945
1409.2,1.334889,617795,28573
1412.46,1.331410,618872,28853
1415.72,1.334654,619795,28681
1418.98,1.330925,620495,28961
1422.23,1.331489,621087,28951
1426.56,1.331960,621375,28933
1429.8,1.330466,621616,29044
1433.04,1.337438,622129,28605
1436.27,1.332907,621526,28877
1439.5,1.336577,621113,28615
1442.72,1.330923,620921,28981
1445.94,1.337096,620270,28542
1450.23,1.333181,618860,28735
1453.44,1.333287,617697,28674
1456.64,1.334770,616264,28510
1459.85,1.337842,614413,28224
1463.04,1.336335,612307,28225
1466.24,1.340808,610032,27832
1469.43,1.335859,607345,28027
1473.67,1.335156,603789,27908
1476.85,1.335644,601175,27756
1480.02,1.336893,597737,27518
1483.19,1.336085,594479,27419
1486.36,1.337285,591232,27194
1489.52,1.344403,587853,26599
1492.68,1.335858,583875,26944
1496.89,1.340617,578062,26385
1500.03,1.343792,574159,26016
1503.18,1.338753,570285,26142
1506.32,1.343150,565444,25659
1509.45,1.337213,560571,25788
1512.58,1.341094,555821,25342
1515.71,1.340666,550344,25117
1519.87,1.335151,543983,25144
1522.99,1.339775,538764,24639
1526.1,1.333645,533692,24754
1529.21,1.339079,527902,24181
1532.32,1.341802,521886,23756
1535.42,1.334667,515888,23872
1538.51,1.345680,509987,23008
1541.6,1.337768,503936,23153
1545.72,1.327839,494694,23254
1548.8,1.338508,488378,22400
1551.88,1.344559,481832,21794
1554.95,1.333906,474989,22018
1558.02,1.333757,467818,21693
1561.08,1.337603,460730,21176
1564.15,1.337135,454170,20897
1568.22,1.343716,444181,20130
1571.27,1.343851,436947,19796
1574.32,1.336397,429598,19800
1577.36,1.326674,422039,19892
1580.4,1.345877,414375,18686
1583.43,1.337202,406354,18694
1586.46,1.338306,398475,18285
1590.49,1.329095,388982,18232
1593.51,1.335326,380708,17590
1596.53,1.336191,372727,17187
1599.54,1.336590,365060,16818
1602.55,1.325364,357543,16903
1605.55,1.340326,349495,15963
1608.55,1.324939,341154,16144
1612.54,1.327741,330877,15557
1615.53,1.328031,322904,15172
1618.51,1.336773,315116,14511
1621.49,1.328691,307217,14413
1624.47,1.331639,299481,13955
1627.44,1.323598,292112,13866
1630.41,1.318147,284245,13663
1634.36,1.321766,274079,13065
1637.32,1.320320,266916,12766
1640.27,1.322131,259612,12365
1643.22,1.318672,251804,12089
1646.16,1.325126,244348,11558
1649.1,1.324443,236703,11214
1652.04,1.323632,228171,10830
1655.95,1.302743,215408,10728
1658.88,1.324714,204937,9703
1661.8,1.326498,193395,9119
1664.72,1.315946,179728,8683
1667.63,1.352540,163642,7267
1670.54,1.331496,146312,6820
1673.44,1.344561,128451,5810
1677.31,1.346567,105080,4731
1680.21,1.437181,88906,3249
1683.1,1.339705,75033,3432
1685.99,1.423424,63520,2396
1688.87,1.337039,53714,2472
1691.75,1.399875,45653,1818
1694.62,1.365988,39137,1685
1697.49,1.473612,33776,1135
1701.31,1.243038,28175,1610