File: samples/unknown/Column 1_078031_20241121_164206.csv
Method:,Column 1,,
Host Date-Time:,21/11/24 @ 16:42:6,,
Header Version:,1,,
System Temp (C):,30.22,,
Detector Temp (C):,25.11,,
Humidity (%):,6.19,,
Lamp PD:,3812,,
Shift Vector Coefficients:,-10.5391,0.0761263,-0.000134223,,
Pixel to Wavelength Coefficients:,1775.68,-0.916766,-0.000235065,,
Serial Number:,5510004,,
Scan Config Name:,Column 1,,
Scan Config Type:,Slew,,
Section 1,,
Start wavelength (nm):,900,,
End wavelength (nm):,1700,,
Pattern Pixel Width (nm):,   7.03,,,,
Exposure (ms):,  0.635,,,,
Digital Resolution:,228,,
Num Repeats:,6,,
PGA Gain:,64,,
Total Measurement Time in sec:,  2.706,,
Wavelength (nm),Absorbance (AU),Reference Signal (unitless),Sample Signal (unitless)
901.51,1.318282,108485,5213
905.376,1.317172,121306,5844
909.237,1.288341,131909,6791
913.095,1.306271,143299,7079
916.948,1.330213,156982,7339
922.079,1.318004,179937,8652
925.923,1.287771,200504,10336
929.762,1.309380,222660,10921
933.597,1.315456,244426,11822
937.427,1.314789,263972,12787
941.254,1.312435,281845,13727
945.076,1.312954,297271,14461
950.165,1.304907,315605,15640
953.978,1.310952,328029,16031
957.786,1.305866,340470,16835
961.59,1.307234,352317,17366
965.389,1.310726,363056,17752
969.185,1.309779,373162,18286
972.976,1.307839,382632,18834
976.763,1.300966,391202,19563
981.806,1.307624,400190,19708
985.583,1.298671,406088,20415
989.355,1.299405,410162,20585
993.124,1.300513,412868,20668
996.888,1.312183,414263,20188
1000.65,1.308660,415476,20412
1004.4,1.305399,415479,20566
1009.41,1.301468,414358,20697
1013.15,1.308694,412923,20285
1016.89,1.306388,411526,20324
1020.63,1.316556,409066,19735
1024.36,1.308326,406777,20000
1028.09,1.310636,404427,19779
1031.82,1.312961,401911,19551
1036.78,1.305776,398410,19704
1040.49,1.312429,396204,19297
1044.2,1.308761,394236,19364
1047.91,1.307708,392042,19303
1051.61,1.310859,389823,19055
1055.31,1.317554,388234,18687
1059,1.300223,387599,19416
1063.92,1.310761,386688,18906
1067.61,1.303348,386598,19227
1071.29,1.311856,387377,18892
1074.96,1.313360,388536,18883
1078.63,1.323004,389855,18531
1082.3,1.311996,391215,19073
1085.96,1.321374,393215,18761
1090.84,1.312186,396270,19311
1094.49,1.316078,398760,19259
1098.14,1.317483,400987,19304
1101.79,1.311264,403477,19704
1105.43,1.310955,406116,19847
1109.06,1.319684,407701,19528
1112.7,1.318036,409859,19706
1117.53,1.311250,412494,20145
1121.15,1.320105,414909,19854
1124.77,1.319320,416559,19969
1128.38,1.320351,418532,20016
1131.99,1.322478,419956,19986
1135.6,1.325684,421946,19933
1139.2,1.318168,423881,20374
1143.99,1.327144,426786,20094
1147.58,1.313776,428617,20811
1151.17,1.325763,431169,20365
1154.75,1.319318,433579,20785
1158.33,1.306080,436264,21561
1161.91,1.312181,439132,21400
1165.48,1.318139,442389,21265
1169.04,1.315744,446101,21562
1173.79,1.311524,451929,22057
1177.34,1.318962,456026,21879
1180.9,1.317891,461306,22187
1184.44,1.325005,467657,22127
1187.99,1.317187,473969,22833
1191.52,1.309323,479856,23539
1195.06,1.321363,487372,23254
1199.76,1.329938,497347,23266
1203.29,1.320573,504311,24106
1206.81,1.320679,511507,24444
1210.33,1.315870,519078,25082
1213.84,1.324248,527163,24986
1217.35,1.321255,534208,25495
1220.85,1.320481,540472,25840
1225.51,1.323766,549929,26094
1229.01,1.326589,556888,26253
1232.5,1.320996,562180,26846
1235.98,1.319680,567975,27205
1239.46,1.322888,574815,27330
1242.94,1.322165,582782,27755
1246.41,1.320227,591476,28295
1251.03,1.322471,604016,28746
1254.5,1.321886,612289,29179
1257.96,1.330670,619125,28914
1261.41,1.325613,624551,29509
1264.86,1.324953,629900,29807
1268.31,1.321758,634345,30239
1271.75,1.326327,638574,30122
1276.33,1.326000,642499,30330
1279.76,1.329845,645905,30222
1283.19,1.326187,648307,30591
1286.61,1.323084,650446,30912
1290.03,1.329822,652132,30515
1293.44,1.328378,653907,30700
1296.85,1.329331,655963,30729
1301.39,1.329542,657349,30779
1304.8,1.332042,657558,30612
1308.19,1.328734,658515,30891
1311.58,1.330093,658804,30808
1314.97,1.324223,659011,31237
1318.36,1.333167,658272,30566
1321.73,1.331824,658022,30649
1326.23,1.327999,657870,30913
1329.6,1.330665,656482,30659
1332.97,1.325504,654926,30952
1336.33,1.330428,653727,30547
1339.69,1.332262,652497,30361
1343.04,1.334505,649913,30085
1346.39,1.331161,647671,30213
1349.73,1.330111,645338,30177
1354.18,1.329971,641175,29992
1357.52,1.330700,638376,29811
1360.85,1.331270,635805,29652
1364.17,1.328083,633413,29758
1367.49,1.326838,631026,29731
1370.81,1.332002,628050,29241
1374.12,1.325552,625034,29536
1378.54,1.326352,620272,29257
1381.84,1.324692,616892,29209
1385.14,1.326231,613613,28951
1388.43,1.325818,611526,28880
1391.72,1.324348,610663,28937
1395.01,1.325816,610634,28838
1398.29,1.331770,611700,28495
1402.66,1.335759,614051,28343
1405.93,1.333966,616268,28563
1409.2,1.335436,617795,28537
1412.46,1.330883,618872,28888
1415.72,1.335305,619795,28638
1418.98,1.326553,620495,29254
1422.23,1.336908,621087,28592
1426.56,1.330731,621375,29015
1429.8,1.335141,621616,28733
1433.04,1.336029,622129,28698
1436.27,1.335169,621526,28727
1439.5,1.337093,621113,28581
1442.72,1.333327,620921,28821
1445.94,1.335714,620270,28633
1450.23,1.339101,618860,28346
1453.44,1.333954,617697,28630
1456.64,1.330933,616264,28763
1459.85,1.329626,614413,28763
1463.04,1.337028,612307,28180
1466.24,1.334257,610032,28255
1469.43,1.334204,607345,28134
1473.67,1.335982,603789,27855
1476.85,1.330867,601175,28063
1480.02,1.340332,597737,27301
1483.19,1.340335,594479,27152
1486.36,1.335945,591232,27278
1489.52,1.332169,587853,27359
1492.68,1.326577,583875,27526
1496.89,1.343756,578062,26195
1500.03,1.330914,574159,26799
1503.18,1.333108,570285,26484
1506.32,1.347265,565444,25417
1509.45,1.339950,560571,25626
1512.58,1.335577,555821,25666
1515.71,1.336845,550344,25339
1519.87,1.337697,543983,24997
1522.99,1.340234,538764,24613
1526.1,1.341756,533692,24296
1529.21,1.337036,527902,24295
1532.32,1.334892,521886,24137
1535.42,1.335176,515888,23844
1538.51,1.338510,509987,23391
1541.6,1.332696,503936,23425
1545.72,1.333592,494694,22948
1548.8,1.334878,488378,22588
1551.88,1.334163,481832,22322
1554.95,1.333866,474989,22020
1558.02,1.336791,467818,21542
1561.08,1.342657,460730,20931
1564.15,1.336761,454170,20915
1568.22,1.328579,444181,20844
1571.27,1.337254,436947,20099
1574.32,1.343340,429598,19486
1577.36,1.337170,422039,19417
1580.4,1.332918,414375,19252
1583.43,1.330494,406354,18985
1586.46,1.334946,398475,18427
1590.49,1.329214,388982,18227
1593.51,1.328832,380708,17855
1596.53,1.324843,372727,17642
1599.54,1.329292,365060,17103
1602.55,1.326213,357543,16870
1605.55,1.328412,349495,16407
1608.55,1.313497,341154,16575
1612.54,1.328020,330877,15547
1615.53,1.316005,322904,15598
1618.51,1.321714,315116,15023
1621.49,1.323658,307217,14581
1624.47,1.306812,299481,14776
1627.44,1.340101,292112,13349
1630.41,1.311742,284245,13866
1634.36,1.320207,274079,13112
1637.32,1.319233,266916,12798
1640.27,1.327431,259612,12215
1643.22,1.327784,251804,11838
1646.16,1.310714,244348,11948
1649.1,1.327475,236703,11136
1652.04,1.318529,228171,10958
1655.95,1.328854,215408,10102
1658.88,1.312707,204937,9975
1661.8,1.308402,193395,9507
1664.72,1.298688,179728,9035
1667.63,1.323865,163642,7763
1670.54,1.331750,146312,6816
1673.44,1.302625,128451,6399
1677.31,1.354067,105080,4650
1680.21,1.334561,88906,4115
1683.1,1.291261,75033,3837
1685.99,1.264714,63520,3453
1688.87,1.350238,53714,2398
1691.75,1.311749,45653,2227
1694.62,1.289175,39137,2011
1697.49,1.326665,33776,1592
1701.31,1.328304,28175,1323