File: samples/unknown/Column 1_078067_20241121_164351.csv
Method:,Column 1,,
Host Date-Time:,21/11/24 @ 16:43:51,,
Header Version:,1,,
System Temp (C):,31.31,,
Detector Temp (C):,26.24,,
Humidity (%):,5.27,,
Lamp PD:,3809,,
Shift Vector Coefficients:,-10.5391,0.0761263,-0.000134223,,
Pixel to Wavelength Coefficients:,1775.68,-0.916766,-0.000235065,,
Serial Number:,5510004,,
Scan Config Name:,Column 1,,
Scan Config Type:,Slew,,
Section 1,,
Start wavelength (nm):,900,,
End wavelength (nm):,1700,,
Pattern Pixel Width (nm):,   7.03,,,,
Exposure (ms):,  0.635,,,,
Digital Resolution:,228,,
Num Repeats:,6,,
PGA Gain:,64,,
Total Measurement Time in sec:,  2.707,,
Wavelength (nm),Absorbance (AU),Reference Signal (unitless),Sample Signal (unitless)
901.51,1.313394,108485,5272
905.376,1.336315,121306,5592
909.237,1.318528,131909,6335
913.095,1.302910,143299,7134
916.948,1.315208,156982,7597
922.079,1.297944,179937,9061
925.923,1.324537,200504,9497
929.762,1.314701,222660,10788
933.597,1.327374,244426,11502
937.427,1.311305,263972,12890
941.254,1.309911,281845,13807
945.076,1.306397,297271,14681
950.165,1.305964,315605,15602
953.978,1.317915,328029,15776
957.786,1.315966,340470,16448
961.59,1.303970,352317,17497
965.389,1.311853,363056,17706
969.185,1.309897,373162,18281
972.976,1.312219,382632,18645
976.763,1.307046,391202,19291
981.806,1.313436,400190,19446
985.583,1.300184,406088,20344
989.355,1.316510,410162,19790
993.124,1.310589,412868,20194
996.888,1.313648,414263,20120
1000.65,1.308193,415476,20434
1004.4,1.311503,415479,20279
1009.41,1.301972,414358,20673
1013.15,1.303501,412923,20529
1016.89,1.314803,411526,19934
1020.63,1.311372,409066,19972
1024.36,1.306939,406777,20064
1028.09,1.320586,404427,19331
1031.82,1.307816,401911,19784
1036.78,1.310028,398410,19512
1040.49,1.308754,396204,19461
1044.2,1.308178,394236,19390
1047.91,1.307798,392042,19299
1051.61,1.307906,389823,19185
1055.31,1.315305,388234,18784
1059,1.315706,387599,18736
1063.92,1.318058,386688,18591
1067.61,1.310086,386598,18931
1071.29,1.316037,387377,18711
1074.96,1.311799,388536,18951
1078.63,1.318249,389855,18735
1082.3,1.306993,391215,19294
1085.96,1.319803,393215,18829
1090.84,1.312209,396270,19310
1094.49,1.311658,398760,19456
1098.14,1.321370,400987,19132
1101.79,1.307993,403477,19853
1105.43,1.319909,406116,19442
1109.06,1.305916,407701,20157
1112.7,1.314546,409859,19865
1117.53,1.331235,412494,19239
1121.15,1.310756,414909,20286
1124.77,1.313466,416559,20240
1128.38,1.316012,418532,20217
1131.99,1.314810,419956,20342
1135.6,1.320853,421946,20156
1139.2,1.317784,423881,20392
1143.99,1.319092,426786,20470
1147.58,1.312818,428617,20857
1151.17,1.318509,431169,20708
1154.75,1.316258,433579,20932
1158.33,1.324956,436264,20644
1161.91,1.320541,439132,20992
1165.48,1.317649,442389,21289
1169.04,1.326202,446101,21049
1173.79,1.318630,451929,21699
1177.34,1.314794,456026,22090
1180.9,1.322238,461306,21966
1184.44,1.319776,467657,22395
1187.99,1.319533,473969,22710
1191.52,1.317010,479856,23126
1195.06,1.320300,487372,23311
1199.76,1.321655,497347,23714
1203.29,1.328262,504311,23683
1206.81,1.326402,511507,24124
1210.33,1.323222,519078,24661
1213.84,1.318395,527163,25325
1217.35,1.324418,534208,25310
1220.85,1.325569,540472,25539
1225.51,1.324799,549929,26032
1229.01,1.325895,556888,26295
1232.5,1.328091,562180,26411
1235.98,1.323336,567975,26977
1239.46,1.317393,574815,27678
1242.94,1.324345,582782,27616
1246.41,1.324562,591476,28014
1251.03,1.326829,604016,28459
1254.5,1.327127,612289,28829
1257.96,1.334730,619125,28645
1261.41,1.325040,624551,29548
1264.86,1.324633,629900,29829
1268.31,1.327541,634345,29839
1271.75,1.327251,638574,30058
1276.33,1.325628,642499,30356
1279.76,1.328740,645905,30299
1283.19,1.329264,648307,30375
1286.61,1.333161,650446,30203
1290.03,1.326957,652132,30717
1293.44,1.331572,653907,30475
1296.85,1.331925,655963,30546
1301.39,1.329951,657349,30750
1304.8,1.335947,657558,30338
1308.19,1.332461,658515,30627
1311.58,1.328194,658804,30943
1314.97,1.329637,659011,30850
1318.36,1.335460,658272,30405
1321.73,1.331102,658022,30700
1326.23,1.340007,657870,30070
1329.6,1.330127,656482,30697
1332.97,1.335094,654926,30276
1336.33,1.332037,653727,30434
1339.69,1.329127,652497,30581
1343.04,1.336415,649913,29953
1346.39,1.333481,647671,30052
1349.73,1.330183,645338,30172
1354.18,1.332192,641175,29839
1357.52,1.331546,638376,29753
1360.85,1.330348,635805,29715
1364.17,1.336185,633413,29208
1367.49,1.337874,631026,28985
1370.81,1.335461,628050,29009
1374.12,1.330848,625034,29178
1378.54,1.323866,620272,29425
1381.84,1.322956,616892,29326
1385.14,1.328955,613613,28770
1388.43,1.327928,611526,28740
1391.72,1.327950,610663,28698
1395.01,1.330784,610634,28510
1398.29,1.328006,611700,28743
1402.66,1.326676,614051,28942
1405.93,1.335031,616268,28493
1409.2,1.330939,617795,28834
1412.46,1.331064,618872,28876
1415.72,1.331576,619795,28885
1418.98,1.334781,620495,28705
1422.23,1.328424,621087,29156
1426.56,1.332171,621375,28919
1429.8,1.338952,621616,28482
1433.04,1.333208,622129,28885
1436.27,1.332426,621526,28909
1439.5,1.334654,621113,28742
1442.72,1.333297,620921,28823
1445.94,1.331337,620270,28923
1450.23,1.333091,618860,28741
1453.44,1.338131,617697,28356
1456.64,1.336601,616264,28390
1459.85,1.338612,614413,28174
1463.04,1.333116,612307,28435
1466.24,1.330858,610032,28477
1469.43,1.331174,607345,28331
1473.67,1.336731,603789,27807
1476.85,1.346882,601175,27047
1480.02,1.332700,597737,27785
1483.19,1.340463,594479,27144
1486.36,1.338901,591232,27093
1489.52,1.340907,587853,26814
1492.68,1.352283,583875,25944
1496.89,1.333921,578062,26795
1500.03,1.335049,574159,26545
1503.18,1.340118,570285,26060
1506.32,1.336299,565444,26067
1509.45,1.336489,560571,25831
1512.58,1.340324,555821,25387
1515.71,1.339613,550344,25178
1519.87,1.343029,543983,24692
1522.99,1.332504,538764,25055
1526.1,1.340025,533692,24393
1529.21,1.341077,527902,24070
1532.32,1.336190,521886,24065
1535.42,1.347011,515888,23203
1538.51,1.342671,509987,23168
1541.6,1.334535,503936,23326
1545.72,1.338426,494694,22694
1548.8,1.339848,488378,22331
1551.88,1.338464,481832,22102
1554.95,1.342149,474989,21604
1558.02,1.340069,467818,21380
1561.08,1.337090,460730,21201
1564.15,1.342046,454170,20662
1568.22,1.338612,444181,20368
1571.27,1.332719,436947,20310
1574.32,1.332923,429598,19959
1577.36,1.335118,422039,19509
1580.4,1.333708,414375,19217
1583.43,1.325151,406354,19220
1586.46,1.333887,398475,18472
1590.49,1.335164,388982,17979
1593.51,1.329538,380708,17826
1596.53,1.325262,372727,17625
1599.54,1.330818,365060,17043
1602.55,1.329002,357543,16762
1605.55,1.331893,349495,16276
1608.55,1.330299,341154,15946
1612.54,1.325986,330877,15620
1615.53,1.328862,322904,15143
1618.51,1.326013,315116,14875
1621.49,1.322557,307217,14618
1624.47,1.317223,299481,14426
1627.44,1.313200,292112,14202
1630.41,1.324035,284245,13479
1634.36,1.322332,274079,13048
1637.32,1.337636,266916,12267
1640.27,1.325268,259612,12276
1643.22,1.319283,251804,12072
1646.16,1.326971,244348,11509
1649.1,1.321702,236703,11285
1652.04,1.325722,228171,10778
1655.95,1.304040,215408,10696
1658.88,1.318669,204937,9839
1661.8,1.324029,193395,9171
1664.72,1.319713,179728,8608
1667.63,1.323921,163642,7762
1670.54,1.309943,146312,7167
1673.44,1.290182,128451,6585
1677.31,1.287681,105080,5418
1680.21,1.290443,88906,4555
1683.1,1.271134,75033,4019
1685.99,1.297354,63520,3203
1688.87,1.375787,53714,2261
1691.75,1.303443,45653,2270
1694.62,1.252540,39137,2188
1697.49,1.355714,33776,1489
1701.31,1.287300,28175,1454