File: samples/unknown/Column 1_078062_20241121_164336.csv
Method:,Column 1,,
Host Date-Time:,21/11/24 @ 16:43:36,,
Header Version:,1,,
System Temp (C):,31.28,,
Detector Temp (C):,26.01,,
Humidity (%):,5.37,,
Lamp PD:,3809,,
Shift Vector Coefficients:,-10.5391,0.0761263,-0.000134223,,
Pixel to Wavelength Coefficients:,1775.68,-0.916766,-0.000235065,,
Serial Number:,5510004,,
Scan Config Name:,Column 1,,
Scan Config Type:,Slew,,
Section 1,,
Start wavelength (nm):,900,,
End wavelength (nm):,1700,,
Pattern Pixel Width (nm):,   7.03,,,,
Exposure (ms):,  0.635,,,,
Digital Resolution:,228,,
Num Repeats:,6,,
PGA Gain:,64,,
Total Measurement Time in sec:,  2.708,,
Wavelength (nm),Absorbance (AU),Reference Signal (unitless),Sample Signal (unitless)
901.51,1.322299,108485,5165
905.376,1.333991,121306,5622
909.237,1.316135,131909,6370
913.095,1.314446,143299,6947
916.948,1.298388,156982,7897
922.079,1.319512,179937,8622
925.923,1.299741,200504,10055
929.762,1.304831,222660,11036
933.597,1.318627,244426,11736
937.427,1.320671,263972,12615
941.254,1.306434,281845,13918
945.076,1.321721,297271,14172
950.165,1.320081,315605,15103
953.978,1.318825,328029,15743
957.786,1.314542,340470,16502
961.59,1.311936,352317,17179
965.389,1.306369,363056,17931
969.185,1.299058,373162,18743
972.976,1.305470,382632,18937
976.763,1.307114,391202,19288
981.806,1.314980,400190,19377
985.583,1.312548,406088,19773
989.355,1.313775,410162,19915
993.124,1.314065,412868,20033
996.888,1.312721,414263,20163
1000.65,1.301653,415476,20744
1004.4,1.306456,415479,20516
1009.41,1.310908,414358,20252
1013.15,1.309423,412923,20251
1016.89,1.304618,411526,20407
1020.63,1.305304,409066,20253
1024.36,1.304564,406777,20174
1028.09,1.308380,404427,19882
1031.82,1.309333,401911,19715
1036.78,1.318479,398410,19136
1040.49,1.302176,396204,19758
1044.2,1.311010,394236,19264
1047.91,1.310348,392042,19186
1051.61,1.309857,389823,19099
1055.31,1.305747,388234,19202
1059,1.303659,387599,19263
1063.92,1.316309,386688,18666
1067.61,1.308163,386598,19015
1071.29,1.321103,387377,18494
1074.96,1.314051,388536,18853
1078.63,1.312630,389855,18979
1082.3,1.307466,391215,19273
1085.96,1.304885,393215,19487
1090.84,1.317504,396270,19076
1094.49,1.308655,398760,19591
1098.14,1.319264,400987,19225
1101.79,1.317838,403477,19408
1105.43,1.318571,406116,19502
1109.06,1.317289,407701,19636
1112.7,1.314633,409859,19861
1117.53,1.318555,412494,19809
1121.15,1.311678,414909,20243
1124.77,1.317216,416559,20066
1128.38,1.326030,418532,19756
1131.99,1.318498,419956,20170
1135.6,1.319626,421946,20213
1139.2,1.316253,423881,20464
1143.99,1.315774,426786,20627
1147.58,1.325473,428617,20258
1151.17,1.318111,431169,20727
1154.75,1.312045,433579,21136
1158.33,1.324514,436264,20665
1161.91,1.315379,439132,21243
1165.48,1.321378,442389,21107
1169.04,1.308494,446101,21925
1173.79,1.319131,451929,21674
1177.34,1.319379,456026,21858
1180.9,1.320718,461306,22043
1184.44,1.313634,467657,22714
1187.99,1.324244,473969,22465
1191.52,1.315529,479856,23205
1195.06,1.321363,487372,23254
1199.76,1.323453,497347,23616
1203.29,1.320609,504311,24104
1206.81,1.321675,511507,24388
1210.33,1.325429,519078,24536
1213.84,1.325014,527163,24942
1217.35,1.327328,534208,25141
1220.85,1.319222,540472,25915
1225.51,1.324899,549929,26026
1229.01,1.323030,556888,26469
1232.5,1.325173,562180,26589
1235.98,1.320751,567975,27138
1239.46,1.333326,574815,26681
1242.94,1.324345,582782,27616
1246.41,1.322258,591476,28163
1251.03,1.328005,604016,28382
1254.5,1.327338,612289,28815
1257.96,1.329695,619125,28979
1261.41,1.326586,624551,29443
1264.86,1.325872,629900,29744
1268.31,1.328955,634345,29742
1271.75,1.322666,638574,30377
1276.33,1.323573,642499,30500
1279.76,1.329357,645905,30256
1283.19,1.331256,648307,30236
1286.61,1.325098,650446,30769
1290.03,1.330891,652132,30440
1293.44,1.330192,653907,30572
1296.85,1.330194,655963,30668
1301.39,1.328203,657349,30874
1304.8,1.336778,657558,30280
1308.19,1.328298,658515,30922
1311.58,1.329318,658804,30863
1314.97,1.328822,659011,30908
1318.36,1.330348,658272,30765
1321.73,1.332391,658022,30609
1326.23,1.331610,657870,30657
1329.6,1.336296,656482,30264
1332.97,1.339057,654926,30001
1336.33,1.334111,653727,30289
1339.69,1.332491,652497,30345
1343.04,1.328669,649913,30492
1346.39,1.331290,647671,30204
1349.73,1.337104,645338,29695
1354.18,1.325950,641175,30271
1357.52,1.331794,638376,29736
1360.85,1.327029,635805,29943
1364.17,1.329823,633413,29639
1367.49,1.334798,631026,29191
1370.81,1.329160,628050,29433
1374.12,1.329793,625034,29249
1378.54,1.319241,620272,29740
1381.84,1.336967,616892,28395
1385.14,1.326261,613613,28949
1388.43,1.327339,611526,28779
1391.72,1.326469,610663,28796
1395.01,1.329081,610634,28622
1398.29,1.330446,611700,28582
1402.66,1.331140,614051,28646
1405.93,1.330679,616268,28780
1409.2,1.336381,617795,28475
1412.46,1.332646,618872,28771
1415.72,1.332298,619795,28837
1418.98,1.326479,620495,29259
1422.23,1.333579,621087,28812
1426.56,1.331450,621375,28967
1429.8,1.328973,621616,29144
1433.04,1.332007,622129,28965
1436.27,1.327853,621526,29215
1439.5,1.333386,621113,28826
1442.72,1.338191,620921,28500
1445.94,1.332345,620270,28856
1450.23,1.336930,618860,28488
1453.44,1.338023,617697,28363
1456.64,1.332324,616264,28671
1459.85,1.338365,614413,28190
1463.04,1.336813,612307,28194
1466.24,1.334165,610032,28261
1469.43,1.327328,607345,28583
1473.67,1.337497,603789,27758
1476.85,1.332014,601175,27989
1480.02,1.345549,597737,26975
1483.19,1.338276,594479,27281
1486.36,1.333643,591232,27423
1489.52,1.344452,587853,26596
1492.68,1.340786,583875,26640
1496.89,1.338630,578062,26506
1500.03,1.337692,574159,26384
1503.18,1.338056,570285,26184
1506.32,1.339409,565444,25881
1509.45,1.337668,560571,25761
1512.58,1.335560,555821,25667
1515.71,1.335749,550344,25403
1519.87,1.338115,543983,24973
1522.99,1.340976,538764,24571
1526.1,1.335104,533692,24671
1529.21,1.339277,527902,24170
1532.32,1.335396,521886,24109
1535.42,1.339827,515888,23590
1538.51,1.339235,509987,23352
1541.6,1.337037,503936,23192
1545.72,1.332854,494694,22987
1548.8,1.338179,488378,22417
1551.88,1.337738,481832,22139
1554.95,1.341948,474989,21614
1558.02,1.337942,467818,21485
1561.08,1.340710,460730,21025
1564.15,1.337904,454170,20860
1568.22,1.334220,444181,20575
1571.27,1.337579,436947,20084
1574.32,1.340031,429598,19635
1577.36,1.337573,422039,19399
1580.4,1.333166,414375,19241
1583.43,1.331410,406354,18945
1586.46,1.336552,398475,18359
1590.49,1.331987,388982,18111
1593.51,1.337877,380708,17487
1596.53,1.328105,372727,17510
1599.54,1.334323,365060,16906
1602.55,1.329365,357543,16748
1605.55,1.332507,349495,16253
1608.55,1.331171,341154,15914
1612.54,1.326570,330877,15599
1615.53,1.336529,322904,14878
1618.51,1.336863,315116,14508
1621.49,1.325150,307217,14531
1624.47,1.329931,299481,14010
1627.44,1.326647,292112,13769
1630.41,1.329123,284245,13322
1634.36,1.329581,274079,12832
1637.32,1.319946,266916,12777
1640.27,1.323890,259612,12315
1643.22,1.318277,251804,12100
1646.16,1.315722,244348,11811
1649.1,1.317070,236703,11406
1652.04,1.311804,228171,11129
1655.95,1.327310,215408,10138
1658.88,1.322660,204937,9749
1661.8,1.317262,193395,9315
1664.72,1.329871,179728,8409
1667.63,1.318638,163642,7857
1670.54,1.322546,146312,6962
1673.44,1.328853,128451,6024
1677.31,1.357348,105080,4615
1680.21,1.339017,88906,4073
1683.1,1.362035,75033,3260
1685.99,1.392471,63520,2573
1688.87,1.288864,53714,2762
1691.75,1.312335,45653,2224
1694.62,1.465483,39137,1340
1697.49,1.283589,33776,1758
1701.31,1.406109,28175,1106