File: samples/unknown/Column 1_078084_20241121_164441.csv
Method:,Column 1,,
Host Date-Time:,21/11/24 @ 16:44:41,,
Header Version:,1,,
System Temp (C):,31.88,,
Detector Temp (C):,26.81,,
Humidity (%):,4.69,,
Lamp PD:,3808,,
Shift Vector Coefficients:,-10.5391,0.0761263,-0.000134223,,
Pixel to Wavelength Coefficients:,1775.68,-0.916766,-0.000235065,,
Serial Number:,5510004,,
Scan Config Name:,Column 1,,
Scan Config Type:,Slew,,
Section 1,,
Start wavelength (nm):,900,,
End wavelength (nm):,1700,,
Pattern Pixel Width (nm):,   7.03,,,,
Exposure (ms):,  0.635,,,,
Digital Resolution:,228,,
Num Repeats:,6,,
PGA Gain:,64,,
Total Measurement Time in sec:,  2.724,,
Wavelength (nm),Absorbance (AU),Reference Signal (unitless),Sample Signal (unitless)
901.51,1.330276,108485,5071
905.376,1.360345,121306,5291
909.237,1.334589,131909,6105
913.095,1.298730,143299,7203
916.948,1.326325,156982,7405
922.079,1.317502,179937,8662
925.923,1.311740,200504,9781
929.762,1.316557,222660,10742
933.597,1.309582,244426,11983
937.427,1.302665,263972,13149
941.254,1.306465,281845,13917
945.076,1.321844,297271,14168
950.165,1.312583,315605,15366
953.978,1.316184,328029,15839
957.786,1.309935,340470,16678
961.59,1.316664,352317,16993
965.389,1.307558,363056,17882
969.185,1.306891,373162,18408
972.976,1.314320,382632,18555
976.763,1.316905,391202,18858
981.806,1.311542,400190,19531
985.583,1.316830,406088,19579
989.355,1.306337,410162,20259
993.124,1.309772,412868,20232
996.888,1.307305,414263,20416
1000.65,1.315307,415476,20102
1004.4,1.312231,415479,20245
1009.41,1.320316,414358,19818
1013.15,1.309230,412923,20260
1016.89,1.306602,411526,20314
1020.63,1.310351,409066,20019
1024.36,1.316414,406777,19631
1028.09,1.317006,404427,19491
1031.82,1.310679,401911,19654
1036.78,1.308806,398410,19567
1040.49,1.304910,396204,19634
1044.2,1.299310,394236,19790
1047.91,1.306988,392042,19335
1051.61,1.315027,389823,18873
1055.31,1.311828,388234,18935
1059,1.306078,387599,19156
1063.92,1.308264,386688,19015
1067.61,1.314004,386598,18761
1071.29,1.316873,387377,18675
1074.96,1.319802,388536,18605
1078.63,1.317670,389855,18760
1082.3,1.307106,391215,19289
1085.96,1.312280,393215,19158
1090.84,1.318530,396270,19031
1094.49,1.311881,398760,19446
1098.14,1.319219,400987,19227
1101.79,1.315806,403477,19499
1105.43,1.312029,406116,19798
1109.06,1.318840,407701,19566
1112.7,1.318676,409859,19677
1117.53,1.319763,412494,19754
1121.15,1.324391,414909,19659
1124.77,1.316005,416559,20122
1128.38,1.317217,418532,20161
1131.99,1.319166,419956,20139
1135.6,1.319562,421946,20216
1139.2,1.320562,423881,20262
1143.99,1.321091,426786,20376
1147.58,1.330063,428617,20045
1151.17,1.324953,431169,20403
1154.75,1.320113,433579,20747
1158.33,1.317696,436264,20992
1161.91,1.319343,439132,21050
1165.48,1.321748,442389,21089
1169.04,1.327524,446101,20985
1173.79,1.315023,451929,21880
1177.34,1.327360,456026,21460
1180.9,1.313857,461306,22394
1184.44,1.325260,467657,22114
1187.99,1.323047,473969,22527
1191.52,1.316579,479856,23149
1195.06,1.317792,487372,23446
1199.76,1.318025,497347,23913
1203.29,1.321927,504311,24031
1206.81,1.324516,511507,24229
1210.33,1.325482,519078,24533
1213.84,1.321372,527163,25152
1217.35,1.320285,534208,25552
1220.85,1.323347,540472,25670
1225.51,1.325952,549929,25963
1229.01,1.328147,556888,26159
1232.5,1.323608,562180,26685
1235.98,1.333796,567975,26335
1239.46,1.328357,574815,26988
1242.94,1.324833,582782,27585
1246.41,1.325260,591476,27969
1251.03,1.321867,604016,28786
1254.5,1.322974,612289,29106
1257.96,1.333186,619125,28747
1261.41,1.327856,624551,29357
1264.86,1.319840,629900,30160
1268.31,1.330828,634345,29614
1271.75,1.331024,638574,29798
1276.33,1.327679,642499,30213
1279.76,1.330737,645905,30160
1283.19,1.328907,648307,30400
1286.61,1.334068,650446,30140
1290.03,1.332163,652132,30351
1293.44,1.333214,653907,30360
1296.85,1.331669,655963,30564
1301.39,1.332884,657349,30543
1304.8,1.338287,657558,30175
1308.19,1.331696,658515,30681
1311.58,1.332567,658804,30633
1314.97,1.327741,659011,30985
1318.36,1.329982,658272,30791
1321.73,1.329704,658022,30799
1326.23,1.333228,657870,30543
1329.6,1.325161,656482,31050
1332.97,1.337611,654926,30101
1336.33,1.333424,653727,30337
1339.69,1.331676,652497,30402
1343.04,1.333251,649913,30172
1346.39,1.335669,647671,29901
1349.73,1.333187,645338,29964
1354.18,1.332542,641175,29815
1357.52,1.328259,638376,29979
1360.85,1.329603,635805,29766
1364.17,1.330880,633413,29567
1367.49,1.328492,631026,29618
1370.81,1.327099,628050,29573
1374.12,1.329407,625034,29275
1378.54,1.327155,620272,29203
1381.84,1.330786,616892,28802
1385.14,1.328668,613613,28789
1388.43,1.327264,611526,28784
1391.72,1.329831,610663,28574
1395.01,1.325756,610634,28842
1398.29,1.333128,611700,28406
1402.66,1.333558,614051,28487
1405.93,1.328481,616268,28926
1409.2,1.326907,617795,29103
1412.46,1.329143,618872,29004
1415.72,1.333489,619795,28758
1418.98,1.335887,620495,28632
1422.23,1.338628,621087,28479
1426.56,1.331825,621375,28942
1429.8,1.340143,621616,28404
1433.04,1.334021,622129,28831
1436.27,1.333419,621526,28843
1439.5,1.329995,621113,29052
1442.72,1.330983,620921,28977
1445.94,1.333641,620270,28770
1450.23,1.333605,618860,28707
1453.44,1.338652,617697,28322
1456.64,1.336923,616264,28369
1459.85,1.332778,614413,28555
1463.04,1.334370,612307,28353
1466.24,1.334642,610032,28230
1469.43,1.341787,607345,27647
1473.67,1.336466,603789,27824
1476.85,1.335206,601175,27784
1480.02,1.336909,597737,27517
1483.19,1.338515,594479,27266
1486.36,1.349940,591232,26413
1489.52,1.338468,587853,26965
1492.68,1.336213,583875,26922
1496.89,1.340996,578062,26362
1500.03,1.333808,574159,26621
1503.18,1.342910,570285,25893
1506.32,1.340669,565444,25806
1509.45,1.338562,560571,25708
1512.58,1.336271,555821,25625
1515.71,1.342486,550344,25012
1519.87,1.337263,543983,25022
1522.99,1.334694,538764,24929
1526.1,1.333260,533692,24776
1529.21,1.331495,527902,24607
1532.32,1.345234,521886,23569
1535.42,1.344287,515888,23349
1538.51,1.344775,509987,23056
1541.6,1.337506,503936,23167
1545.72,1.345215,494694,22342
1548.8,1.340510,488378,22297
1551.88,1.341639,481832,21941
1554.95,1.331722,474989,22129
1558.02,1.340333,467818,21367
1561.08,1.335046,460730,21301
1564.15,1.336761,454170,20915
1568.22,1.342854,444181,20170
1571.27,1.329927,436947,20441
1574.32,1.334515,429598,19886
1577.36,1.339930,422039,19294
1580.4,1.335838,414375,19123
1583.43,1.338692,406354,18630
1586.46,1.335583,398475,18400
1590.49,1.342939,388982,17660
1593.51,1.335301,380708,17591
1596.53,1.325286,372727,17624
1599.54,1.332018,365060,16996
1602.55,1.336160,357543,16488
1605.55,1.331147,349495,16304
1608.55,1.339297,341154,15619
1612.54,1.320186,330877,15830
1615.53,1.341136,322904,14721
1618.51,1.326569,315116,14856
1621.49,1.331169,307217,14331
1624.47,1.322341,299481,14257
1627.44,1.323692,292112,13863
1630.41,1.329711,284245,13304
1634.36,1.325103,274079,12965
1637.32,1.334110,266916,12367
1640.27,1.319574,259612,12438
1643.22,1.324459,251804,11929
1646.16,1.317417,244348,11765
1649.1,1.317147,236703,11404
1652.04,1.335502,228171,10538
1655.95,1.330448,215408,10065
1658.88,1.325745,204937,9680
1661.8,1.314520,193395,9374
1664.72,1.304543,179728,8914
1667.63,1.307991,163642,8052
1670.54,1.332516,146312,6804
1673.44,1.330297,128451,6004
1677.31,1.310557,105080,5140
1680.21,1.284853,88906,4614
1683.1,1.310823,75033,3668
1685.99,1.397052,63520,2546
1688.87,1.268739,53714,2893
1691.75,1.304018,45653,2267
1694.62,1.338039,39137,1797
1697.49,1.378466,33776,1413
1701.31,1.405324,28175,1108