File: samples/unknown/Column 1_078076_20241121_164417.csv
Method:,Column 1,,
Host Date-Time:,21/11/24 @ 16:44:17,,
Header Version:,1,,
System Temp (C):,31.67,,
Detector Temp (C):,26.5,,
Humidity (%):,5.07,,
Lamp PD:,3808,,
Shift Vector Coefficients:,-10.5391,0.0761263,-0.000134223,,
Pixel to Wavelength Coefficients:,1775.68,-0.916766,-0.000235065,,
Serial Number:,5510004,,
Scan Config Name:,Column 1,,
Scan Config Type:,Slew,,
Section 1,,
Start wavelength (nm):,900,,
End wavelength (nm):,1700,,
Pattern Pixel Width (nm):,   7.03,,,,
Exposure (ms):,  0.635,,,,
Digital Resolution:,228,,
Num Repeats:,6,,
PGA Gain:,64,,
Total Measurement Time in sec:,  2.704,,
Wavelength (nm),Absorbance (AU),Reference Signal (unitless),Sample Signal (unitless)
901.51,1.300170,108485,5435
905.376,1.289046,121306,6235
909.237,1.298434,131909,6635
913.095,1.318024,143299,6890
916.948,1.308908,156982,7708
922.079,1.300299,179937,9012
925.923,1.314859,200504,9711
929.762,1.319926,222660,10659
933.597,1.337111,244426,11247
937.427,1.306613,263972,13030
941.254,1.307339,281845,13889
945.076,1.318120,297271,14290
950.165,1.316986,315605,15211
953.978,1.306746,328029,16187
957.786,1.296702,340470,17194
961.59,1.316076,352317,17016
965.389,1.309554,363056,17800
969.185,1.307741,373162,18372
972.976,1.314391,382632,18552
976.763,1.307362,391202,19277
981.806,1.306303,400190,19768
985.583,1.301852,406088,20266
989.355,1.314299,410162,19891
993.124,1.303909,412868,20507
996.888,1.310658,414263,20259
1000.65,1.294017,415476,21112
1004.4,1.310775,415479,20313
1009.41,1.300651,414358,20736
1013.15,1.308951,412923,20273
1016.89,1.307008,411526,20295
1020.63,1.306593,409066,20193
1024.36,1.315045,406777,19693
1028.09,1.306854,404427,19952
1031.82,1.311719,401911,19607
1036.78,1.311835,398410,19431
1040.49,1.316613,396204,19112
1044.2,1.308313,394236,19384
1047.91,1.306966,392042,19336
1051.61,1.314544,389823,18894
1055.31,1.312586,388234,18902
1059,1.307236,387599,19105
1063.92,1.309110,386688,18978
1067.61,1.312156,386598,18841
1071.29,1.308878,387377,19022
1074.96,1.297530,388536,19584
1078.63,1.312332,389855,18992
1082.3,1.328259,391215,18372
1085.96,1.313847,393215,19089
1090.84,1.313764,396270,19241
1094.49,1.313560,398760,19371
1098.14,1.312228,400987,19539
1101.79,1.313740,403477,19592
1105.43,1.324197,406116,19251
1109.06,1.313523,407701,19807
1112.7,1.319184,409859,19654
1117.53,1.304236,412494,20473
1121.15,1.314584,414909,20108
1124.77,1.317476,416559,20054
1128.38,1.317648,418532,20141
1131.99,1.310815,419956,20530
1135.6,1.321931,421946,20106
1139.2,1.320326,423881,20273
1143.99,1.326517,426786,20123
1147.58,1.321270,428617,20455
1151.17,1.321603,431169,20561
1154.75,1.321350,433579,20688
1158.33,1.315879,436264,21080
1161.91,1.314705,439132,21276
1165.48,1.319018,442389,21222
1169.04,1.311635,446101,21767
1173.79,1.314487,451929,21907
1177.34,1.312461,456026,22209
1180.9,1.315723,461306,22298
1184.44,1.318518,467657,22460
1187.99,1.315460,473969,22924
1191.52,1.315979,479856,23181
1195.06,1.315317,487372,23580
1199.76,1.323306,497347,23624
1203.29,1.315220,504311,24405
1206.81,1.318040,511507,24593
1210.33,1.327523,519078,24418
1213.84,1.316104,527163,25459
1217.35,1.323150,534208,25384
1220.85,1.329035,540472,25336
1225.51,1.322702,549929,26158
1229.01,1.322473,556888,26503
1232.5,1.324896,562180,26606
1235.98,1.320559,567975,27150
1239.46,1.317488,574815,27672
1242.94,1.324739,582782,27591
1246.41,1.326302,591476,27902
1251.03,1.321897,604016,28784
1254.5,1.328062,612289,28767
1257.96,1.324289,619125,29342
1261.41,1.330512,624551,29178
1264.86,1.328802,629900,29544
1268.31,1.329847,634345,29681
1271.75,1.327728,638574,30025
1276.33,1.327765,642499,30207
1279.76,1.331559,645905,30103
1283.19,1.326258,648307,30586
1286.61,1.327774,650446,30580
1290.03,1.327155,652132,30703
1293.44,1.328222,653907,30711
1296.85,1.332736,655963,30489
1301.39,1.332785,657349,30550
1304.8,1.327933,657558,30903
1308.19,1.328481,658515,30909
1311.58,1.329388,658804,30858
1314.97,1.329089,659011,30889
1318.36,1.326470,658272,31041
1321.73,1.331102,658022,30700
1326.23,1.334553,657870,30450
1329.6,1.331714,656482,30585
1332.97,1.324943,654926,30992
1336.33,1.338507,653727,29984
1339.69,1.326945,652497,30735
1343.04,1.335170,649913,30039
1346.39,1.328710,647671,30384
1349.73,1.327543,645338,30356
1354.18,1.331175,641175,29909
1357.52,1.327088,638376,30060
1360.85,1.326956,635805,29948
1364.17,1.327485,633413,29799
1367.49,1.329651,631026,29539
1370.81,1.328010,628050,29511
1374.12,1.329229,625034,29287
1378.54,1.327616,620272,29172
1381.84,1.332206,616892,28708
1385.14,1.329015,613613,28766
1388.43,1.322104,611526,29128
1391.72,1.348940,610663,27344
1395.01,1.330555,610634,28525
1398.29,1.324305,611700,28989
1402.66,1.326406,614051,28960
1405.93,1.330528,616268,28790
1409.2,1.334084,617795,28626
1412.46,1.330433,618872,28918
1415.72,1.334245,619795,28708
1418.98,1.332427,620495,28861
1422.23,1.332164,621087,28906
1426.56,1.329998,621375,29064
1429.8,1.325840,621616,29355
1433.04,1.331452,622129,29002
1436.27,1.335093,621526,28732
1439.5,1.332619,621113,28877
1442.72,1.334988,620921,28711
1445.94,1.333339,620270,28790
1450.23,1.326150,618860,29204
1453.44,1.329968,617697,28894
1456.64,1.327429,616264,28996
1459.85,1.330563,614413,28701
1463.04,1.328558,612307,28735
1466.24,1.335735,610032,28159
1469.43,1.339609,607345,27786
1473.67,1.331068,603789,28172
1476.85,1.328521,601175,28215
1480.02,1.327727,597737,28105
1483.19,1.331688,594479,27698
1486.36,1.330456,591232,27625
1489.52,1.342091,587853,26741
1492.68,1.341324,583875,26607
1496.89,1.339828,578062,26433
1500.03,1.331319,574159,26774
1503.18,1.334768,570285,26383
1506.32,1.338956,565444,25908
1509.45,1.337617,560571,25764
1512.58,1.334023,555821,25758
1515.71,1.337497,550344,25301
1519.87,1.339770,543983,24878
1522.99,1.333963,538764,24971
1526.1,1.338125,533692,24500
1529.21,1.334008,527902,24465
1532.32,1.333724,521886,24202
1535.42,1.341820,515888,23482
1538.51,1.336325,509987,23509
1541.6,1.336813,503936,23204
1545.72,1.335660,494694,22839
1548.8,1.336651,488378,22496
1551.88,1.335234,481832,22267
1554.95,1.334458,474989,21990
1558.02,1.332678,467818,21747
1561.08,1.328852,460730,21607
1564.15,1.331149,454170,21187
1568.22,1.338143,444181,20390
1571.27,1.329396,436947,20466
1574.32,1.329111,429598,20135
1577.36,1.343297,422039,19145
1580.4,1.336497,414375,19094
1583.43,1.330997,406354,18963
1586.46,1.338567,398475,18274
1590.49,1.338827,388982,17828
1593.51,1.330563,380708,17784
1596.53,1.333320,372727,17301
1599.54,1.334375,365060,16904
1602.55,1.327735,357543,16811
1605.55,1.332107,349495,16268
1608.55,1.320257,341154,16319
1612.54,1.319555,330877,15853
1615.53,1.324524,322904,15295
1618.51,1.332425,315116,14657
1621.49,1.331229,307217,14329
1624.47,1.321793,299481,14275
1627.44,1.328480,292112,13711
1630.41,1.336919,284245,13085
1634.36,1.312752,274079,13339
1637.32,1.313803,266916,12959
1640.27,1.311960,259612,12658
1643.22,1.310135,251804,12329
1646.16,1.322093,244348,11639
1649.1,1.327553,236703,11134
1652.04,1.314309,228171,11065
1655.95,1.313274,215408,10471
1658.88,1.305668,204937,10138
1661.8,1.304808,193395,9586
1664.72,1.311121,179728,8780
1667.63,1.311511,163642,7987
1670.54,1.323920,146312,6940
1673.44,1.291437,128451,6566
1677.31,1.300782,105080,5257
1680.21,1.273978,88906,4731
1683.1,1.341989,75033,3414
1685.99,1.327821,63520,2986
1688.87,1.275395,53714,2849
1691.75,1.264143,45653,2485
1694.62,1.260958,39137,2146
1697.49,1.279899,33776,1773
1701.31,1.351913,28175,1253