File: samples/unknown/Column 1_078090_20241121_164459.csv
Method:,Column 1,,
Host Date-Time:,21/11/24 @ 16:44:59,,
Header Version:,1,,
System Temp (C):,32.04,,
Detector Temp (C):,27.1,,
Humidity (%):,4.4,,
Lamp PD:,3807,,
Shift Vector Coefficients:,-10.5391,0.0761263,-0.000134223,,
Pixel to Wavelength Coefficients:,1775.68,-0.916766,-0.000235065,,
Serial Number:,5510004,,
Scan Config Name:,Column 1,,
Scan Config Type:,Slew,,
Section 1,,
Start wavelength (nm):,900,,
End wavelength (nm):,1700,,
Pattern Pixel Width (nm):,   7.03,,,,
Exposure (ms):,  0.635,,,,
Digital Resolution:,228,,
Num Repeats:,6,,
PGA Gain:,64,,
Total Measurement Time in sec:,  2.729,,
Wavelength (nm),Absorbance (AU),Reference Signal (unitless),Sample Signal (unitless)
901.51,1.323057,108485,5156
905.376,1.315244,121306,5870
909.237,1.309572,131909,6467
913.095,1.333487,143299,6649
916.948,1.322878,156982,7464
922.079,1.310391,179937,8805
925.923,1.316293,200504,9679
929.762,1.312613,222660,10840
933.597,1.313039,244426,11888
937.427,1.320086,263972,12632
941.254,1.315037,281845,13645
945.076,1.333588,297271,13790
950.165,1.320167,315605,15100
953.978,1.320926,328029,15667
957.786,1.312128,340470,16594
961.59,1.309893,352317,17260
965.389,1.305861,363056,17952
969.185,1.306207,373162,18437
972.976,1.305654,382632,18929
976.763,1.308128,391202,19243
981.806,1.312031,400190,19509
985.583,1.312284,406088,19785
989.355,1.310560,410162,20063
993.124,1.314282,412868,20023
996.888,1.313109,414263,20145
1000.65,1.306390,415476,20519
1004.4,1.310668,415479,20318
1009.41,1.320667,414358,19802
1013.15,1.311206,412923,20168
1016.89,1.316724,411526,19846
1020.63,1.309592,409066,20054
1024.36,1.316436,406777,19630
1028.09,1.311559,404427,19737
1031.82,1.306566,401911,19841
1036.78,1.317097,398410,19197
1040.49,1.319760,396204,18974
1044.2,1.309277,394236,19341
1047.91,1.320841,392042,18728
1051.61,1.319839,389823,18665
1055.31,1.313483,388234,18863
1059,1.313925,387599,18813
1063.92,1.316659,386688,18651
1067.61,1.308186,386598,19014
1071.29,1.310433,387377,18954
1074.96,1.320129,388536,18591
1078.63,1.313523,389855,18940
1082.3,1.314394,391215,18968
1085.96,1.321721,393215,18746
1090.84,1.314419,396270,19212
1094.49,1.318747,398760,19141
1098.14,1.314613,400987,19432
1101.79,1.317995,403477,19401
1105.43,1.310802,406116,19854
1109.06,1.313567,407701,19805
1112.7,1.316276,409859,19786
1117.53,1.315801,412494,19935
1121.15,1.316445,414909,20022
1124.77,1.321391,416559,19874
1128.38,1.324800,418532,19812
1131.99,1.319986,419956,20101
1135.6,1.318961,421946,20244
1139.2,1.321012,423881,20241
1143.99,1.333063,426786,19822
1147.58,1.317423,428617,20637
1151.17,1.321624,431169,20560
1154.75,1.322085,433579,20653
1158.33,1.320893,436264,20838
1161.91,1.326583,439132,20702
1165.48,1.322759,442389,21040
1169.04,1.326615,446101,21029
1173.79,1.327446,451929,21263
1177.34,1.322370,456026,21708
1180.9,1.315879,461306,22290
1184.44,1.317899,467657,22492
1187.99,1.328010,473969,22271
1191.52,1.318289,479856,23058
1195.06,1.319927,487372,23331
1199.76,1.324927,497347,23536
1203.29,1.326286,504311,23791
1206.81,1.328550,511507,24005
1210.33,1.324174,519078,24607
1213.84,1.333453,527163,24462
1217.35,1.322484,534208,25423
1220.85,1.328059,540472,25393
1225.51,1.324899,549929,26026
1229.01,1.322604,556888,26495
1232.5,1.333584,562180,26079
1235.98,1.323046,567975,26995
1239.46,1.325518,574815,27165
1242.94,1.322384,582782,27741
1246.41,1.322490,591476,28148
1251.03,1.325731,604016,28531
1254.5,1.319748,612289,29323
1257.96,1.325044,619125,29291
1261.41,1.330304,624551,29192
1264.86,1.335244,629900,29109
1268.31,1.329847,634345,29681
1271.75,1.325161,638574,30203
1276.33,1.328772,642499,30137
1279.76,1.326952,645905,30424
1283.19,1.329121,648307,30385
1286.61,1.334356,650446,30120
1290.03,1.334904,652132,30160
1293.44,1.333801,653907,30319
1296.85,1.334263,655963,30382
1301.39,1.330870,657349,30685
1304.8,1.330004,657558,30756
1308.19,1.333455,658515,30557
1311.58,1.340753,658804,30061
1314.97,1.329215,659011,30880
1318.36,1.332485,658272,30614
1321.73,1.333371,658022,30540
1326.23,1.335252,657870,30401
1329.6,1.332539,656482,30527
1332.97,1.327515,654926,30809
1336.33,1.340889,653727,29820
1339.69,1.332477,652497,30346
1343.04,1.333885,649913,30128
1346.39,1.336861,647671,29819
1349.73,1.328717,645338,30274
1354.18,1.332134,641175,29843
1357.52,1.334416,638376,29557
1360.85,1.328540,635805,29839
1364.17,1.323727,633413,30058
1367.49,1.330093,631026,29509
1370.81,1.327966,628050,29514
1374.12,1.333640,625034,28991
1378.54,1.339708,620272,28371
1381.84,1.332766,616892,28671
1385.14,1.332623,613613,28528
1388.43,1.332470,611526,28441
1391.72,1.327103,610663,28754
1395.01,1.331012,610634,28495
1398.29,1.329490,611700,28645
1402.66,1.331156,614051,28645
1405.93,1.328511,616268,28924
1409.2,1.334205,617795,28618
1412.46,1.331832,618872,28825
1415.72,1.335139,619795,28649
1418.98,1.329219,620495,29075
1422.23,1.332134,621087,28908
1426.56,1.331645,621375,28954
1429.8,1.335202,621616,28729
1433.04,1.341496,622129,28339
1436.27,1.340493,621526,28377
1439.5,1.337656,621113,28544
1442.72,1.335321,620921,28689
1445.94,1.332089,620270,28873
1450.23,1.331341,618860,28857
1453.44,1.340234,617697,28219
1456.64,1.333902,616264,28567
1459.85,1.346561,614413,27663
1463.04,1.338619,612307,28077
1466.24,1.338086,610032,28007
1469.43,1.336184,607345,28006
1473.67,1.335016,603789,27917
1476.85,1.336411,601175,27707
1480.02,1.339537,597737,27351
1483.19,1.340175,594479,27162
1486.36,1.341086,591232,26957
1489.52,1.341069,587853,26804
1492.68,1.338153,583875,26802
1496.89,1.339007,578062,26483
1500.03,1.337889,574159,26372
1503.18,1.342574,570285,25913
1506.32,1.343522,565444,25637
1509.45,1.337887,560571,25748
1512.58,1.338923,555821,25469
1515.71,1.341445,550344,25072
1519.87,1.338567,543983,24947
1522.99,1.337841,538764,24749
1526.1,1.346573,533692,24028
1529.21,1.343647,527902,23928
1532.32,1.338905,521886,23915
1535.42,1.341377,515888,23506
1538.51,1.344832,509987,23053
1541.6,1.334740,503936,23315
1545.72,1.334957,494694,22876
1548.8,1.346590,488378,21987
1551.88,1.343782,481832,21833
1554.95,1.340184,474989,21702
1558.02,1.347796,467818,21003
1561.08,1.342947,460730,20917
1564.15,1.334379,454170,21030
1568.22,1.329831,444181,20784
1571.27,1.329078,436947,20481
1574.32,1.338442,429598,19707
1577.36,1.338515,422039,19357
1580.4,1.339738,414375,18952
1583.43,1.338202,406354,18651
1586.46,1.340377,398475,18198
1590.49,1.333019,388982,18068
1593.51,1.332030,380708,17724
1596.53,1.342606,372727,16935
1599.54,1.335610,365060,16856
1602.55,1.333796,357543,16578
1605.55,1.343467,349495,15848
1608.55,1.329918,341154,15960
1612.54,1.326820,330877,15590
1615.53,1.325576,322904,15258
1618.51,1.329355,315116,14761
1621.49,1.337426,307217,14126
1624.47,1.332200,299481,13937
1627.44,1.333835,292112,13543
1630.41,1.339416,284245,13010
1634.36,1.329548,274079,12833
1637.32,1.321649,266916,12727
1640.27,1.336521,259612,11962
1643.22,1.321050,251804,12023
1646.16,1.315355,244348,11821
1649.1,1.330095,236703,11069
1652.04,1.328795,228171,10702
1655.95,1.329112,215408,10096
1658.88,1.315415,204937,9913
1661.8,1.300525,193395,9681
1664.72,1.331683,179728,8374
1667.63,1.311620,163642,7985
1670.54,1.316414,146312,7061
1673.44,1.323479,128451,6099
1677.31,1.322724,105080,4998
1680.21,1.326096,88906,4196
1683.1,1.304126,75033,3725
1685.99,1.333530,63520,2947
1688.87,1.297920,53714,2705
1691.75,1.306130,45653,2256
1694.62,1.331801,39137,1823
1697.49,1.302524,33776,1683
1701.31,1.350183,28175,1258