File: samples/unknown/Column 1_078111_20241121_164600.csv
Method:,Column 1,,
Host Date-Time:,21/11/24 @ 16:46:0,,
Header Version:,1,,
System Temp (C):,32.58,,
Detector Temp (C):,27.93,,
Humidity (%):,4.1,,
Lamp PD:,3807,,
Shift Vector Coefficients:,-10.5391,0.0761263,-0.000134223,,
Pixel to Wavelength Coefficients:,1775.68,-0.916766,-0.000235065,,
Serial Number:,5510004,,
Scan Config Name:,Column 1,,
Scan Config Type:,Slew,,
Section 1,,
Start wavelength (nm):,900,,
End wavelength (nm):,1700,,
Pattern Pixel Width (nm):,   7.03,,,,
Exposure (ms):,  0.635,,,,
Digital Resolution:,228,,
Num Repeats:,6,,
PGA Gain:,64,,
Total Measurement Time in sec:,  2.721,,
Wavelength (nm),Absorbance (AU),Reference Signal (unitless),Sample Signal (unitless)
901.51,1.318615,108485,5209
905.376,1.274862,121306,6442
909.237,1.273999,131909,7019
913.095,1.340599,143299,6541
916.948,1.320268,156982,7509
922.079,1.302716,179937,8962
925.923,1.300346,200504,10041
929.762,1.304909,222660,11034
933.597,1.322530,244426,11631
937.427,1.314382,263972,12799
941.254,1.309534,281845,13819
945.076,1.302744,297271,14805
950.165,1.309541,315605,15474
953.978,1.307847,328029,16146
957.786,1.310326,340470,16663
961.59,1.305437,352317,17438
965.389,1.315672,363056,17551
969.185,1.307765,373162,18371
972.976,1.307378,382632,18854
976.763,1.299016,391202,19651
981.806,1.308815,400190,19654
985.583,1.313251,406088,19741
989.355,1.302921,410162,20419
993.124,1.305585,412868,20428
996.888,1.304000,414263,20572
1000.65,1.318908,415476,19936
1004.4,1.306901,415479,20495
1009.41,1.305855,414358,20489
1013.15,1.308758,412923,20282
1016.89,1.307844,411526,20256
1020.63,1.315721,409066,19773
1024.36,1.309566,406777,19943
1028.09,1.300265,404427,20257
1031.82,1.318528,401911,19302
1036.78,1.311031,398410,19467
1040.49,1.315818,396204,19147
1044.2,1.314041,394236,19130
1047.91,1.312208,392042,19104
1051.61,1.313510,389823,18939
1055.31,1.305047,388234,19233
1059,1.306986,387599,19116
1063.92,1.316100,386688,18675
1067.61,1.314791,386598,18727
1071.29,1.313307,387377,18829
1074.96,1.314304,388536,18842
1078.63,1.313546,389855,18939
1082.3,1.316000,391215,18898
1085.96,1.326942,393215,18522
1090.84,1.315664,396270,19157
1094.49,1.322370,398760,18982
1098.14,1.315015,400987,19414
1101.79,1.317659,403477,19416
1105.43,1.320916,406116,19397
1109.06,1.317532,407701,19625
1112.7,1.308920,409859,20124
1117.53,1.323428,412494,19588
1121.15,1.312752,414909,20193
1124.77,1.312416,416559,20289
1128.38,1.316851,418532,20178
1131.99,1.315259,419956,20321
1135.6,1.316735,421946,20348
1139.2,1.315956,423881,20478
1143.99,1.321817,426786,20342
1147.58,1.314110,428617,20795
1151.17,1.315541,431169,20850
1154.75,1.319527,433579,20775
1158.33,1.312329,436264,21253
1161.91,1.320955,439132,20972
1165.48,1.326865,442389,20842
1169.04,1.319182,446101,21392
1173.79,1.327425,451929,21264
1177.34,1.315404,456026,22059
1180.9,1.314867,461306,22342
1184.44,1.317070,467657,22535
1187.99,1.324476,473969,22453
1191.52,1.319175,479856,23011
1195.06,1.317477,487372,23463
1199.76,1.320612,497347,23771
1203.29,1.322596,504311,23994
1206.81,1.323925,511507,24262
1210.33,1.323715,519078,24633
1213.84,1.321770,527163,25129
1217.35,1.322620,534208,25415
1220.85,1.322097,540472,25744
1225.51,1.323383,549929,26117
1229.01,1.329577,556888,26073
1232.5,1.327351,562180,26456
1235.98,1.325628,567975,26835
1239.46,1.322174,574815,27375
1242.94,1.324943,582782,27578
1246.41,1.327830,591476,27804
1251.03,1.324151,604016,28635
1254.5,1.323601,612289,29064
1257.96,1.325623,619125,29252
1261.41,1.323792,624551,29633
1264.86,1.329435,629900,29501
1268.31,1.324019,634345,30082
1271.75,1.330980,638574,29801
1276.33,1.328571,642499,30151
1279.76,1.330018,645905,30210
1283.19,1.324798,648307,30689
1286.61,1.331325,650446,30331
1290.03,1.326010,652132,30784
1293.44,1.326317,653907,30846
1296.85,1.329331,655963,30729
1301.39,1.332614,657349,30562
1304.8,1.331008,657558,30685
1308.19,1.332206,658515,30645
1311.58,1.328784,658804,30901
1314.97,1.334123,659011,30533
1318.36,1.331069,658272,30714
1321.73,1.333770,658022,30512
1326.23,1.333541,657870,30521
1329.6,1.333464,656482,30462
1332.97,1.329294,654926,30683
1336.33,1.330883,653727,30515
1339.69,1.335695,652497,30122
1343.04,1.328726,649913,30488
1346.39,1.333871,647671,30025
1349.73,1.333289,645338,29957
1354.18,1.330000,641175,29990
1357.52,1.325703,638376,30156
1360.85,1.328351,635805,29852
1364.17,1.328244,633413,29747
1367.49,1.331759,631026,29396
1370.81,1.324872,628050,29725
1374.12,1.328814,625034,29315
1378.54,1.329541,620272,29043
1381.84,1.324321,616892,29234
1385.14,1.331407,613613,28608
1388.43,1.327626,611526,28760
1391.72,1.331140,610663,28488
1395.01,1.327702,610634,28713
1398.29,1.324006,611700,29009
1402.66,1.328164,614051,28843
1405.93,1.332766,616268,28642
1409.2,1.331030,617795,28828
1412.46,1.328694,618872,29034
1415.72,1.328191,619795,29111
1418.98,1.332382,620495,28864
1422.23,1.334333,621087,28762
1426.56,1.330417,621375,29036
1429.8,1.327887,621616,29217
1433.04,1.332577,622129,28927
1436.27,1.333600,621526,28831
1439.5,1.330623,621113,29010
1442.72,1.328398,620921,29150
1445.94,1.339507,620270,28384
1450.23,1.336595,618860,28510
1453.44,1.331821,617697,28771
1456.64,1.333720,616264,28579
1459.85,1.334042,614413,28472
1463.04,1.340898,612307,27930
1466.24,1.331667,610032,28424
1469.43,1.337256,607345,27937
1473.67,1.329652,603789,28264
1476.85,1.335378,601175,27773
1480.02,1.333091,597737,27760
1483.19,1.340575,594479,27137
1486.36,1.337588,591232,27175
1489.52,1.335291,587853,27163
1492.68,1.337829,583875,26822
1496.89,1.341474,578062,26333
1500.03,1.339506,574159,26274
1503.18,1.341052,570285,26004
1506.32,1.339123,565444,25898
1509.45,1.340136,560571,25615
1512.58,1.338344,555821,25503
1515.71,1.334964,550344,25449
1519.87,1.337350,543983,25017
1522.99,1.338104,538764,24734
1526.1,1.334207,533692,24722
1529.21,1.334079,527902,24461
1532.32,1.338125,521886,23958
1535.42,1.328435,515888,24217
1538.51,1.341865,509987,23211
1541.6,1.337599,503936,23162
1545.72,1.340690,494694,22576
1548.8,1.332577,488378,22708
1551.88,1.333618,481832,22350
1554.95,1.336259,474989,21899
1558.02,1.339298,467818,21418
1561.08,1.331250,460730,21488
1564.15,1.341122,454170,20706
1568.22,1.338590,444181,20369
1571.27,1.330543,436947,20412
1574.32,1.341072,429598,19588
1577.36,1.326958,422039,19879
1580.4,1.327782,414375,19481
1583.43,1.338925,406354,18620
1586.46,1.341166,398475,18165
1590.49,1.328262,388982,18267
1593.51,1.336488,380708,17543
1596.53,1.331216,372727,17385
1599.54,1.327746,365060,17164
1602.55,1.337770,357543,16427
1605.55,1.332908,349495,16238
1608.55,1.330926,341154,15923
1612.54,1.335657,330877,15276
1615.53,1.334287,322904,14955
1618.51,1.331005,315116,14705
1621.49,1.321341,307217,14659
1624.47,1.332543,299481,13926
1627.44,1.329368,292112,13683
1630.41,1.325520,284245,13433
1634.36,1.325975,274079,12939
1637.32,1.323598,266916,12670
1640.27,1.322131,259612,12365
1643.22,1.317202,251804,12130
1646.16,1.317232,244348,11770
1649.1,1.325762,236703,11180
1652.04,1.304529,228171,11317
1655.95,1.310421,215408,10540
1658.88,1.315109,204937,9920
1661.8,1.309133,193395,9491
1664.72,1.286927,179728,9283
1667.63,1.287449,163642,8442
1670.54,1.288889,146312,7523
1673.44,1.257908,128451,7093
1677.31,1.258392,105080,5796
1680.21,1.261759,88906,4866
1683.1,1.278545,75033,3951
1685.99,1.308199,63520,3124
1688.87,1.228070,53714,3177
1691.75,1.414945,45653,1756
1694.62,1.242533,39137,2239
1697.49,1.317488,33776,1626
1701.31,1.190270,28175,1818