File: samples/unknown/Column 1_078073_20241121_164408.csv
Method:,Column 1,,
Host Date-Time:,21/11/24 @ 16:44:8,,
Header Version:,1,,
System Temp (C):,31.54,,
Detector Temp (C):,26.45,,
Humidity (%):,5.22,,
Lamp PD:,3808,,
Shift Vector Coefficients:,-10.5391,0.0761263,-0.000134223,,
Pixel to Wavelength Coefficients:,1775.68,-0.916766,-0.000235065,,
Serial Number:,5510004,,
Scan Config Name:,Column 1,,
Scan Config Type:,Slew,,
Section 1,,
Start wavelength (nm):,900,,
End wavelength (nm):,1700,,
Pattern Pixel Width (nm):,   7.03,,,,
Exposure (ms):,  0.635,,,,
Digital Resolution:,228,,
Num Repeats:,6,,
PGA Gain:,64,,
Total Measurement Time in sec:,  2.706,,
Wavelength (nm),Absorbance (AU),Reference Signal (unitless),Sample Signal (unitless)
901.51,1.288735,108485,5580
905.376,1.319407,121306,5814
909.237,1.287702,131909,6801
913.095,1.307192,143299,7064
916.948,1.286615,156982,8114
922.079,1.330789,179937,8401
925.923,1.318407,200504,9632
929.762,1.300757,222660,11140
933.597,1.318775,244426,11732
937.427,1.311473,263972,12885
941.254,1.323489,281845,13382
945.076,1.310469,297271,14544
950.165,1.320887,315605,15075
953.978,1.321537,328029,15645
957.786,1.308817,340470,16721
961.59,1.301742,352317,17587
965.389,1.311338,363056,17727
969.185,1.309114,373162,18314
972.976,1.310035,382632,18739
976.763,1.312233,391202,19062
981.806,1.306391,400190,19764
985.583,1.308090,406088,19977
989.355,1.301583,410162,20482
993.124,1.309665,412868,20237
996.888,1.303367,414263,20602
1000.65,1.305016,415476,20584
1004.4,1.306308,415479,20523
1009.41,1.311144,414358,20241
1013.15,1.308373,412923,20300
1016.89,1.307415,411526,20276
1020.63,1.306464,409066,20199
1024.36,1.309871,406777,19929
1028.09,1.309123,404427,19848
1031.82,1.308365,401911,19759
1036.78,1.304170,398410,19777
1040.49,1.307595,396204,19513
1044.2,1.316751,394236,19011
1047.91,1.305016,392042,19423
1051.61,1.308971,389823,19138
1055.31,1.313990,388234,18841
1059,1.306713,387599,19128
1063.92,1.317754,386688,18604
1067.61,1.319877,386598,18509
1071.29,1.314392,387377,18782
1074.96,1.322353,388536,18496
1078.63,1.314602,389855,18893
1082.3,1.305241,391215,19372
1085.96,1.307837,393215,19355
1090.84,1.311063,396270,19361
1094.49,1.309720,398760,19543
1098.14,1.321461,400987,19128
1101.79,1.317368,403477,19429
1105.43,1.311437,406116,19825
1109.06,1.306627,407701,20124
1112.7,1.314590,409859,19863
1117.53,1.314844,412494,19979
1121.15,1.316966,414909,19998
1124.77,1.324153,416559,19748
1128.38,1.327571,418532,19686
1131.99,1.315430,419956,20313
1135.6,1.309622,421946,20684
1139.2,1.318018,423881,20381
1143.99,1.320410,426786,20408
1147.58,1.313547,428617,20822
1151.17,1.326788,431169,20317
1154.75,1.321833,433579,20665
1158.33,1.320831,436264,20841
1161.91,1.313035,439132,21358
1165.48,1.308505,442389,21742
1169.04,1.310220,446101,21838
1173.79,1.315440,451929,21859
1177.34,1.314381,456026,22111
1180.9,1.319243,461306,22118
1184.44,1.319272,467657,22421
1187.99,1.314759,473969,22961
1191.52,1.319666,479856,22985
1195.06,1.318775,487372,23393
1199.76,1.321398,497347,23728
1203.29,1.322904,504311,23977
1206.81,1.321996,511507,24370
1210.33,1.315248,519078,25118
1213.84,1.319580,527163,25256
1217.35,1.320268,534208,25553
1220.85,1.317316,540472,26029
1225.51,1.325952,549929,25963
1229.01,1.321540,556888,26560
1232.5,1.319687,562180,26927
1235.98,1.321632,567975,27083
1239.46,1.324816,574815,27209
1242.94,1.324597,582782,27600
1246.41,1.313511,591476,28736
1251.03,1.321475,604016,28812
1254.5,1.326044,612289,28901
1257.96,1.323032,619125,29427
1261.41,1.325452,624551,29520
1264.86,1.321109,629900,30072
1268.31,1.326683,634345,29898
1271.75,1.326977,638574,30077
1276.33,1.326588,642499,30289
1279.76,1.331155,645905,30131
1283.19,1.329422,648307,30364
1286.61,1.325762,650446,30722
1290.03,1.327324,652132,30691
1293.44,1.328944,653907,30660
1296.85,1.327624,655963,30850
1301.39,1.330219,657349,30731
1304.8,1.328834,657558,30839
1308.19,1.326364,658515,31060
1311.58,1.330474,658804,30781
1314.97,1.331245,659011,30736
1318.36,1.327941,658272,30936
1321.73,1.329929,658022,30783
1326.23,1.331766,657870,30646
1329.6,1.335709,656482,30305
1332.97,1.333033,654926,30420
1336.33,1.330172,653727,30565
1339.69,1.331505,652497,30414
1343.04,1.331327,649913,30306
1346.39,1.333929,647671,30021
1349.73,1.328502,645338,30289
1354.18,1.329017,641175,30058
1357.52,1.331575,638376,29751
1360.85,1.330027,635805,29737
1364.17,1.326466,633413,29869
1367.49,1.326268,631026,29770
1370.81,1.325092,628050,29710
1374.12,1.328873,625034,29311
1378.54,1.332196,620272,28866
1381.84,1.323727,616892,29274
1385.14,1.334194,613613,28425
1388.43,1.332928,611526,28411
1391.72,1.327390,610663,28735
1395.01,1.326102,610634,28819
1398.29,1.327131,611700,28801
1402.66,1.332051,614051,28586
1405.93,1.326325,616268,29070
1409.2,1.326176,617795,29152
1412.46,1.332767,618872,28763
1415.72,1.329820,619795,29002
1418.98,1.335917,620495,28630
1422.23,1.333579,621087,28812
1426.56,1.337824,621375,28545
1429.8,1.337384,621616,28585
1433.04,1.329078,622129,29161
1436.27,1.334172,621526,28793
1439.5,1.333718,621113,28804
1442.72,1.338542,620921,28477
1445.94,1.329928,620270,29017
1450.23,1.329135,618860,29004
1453.44,1.333348,617697,28670
1456.64,1.334115,616264,28553
1459.85,1.333113,614413,28533
1463.04,1.332979,612307,28444
1466.24,1.333535,610032,28302
1469.43,1.329582,607345,28435
1473.67,1.334332,603789,27961
1476.85,1.335316,601175,27777
1480.02,1.335397,597737,27613
1483.19,1.339903,594479,27179
1486.36,1.340137,591232,27016
1489.52,1.338903,587853,26938
1492.68,1.335632,583875,26958
1496.89,1.340173,578062,26412
1500.03,1.337182,574159,26415
1503.18,1.333108,570285,26484
1506.32,1.337483,565444,25996
1509.45,1.337870,560571,25749
1512.58,1.340255,555821,25391
1515.71,1.337411,550344,25306
1519.87,1.339944,543983,24868
1522.99,1.335863,538764,24862
1526.1,1.336815,533692,24574
1529.21,1.335537,527902,24379
1532.32,1.334892,521886,24137
1535.42,1.336746,515888,23758
1538.51,1.332737,509987,23704
1541.6,1.333661,503936,23373
1545.72,1.334881,494694,22880
1548.8,1.345407,488378,22047
1551.88,1.337620,481832,22145
1554.95,1.334616,474989,21982
1558.02,1.330685,467818,21847
1561.08,1.337049,460730,21203
1564.15,1.335392,454170,20981
1568.22,1.336803,444181,20453
1571.27,1.336693,436947,20125
1574.32,1.335061,429598,19861
1577.36,1.338111,422039,19375
1580.4,1.333550,414375,19224
1583.43,1.332535,406354,18896
1586.46,1.335324,398475,18411
1590.49,1.329954,388982,18196
1593.51,1.330831,380708,17773
1596.53,1.332016,372727,17353
1599.54,1.331073,365060,17033
1602.55,1.332488,357543,16628
1605.55,1.327169,349495,16454
1608.55,1.323060,341154,16214
1612.54,1.331610,330877,15419
1615.53,1.326716,322904,15218
1618.51,1.325197,315116,14903
1621.49,1.320897,307217,14674
1624.47,1.335390,299481,13835
1627.44,1.322910,292112,13888
1630.41,1.325423,284245,13436
1634.36,1.335408,274079,12661
1637.32,1.312197,266916,13007
1640.27,1.320343,259612,12416
1643.22,1.335520,251804,11629
1646.16,1.326104,244348,11532
1649.1,1.307617,236703,11657
1652.04,1.320436,228171,10910
1655.95,1.315603,215408,10415
1658.88,1.316205,204937,9895
1661.8,1.304174,193395,9600
1664.72,1.324788,179728,8508
1667.63,1.313801,163642,7945
1670.54,1.332133,146312,6810
1673.44,1.296158,128451,6495
1677.31,1.299215,105080,5276
1680.21,1.325785,88906,4199
1683.1,1.283076,75033,3910
1685.99,1.306673,63520,3135
1688.87,1.346093,53714,2421
1691.75,1.264843,45653,2481
1694.62,1.268717,39137,2108
1697.49,1.242826,33776,1931
1701.31,1.218904,28175,1702