File: samples/unknown/Column 1_078029_20241121_164200.csv
Method:,Column 1,,
Host Date-Time:,21/11/24 @ 16:42:0,,
Header Version:,1,,
System Temp (C):,30.1,,
Detector Temp (C):,25.08,,
Humidity (%):,6.33,,
Lamp PD:,3812,,
Shift Vector Coefficients:,-10.5391,0.0761263,-0.000134223,,
Pixel to Wavelength Coefficients:,1775.68,-0.916766,-0.000235065,,
Serial Number:,5510004,,
Scan Config Name:,Column 1,,
Scan Config Type:,Slew,,
Section 1,,
Start wavelength (nm):,900,,
End wavelength (nm):,1700,,
Pattern Pixel Width (nm):,   7.03,,,,
Exposure (ms):,  0.635,,,,
Digital Resolution:,228,,
Num Repeats:,6,,
PGA Gain:,64,,
Total Measurement Time in sec:,  2.708,,
Wavelength (nm),Absorbance (AU),Reference Signal (unitless),Sample Signal (unitless)
901.51,1.311586,108485,5294
905.376,1.328694,121306,5691
909.237,1.315590,131909,6378
913.095,1.324245,143299,6792
916.948,1.313155,156982,7633
922.079,1.309160,179937,8830
925.923,1.323806,200504,9513
929.762,1.316476,222660,10744
933.597,1.319368,244426,11716
937.427,1.302104,263972,13166
941.254,1.315897,281845,13618
945.076,1.294982,297271,15072
950.165,1.317043,315605,15209
953.978,1.309410,328029,16088
957.786,1.308479,340470,16734
961.59,1.315489,352317,17039
965.389,1.307679,363056,17877
969.185,1.315228,373162,18058
972.976,1.310104,382632,18736
976.763,1.319840,391202,18731
981.806,1.305535,400190,19803
985.583,1.312613,406088,19770
989.355,1.301074,410162,20506
993.124,1.314282,412868,20023
996.888,1.311882,414263,20202
1000.65,1.306369,415476,20520
1004.4,1.307580,415479,20463
1009.41,1.312304,414358,20187
1013.15,1.314231,412923,20028
1016.89,1.311028,411526,20108
1020.63,1.310134,409066,20029
1024.36,1.307675,406777,20030
1028.09,1.312021,404427,19716
1031.82,1.322528,401911,19125
1036.78,1.315336,398410,19275
1040.49,1.312272,396204,19304
1044.2,1.309165,394236,19346
1047.91,1.298029,392042,19738
1051.61,1.313121,389823,18956
1055.31,1.319487,388234,18604
1059,1.311324,387599,18926
1063.92,1.307443,386688,19051
1067.61,1.321240,386598,18451
1071.29,1.307328,387377,19090
1074.96,1.314005,388536,18855
1078.63,1.318134,389855,18740
1082.3,1.313570,391215,19004
1085.96,1.321559,393215,18753
1090.84,1.316821,396270,19106
1094.49,1.317343,398760,19203
1098.14,1.319897,400987,19197
1101.79,1.309373,403477,19790
1105.43,1.317148,406116,19566
1109.06,1.322540,407701,19400
1112.7,1.322221,409859,19517
1117.53,1.323561,412494,19582
1121.15,1.327206,414909,19532
1124.77,1.313981,416559,20216
1128.38,1.309657,418532,20515
1131.99,1.328297,419956,19720
1135.6,1.319884,421946,20201
1139.2,1.320133,423881,20282
1143.99,1.324837,426786,20201
1147.58,1.327859,428617,20147
1151.17,1.326425,431169,20334
1154.75,1.320888,433579,20710
1158.33,1.328589,436264,20472
1161.91,1.311391,439132,21439
1165.48,1.317139,442389,21314
1169.04,1.318107,446101,21445
1173.79,1.323137,451929,21475
1177.34,1.316646,456026,21996
1180.9,1.320581,461306,22050
1184.44,1.325378,467657,22108
1187.99,1.322931,473969,22533
1191.52,1.321067,479856,22911
1195.06,1.323985,487372,23114
1199.76,1.326535,497347,23449
1203.29,1.327254,504311,23738
1206.81,1.322513,511507,24341
1210.33,1.336127,519078,23939
1213.84,1.325501,527163,24914
1217.35,1.327933,534208,25106
1220.85,1.326029,540472,25512
1225.51,1.325467,549929,25992
1229.01,1.320168,556888,26644
1232.5,1.325255,562180,26584
1235.98,1.328029,567975,26687
1239.46,1.323032,574815,27321
1242.94,1.324975,582782,27576
1246.41,1.324082,591476,28045
1251.03,1.328342,604016,28360
1254.5,1.324993,612289,28971
1257.96,1.329186,619125,29013
1261.41,1.330334,624551,29190
1264.86,1.329715,629900,29482
1268.31,1.328255,634345,29790
1271.75,1.325176,638574,30202
1276.33,1.337080,642499,29566
1279.76,1.330896,645905,30149
1283.19,1.337302,648307,29818
1286.61,1.329824,650446,30436
1290.03,1.331834,652132,30374
1293.44,1.330164,653907,30574
1296.85,1.330081,655963,30676
1301.39,1.330842,657349,30687
1304.8,1.337395,657558,30237
1308.19,1.332234,658515,30643
1311.58,1.332453,658804,30641
1314.97,1.336519,659011,30365
1318.36,1.337493,658272,30263
1321.73,1.335195,658022,30412
1326.23,1.337975,657870,30211
1329.6,1.333621,656482,30451
1332.97,1.331039,654926,30560
1336.33,1.332566,653727,30397
1339.69,1.336055,652497,30097
1343.04,1.336342,649913,29958
1346.39,1.329897,647671,30301
1349.73,1.331943,645338,30050
1354.18,1.333125,641175,29775
1357.52,1.330161,638376,29848
1360.85,1.332003,635805,29602
1364.17,1.329985,633413,29628
1367.49,1.329078,631026,29578
1370.81,1.328349,628050,29488
1374.12,1.332354,625034,29077
1378.54,1.328346,620272,29123
1381.84,1.332994,616892,28656
1385.14,1.331104,613613,28628
1388.43,1.322358,611526,29111
1391.72,1.332759,610663,28382
1395.01,1.321455,610634,29129
1398.29,1.335366,611700,28260
1402.66,1.328269,614051,28836
1405.93,1.335047,616268,28492
1409.2,1.336457,617795,28470
1412.46,1.331982,618872,28815
1415.72,1.335503,619795,28625
1418.98,1.326984,620495,29225
1422.23,1.331264,621087,28966
1426.56,1.330477,621375,29032
1429.8,1.334522,621616,28774
1433.04,1.326450,622129,29338
1436.27,1.335139,621526,28729
1439.5,1.330683,621113,29006
1442.72,1.334928,620921,28715
1445.94,1.336640,620270,28572
1450.23,1.335500,618860,28582
1453.44,1.333575,617697,28655
1456.64,1.331628,616264,28717
1459.85,1.340326,614413,28063
1463.04,1.338943,612307,28056
1466.24,1.346099,610032,27495
1469.43,1.345954,607345,27383
1473.67,1.342200,603789,27459
1476.85,1.333085,601175,27920
1480.02,1.337367,597737,27488
1483.19,1.344820,594479,26873
1486.36,1.340233,591232,27010
1489.52,1.343881,587853,26631
1492.68,1.338720,583875,26767
1496.89,1.341755,578062,26316
1500.03,1.370398,574159,24470
1503.18,1.342072,570285,25943
1506.32,1.341292,565444,25769
1509.45,1.338714,560571,25699
1512.58,1.341814,555821,25300
1515.71,1.338958,550344,25216
1519.87,1.341431,543983,24783
1522.99,1.335164,538764,24902
1526.1,1.341684,533692,24300
1529.21,1.340590,527902,24097
1532.32,1.331701,521886,24315
1535.42,1.340878,515888,23533
1538.51,1.341772,509987,23216
1541.6,1.341177,503936,22972
1545.72,1.334938,494694,22877
1548.8,1.347876,488378,21922
1551.88,1.335488,481832,22254
1554.95,1.345013,474989,21462
1558.02,1.334238,467818,21669
1561.08,1.333317,460730,21386
1564.15,1.339468,454170,20785
1568.22,1.340578,444181,20276
1571.27,1.340312,436947,19958
1574.32,1.344992,429598,19412
1577.36,1.350918,422039,18812
1580.4,1.340886,414375,18902
1583.43,1.337970,406354,18661
1586.46,1.343515,398475,18067
1590.49,1.332851,388982,18075
1593.51,1.335425,380708,17586
1596.53,1.330069,372727,17431
1599.54,1.335532,365060,16859
1602.55,1.335897,357543,16498
1605.55,1.327936,349495,16425
1608.55,1.336857,341154,15707
1612.54,1.322772,330877,15736
1615.53,1.319387,322904,15477
1618.51,1.325722,315116,14885
1621.49,1.332839,307217,14276
1624.47,1.320608,299481,14314
1627.44,1.319390,292112,14001
1630.41,1.341356,284245,12952
1634.36,1.332127,274079,12757
1637.32,1.318690,266916,12814
1640.27,1.318737,259612,12462
1643.22,1.324823,251804,11919
1646.16,1.313924,244348,11860
1649.1,1.322897,236703,11254
1652.04,1.312703,228171,11106
1655.95,1.337407,215408,9905
1658.88,1.324983,204937,9697
1661.8,1.334525,193395,8952
1664.72,1.332877,179728,8351
1667.63,1.344546,163642,7402
1670.54,1.347913,146312,6567
1673.44,1.339656,128451,5876
1677.31,1.331679,105080,4896
1680.21,1.389503,88906,3626
1683.1,1.346850,75033,3376
1685.99,1.363420,63520,2751
1688.87,1.342876,53714,2439
1691.75,1.371444,45653,1941
1694.62,1.413036,39137,1512
1697.49,1.341934,33776,1537
1701.31,1.371407,28175,1198