File: samples/unknown/Column 1_078072_20241121_164405.csv
Method:,Column 1,,
Host Date-Time:,21/11/24 @ 16:44:5,,
Header Version:,1,,
System Temp (C):,31.49,,
Detector Temp (C):,26.45,,
Humidity (%):,5.27,,
Lamp PD:,3808,,
Shift Vector Coefficients:,-10.5391,0.0761263,-0.000134223,,
Pixel to Wavelength Coefficients:,1775.68,-0.916766,-0.000235065,,
Serial Number:,5510004,,
Scan Config Name:,Column 1,,
Scan Config Type:,Slew,,
Section 1,,
Start wavelength (nm):,900,,
End wavelength (nm):,1700,,
Pattern Pixel Width (nm):,   7.03,,,,
Exposure (ms):,  0.635,,,,
Digital Resolution:,228,,
Num Repeats:,6,,
PGA Gain:,64,,
Total Measurement Time in sec:,  2.711,,
Wavelength (nm),Absorbance (AU),Reference Signal (unitless),Sample Signal (unitless)
901.51,1.309213,108485,5323
905.376,1.302270,121306,6048
909.237,1.328233,131909,6195
913.095,1.303702,143299,7121
916.948,1.298388,156982,7897
922.079,1.301457,179937,8988
925.923,1.279983,200504,10523
929.762,1.318502,222660,10694
933.597,1.315493,244426,11821
937.427,1.310094,263972,12926
941.254,1.313385,281845,13697
945.076,1.319155,297271,14256
950.165,1.307972,315605,15530
953.978,1.311874,328029,15997
957.786,1.306925,340470,16794
961.59,1.308511,352317,17315
965.389,1.307485,363056,17885
969.185,1.312805,373162,18159
972.976,1.309433,382632,18765
976.763,1.309462,391202,19184
981.806,1.305886,400190,19787
985.583,1.306138,406088,20067
989.355,1.313884,410162,19910
993.124,1.304545,412868,20477
996.888,1.313648,414263,20120
1000.65,1.307513,415476,20466
1004.4,1.306732,415479,20503
1009.41,1.305961,414358,20484
1013.15,1.306388,412923,20393
1016.89,1.315391,411526,19907
1020.63,1.310633,409066,20006
1024.36,1.313745,406777,19752
1028.09,1.312264,404427,19705
1031.82,1.311497,401911,19617
1036.78,1.307255,398410,19637
1040.49,1.300421,396204,19838
1044.2,1.314655,394236,19103
1047.91,1.306136,392042,19373
1051.61,1.308585,389823,19155
1055.31,1.315861,388234,18760
1059,1.318543,387599,18614
1063.92,1.305986,386688,19115
1067.61,1.321404,386598,18444
1071.29,1.308649,387377,19032
1074.96,1.318194,388536,18674
1078.63,1.323262,389855,18520
1082.3,1.311587,391215,19091
1085.96,1.307187,393215,19384
1090.84,1.317185,396270,19090
1094.49,1.315357,398760,19291
1098.14,1.314523,400987,19436
1101.79,1.312744,403477,19637
1105.43,1.318326,406116,19513
1109.06,1.314731,407701,19752
1112.7,1.326223,409859,19338
1117.53,1.322011,412494,19652
1121.15,1.324436,414909,19657
1124.77,1.317389,416559,20058
1128.38,1.331917,418532,19490
1131.99,1.327285,419956,19766
1135.6,1.316564,421946,20356
1139.2,1.323206,423881,20139
1143.99,1.321454,426786,20359
1147.58,1.322163,428617,20413
1151.17,1.325230,431169,20390
1154.75,1.318442,433579,20827
1158.33,1.318213,436264,20967
1161.91,1.321287,439132,20956
1165.48,1.319612,442389,21193
1169.04,1.320666,446101,21319
1173.79,1.317571,451929,21752
1177.34,1.308141,456026,22431
1180.9,1.315490,461306,22310
1184.44,1.314170,467657,22686
1187.99,1.323625,473969,22497
1191.52,1.321674,479856,22879
1195.06,1.318422,487372,23412
1199.76,1.323435,497347,23617
1203.29,1.322885,504311,23978
1206.81,1.323192,511507,24303
1210.33,1.323433,519078,24649
1213.84,1.321269,527163,25158
1217.35,1.323732,534208,25350
1220.85,1.331562,540472,25189
1225.51,1.323184,549929,26129
1229.01,1.322768,556888,26485
1232.5,1.324814,562180,26611
1235.98,1.328469,567975,26660
1239.46,1.320543,574815,27478
1242.94,1.324455,582782,27609
1246.41,1.319721,591476,28328
1251.03,1.324166,604016,28634
1254.5,1.322601,612289,29131
1257.96,1.320457,619125,29602
1261.41,1.325584,624551,29511
1264.86,1.322541,629900,29973
1268.31,1.328022,634345,29806
1271.75,1.326428,638574,30115
1276.33,1.333321,642499,29823
1279.76,1.328640,645905,30306
1283.19,1.324289,648307,30725
1286.61,1.332228,650446,30268
1290.03,1.324630,652132,30882
1293.44,1.321640,653907,31180
1296.85,1.327610,655963,30851
1301.39,1.330233,657349,30730
1304.8,1.331376,657558,30659
1308.19,1.328874,658515,30881
1311.58,1.333404,658804,30574
1314.97,1.331302,659011,30732
1318.36,1.328981,658272,30862
1321.73,1.329478,658022,30815
1326.23,1.332334,657870,30606
1329.6,1.334606,656482,30382
1332.97,1.336315,654926,30191
1336.33,1.327961,653727,30721
1339.69,1.336604,652497,30059
1343.04,1.334621,649913,30077
1346.39,1.326457,647671,30542
1349.73,1.330140,645338,30175
1354.18,1.328901,641175,30066
1357.52,1.327521,638376,30030
1360.85,1.326869,635805,29954
1364.17,1.335814,633413,29233
1367.49,1.331552,631026,29410
1370.81,1.324566,628050,29746
1374.12,1.327497,625034,29404
1378.54,1.327973,620272,29148
1381.84,1.331556,616892,28751
1385.14,1.328562,613613,28796
1388.43,1.329639,611526,28627
1391.72,1.327103,610663,28754
1395.01,1.325349,610634,28869
1398.29,1.326408,611700,28849
1402.66,1.328239,614051,28838
1405.93,1.329774,616268,28840
1409.2,1.329496,617795,28930
1412.46,1.330418,618872,28919
1415.72,1.327088,619795,29185
1418.98,1.336296,620495,28605
1422.23,1.333609,621087,28810
1426.56,1.336502,621375,28632
1429.8,1.332654,621616,28898
1433.04,1.335484,622129,28734
1436.27,1.328538,621526,29169
1439.5,1.334654,621113,28742
1442.72,1.330983,620921,28977
1445.94,1.334881,620270,28688
1450.23,1.337816,618860,28430
1453.44,1.337060,617697,28426
1456.64,1.334891,616264,28502
1459.85,1.335219,614413,28395
1463.04,1.340587,612307,27950
1466.24,1.337002,610032,28077
1469.43,1.341301,607345,27678
1473.67,1.341537,603789,27501
1476.85,1.331982,601175,27991
1480.02,1.339172,597737,27374
1483.19,1.340463,594479,27144
1486.36,1.339591,591232,27050
1489.52,1.337632,587853,27017
1492.68,1.335536,583875,26964
1496.89,1.332949,578062,26855
1500.03,1.337379,574159,26403
1503.18,1.346632,570285,25672
1506.32,1.339929,565444,25850
1509.45,1.340374,560571,25601
1512.58,1.344414,555821,25149
1515.71,1.335322,550344,25428
1519.87,1.338567,543983,24947
1522.99,1.339265,538764,24668
1526.1,1.340827,533692,24348
1529.21,1.335573,527902,24377
1532.32,1.334083,521886,24182
1535.42,1.335741,515888,23813
1538.51,1.338417,509987,23396
1541.6,1.341820,503936,22938
1545.72,1.332062,494694,23029
1548.8,1.346215,488378,22006
1551.88,1.335644,481832,22246
1554.95,1.344346,474989,21495
1558.02,1.340699,467818,21349
1561.08,1.331291,460730,21486
1564.15,1.335786,454170,20962
1568.22,1.335764,444181,20502
1571.27,1.337687,436947,20079
1574.32,1.341849,429598,19553
1577.36,1.338919,422039,19339
1580.4,1.341254,414375,18886
1583.43,1.326736,406354,19150
1586.46,1.324307,398475,18884
1590.49,1.337246,388982,17893
1593.51,1.331394,380708,17750
1596.53,1.317133,372727,17958
1599.54,1.325953,365060,17235
1602.55,1.331419,357543,16669
1605.55,1.330428,349495,16331
1608.55,1.323784,341154,16187
1612.54,1.322276,330877,15754
1615.53,1.320426,322904,15440
1618.51,1.335667,315116,14548
1621.49,1.330200,307217,14363
1624.47,1.317705,299481,14410
1627.44,1.332842,292112,13574
1630.41,1.320250,284245,13597
1634.36,1.322199,274079,13052
1637.32,1.329465,266916,12500
1640.27,1.316755,259612,12519
1643.22,1.331284,251804,11743
1646.16,1.326971,244348,11509
1649.1,1.326617,236703,11158
1652.04,1.317184,228171,10992
1655.95,1.322919,215408,10241
1658.88,1.309800,204937,10042
1661.8,1.308082,193395,9514
1664.72,1.304251,179728,8920
1667.63,1.322469,163642,7788
1670.54,1.321300,146312,6982
1673.44,1.303169,128451,6391
1677.31,1.316426,105080,5071
1680.21,1.312845,88906,4326
1683.1,1.307285,75033,3698
1685.99,1.341412,63520,2894
1688.87,1.301467,53714,2683
1691.75,1.268358,45653,2461
1694.62,1.325886,39137,1848
1697.49,1.250770,33776,1896
1701.31,1.284026,28175,1465