File: samples/unknown/Column 1_078035_20241121_164218.csv
Method:,Column 1,,
Host Date-Time:,21/11/24 @ 16:42:18,,
Header Version:,1,,
System Temp (C):,30.31,,
Detector Temp (C):,25.19,,
Humidity (%):,5.95,,
Lamp PD:,3811,,
Shift Vector Coefficients:,-10.5391,0.0761263,-0.000134223,,
Pixel to Wavelength Coefficients:,1775.68,-0.916766,-0.000235065,,
Serial Number:,5510004,,
Scan Config Name:,Column 1,,
Scan Config Type:,Slew,,
Section 1,,
Start wavelength (nm):,900,,
End wavelength (nm):,1700,,
Pattern Pixel Width (nm):,   7.03,,,,
Exposure (ms):,  0.635,,,,
Digital Resolution:,228,,
Num Repeats:,6,,
PGA Gain:,64,,
Total Measurement Time in sec:,  2.707,,
Wavelength (nm),Absorbance (AU),Reference Signal (unitless),Sample Signal (unitless)
901.51,1.309050,108485,5325
905.376,1.313472,121306,5894
909.237,1.332389,131909,6136
913.095,1.316451,143299,6915
916.948,1.300151,156982,7865
922.079,1.300637,179937,9005
925.923,1.300692,200504,10033
929.762,1.309499,222660,10918
933.597,1.313039,244426,11888
937.427,1.311575,263972,12882
941.254,1.321450,281845,13445
945.076,1.300083,297271,14896
950.165,1.315589,315605,15260
953.978,1.311575,328029,16008
957.786,1.307805,340470,16760
961.59,1.303945,352317,17498
965.389,1.309432,363056,17805
969.185,1.303436,373162,18555
972.976,1.308924,382632,18787
976.763,1.318197,391202,18802
981.806,1.305908,400190,19786
985.583,1.306657,406088,20043
989.355,1.309392,410162,20117
993.124,1.315020,412868,19989
996.888,1.304824,414263,20533
1000.65,1.306411,415476,20518
1004.4,1.316218,415479,20060
1009.41,1.307554,414358,20409
1013.15,1.302867,412923,20559
1016.89,1.310208,411526,20146
1020.63,1.313945,409066,19854
1024.36,1.310307,406777,19909
1028.09,1.312330,404427,19702
1031.82,1.308431,401911,19756
1036.78,1.310987,398410,19469
1040.49,1.314324,396204,19213
1044.2,1.308784,394236,19363
1047.91,1.312436,392042,19094
1051.61,1.313809,389823,18926
1055.31,1.317926,388234,18671
1059,1.313233,387599,18843
1063.92,1.315705,386688,18692
1067.61,1.317093,386598,18628
1071.29,1.313745,387377,18810
1074.96,1.312717,388536,18911
1078.63,1.317647,389855,18761
1082.3,1.314325,391215,18971
1085.96,1.320911,393215,18781
1090.84,1.318096,396270,19050
1094.49,1.314255,398760,19340
1098.14,1.312673,400987,19519
1101.79,1.316364,403477,19474
1105.43,1.322149,406116,19342
1109.06,1.320575,407701,19488
1112.7,1.316211,409859,19789
1117.53,1.320973,412494,19699
1121.15,1.319340,414909,19889
1124.77,1.321282,416559,19879
1128.38,1.323509,418532,19871
1131.99,1.323021,419956,19961
1135.6,1.316842,421946,20343
1139.2,1.317635,423881,20399
1143.99,1.321262,426786,20368
1147.58,1.319554,428617,20536
1151.17,1.315375,431169,20858
1154.75,1.320385,433579,20734
1158.33,1.324577,436264,20662
1161.91,1.318395,439132,21096
1165.48,1.322759,442389,21040
1169.04,1.328498,446101,20938
1173.79,1.322773,451929,21493
1177.34,1.319677,456026,21843
1180.9,1.316698,461306,22248
1184.44,1.320553,467657,22355
1187.99,1.316541,473969,22867
1191.52,1.317988,479856,23074
1195.06,1.323741,487372,23127
1199.76,1.320283,497347,23789
1203.29,1.319440,504311,24169
1206.81,1.323031,511507,24312
1210.33,1.324333,519078,24598
1213.84,1.325676,527163,24904
1217.35,1.320949,534208,25513
1220.85,1.323770,540472,25645
1225.51,1.323034,549929,26138
1229.01,1.328612,556888,26131
1232.5,1.330167,562180,26285
1235.98,1.326892,567975,26757
1239.46,1.324831,574815,27208
1242.94,1.331273,582782,27179
1246.41,1.327955,591476,27796
1251.03,1.326356,604016,28490
1254.5,1.324753,612289,28987
1257.96,1.323283,619125,29410
1261.41,1.328197,624551,29334
1264.86,1.324225,629900,29857
1268.31,1.329043,634345,29736
1271.75,1.327598,638574,30034
1276.33,1.323089,642499,30534
1279.76,1.333366,645905,29978
1283.19,1.335805,648307,29921
1286.61,1.333449,650446,30183
1290.03,1.328018,652132,30642
1293.44,1.339177,653907,29946
1296.85,1.331584,655963,30570
1301.39,1.338970,657349,30118
1304.8,1.333221,657558,30529
1308.19,1.330749,658515,30748
1311.58,1.330840,658804,30755
1314.97,1.331740,659011,30701
1318.36,1.331890,658272,30656
1321.73,1.336067,658022,30351
1326.23,1.330874,657870,30709
1329.6,1.329674,656482,30729
1332.97,1.339143,654926,29995
1336.33,1.339203,653727,29936
1339.69,1.334385,652497,30213
1343.04,1.332144,649913,30249
1346.39,1.332067,647671,30150
1349.73,1.326129,645338,30455
1354.18,1.330188,641175,29977
1357.52,1.336537,638376,29413
1360.85,1.333620,635805,29492
1364.17,1.331747,633413,29508
1367.49,1.326721,631026,29739
1370.81,1.328629,628050,29469
1374.12,1.329422,625034,29274
1378.54,1.328152,620272,29136
1381.84,1.330199,616892,28841
1385.14,1.335005,613613,28372
1388.43,1.329730,611526,28621
1391.72,1.333065,610663,28362
1395.01,1.330221,610634,28547
1398.29,1.328082,611700,28738
1402.66,1.330868,614051,28664
1405.93,1.334361,616268,28537
1409.2,1.331950,617795,28767
1412.46,1.337198,618872,28471
1415.72,1.335776,619795,28607
1418.98,1.333980,620495,28758
1422.23,1.335800,621087,28665
1426.56,1.336244,621375,28649
1429.8,1.333376,621616,28850
1433.04,1.339859,622129,28446
1436.27,1.332682,621526,28892
1439.5,1.339562,621113,28419
1442.72,1.335412,620921,28683
1445.94,1.334049,620270,28743
1450.23,1.337541,618860,28448
1453.44,1.341343,617697,28147
1456.64,1.336632,616264,28388
1459.85,1.337150,614413,28269
1463.04,1.332444,612307,28479
1466.24,1.335751,610032,28158
1469.43,1.334760,607345,28098
1473.67,1.336528,603789,27820
1476.85,1.338060,601175,27602
1480.02,1.338474,597737,27418
1483.19,1.341087,594479,27105
1486.36,1.336089,591232,27269
1489.52,1.337230,587853,27042
1492.68,1.342894,583875,26511
1496.89,1.340897,578062,26368
1500.03,1.338169,574159,26355
1503.18,1.339235,570285,26113
1506.32,1.343827,565444,25619
1509.45,1.338681,560571,25701
1512.58,1.336933,555821,25586
1515.71,1.343738,550344,24940
1519.87,1.342186,543983,24740
1522.99,1.335635,538764,24875
1526.1,1.338196,533692,24496
1529.21,1.342360,527902,23999
1532.32,1.344848,521886,23590
1535.42,1.339864,515888,23588
1538.51,1.338436,509987,23395
1541.6,1.339234,503936,23075
1545.72,1.336707,494694,22784
1548.8,1.338780,488378,22386
1551.88,1.332977,481832,22383
1554.95,1.341727,474989,21625
1558.02,1.335583,467818,21602
1561.08,1.335291,460730,21289
1564.15,1.340179,454170,20751
1568.22,1.331024,444181,20727
1571.27,1.335895,436947,20162
1574.32,1.340718,429598,19604
1577.36,1.334250,422039,19548
1580.4,1.334205,414375,19195
1583.43,1.334331,406354,18818
1586.46,1.339138,398475,18250
1590.49,1.335454,388982,17967
1593.51,1.329587,380708,17824
1596.53,1.330093,372727,17430
1599.54,1.336487,365060,16822
1602.55,1.330898,357543,16689
1605.55,1.333283,349495,16224
1608.55,1.325047,341154,16140
1612.54,1.331864,330877,15410
1615.53,1.319976,322904,15456
1618.51,1.323452,315116,14963
1621.49,1.334301,307217,14228
1624.47,1.323745,299481,14211
1627.44,1.324194,292112,13847
1630.41,1.334932,284245,13145
1634.36,1.317269,274079,13201
1637.32,1.336999,266916,12285
1640.27,1.332941,259612,12061
1643.22,1.337955,251804,11564
1646.16,1.325690,244348,11543
1649.1,1.328763,236703,11103
1652.04,1.326933,228171,10748
1655.95,1.315227,215408,10424
1658.88,1.333851,204937,9501
1661.8,1.314984,193395,9364
1664.72,1.340431,179728,8207
1667.63,1.328307,163642,7684
1670.54,1.346065,146312,6595
1673.44,1.339656,128451,5876
1677.31,1.308786,105080,5161
1680.21,1.333402,88906,4126
1683.1,1.371053,75033,3193
1685.99,1.354978,63520,2805
1688.87,1.402320,53714,2127
1691.75,1.266772,45653,2470
1694.62,1.306580,39137,1932
1697.49,1.334649,33776,1563
1701.31,1.394868,28175,1135