File: samples/unknown/Column 1_078039_20241121_164229.csv
Method:,Column 1,,
Host Date-Time:,21/11/24 @ 16:42:29,,
Header Version:,1,,
System Temp (C):,30.53,,
Detector Temp (C):,25.33,,
Humidity (%):,5.85,,
Lamp PD:,3811,,
Shift Vector Coefficients:,-10.5391,0.0761263,-0.000134223,,
Pixel to Wavelength Coefficients:,1775.68,-0.916766,-0.000235065,,
Serial Number:,5510004,,
Scan Config Name:,Column 1,,
Scan Config Type:,Slew,,
Section 1,,
Start wavelength (nm):,900,,
End wavelength (nm):,1700,,
Pattern Pixel Width (nm):,   7.03,,,,
Exposure (ms):,  0.635,,,,
Digital Resolution:,228,,
Num Repeats:,6,,
PGA Gain:,64,,
Total Measurement Time in sec:,  2.709,,
Wavelength (nm),Absorbance (AU),Reference Signal (unitless),Sample Signal (unitless)
901.51,1.306691,108485,5354
905.376,1.326562,121306,5719
909.237,1.334660,131909,6104
913.095,1.314383,143299,6948
916.948,1.307895,156982,7726
922.079,1.305389,179937,8907
925.923,1.308599,200504,9852
929.762,1.303495,222660,11070
933.597,1.301396,244426,12211
937.427,1.306180,263972,13043
941.254,1.298120,281845,14187
945.076,1.314519,297271,14409
950.165,1.305797,315605,15608
953.978,1.310248,328029,16057
957.786,1.311788,340470,16607
961.59,1.319587,352317,16879
965.389,1.299759,363056,18206
969.185,1.309874,373162,18282
972.976,1.311567,382632,18673
976.763,1.313945,391202,18987
981.806,1.299330,400190,20088
985.583,1.313053,406088,19750
989.355,1.305759,410162,20286
993.124,1.305139,412868,20449
996.888,1.308115,414263,20378
1000.65,1.302722,415476,20693
1004.4,1.311995,415479,20256
1009.41,1.317280,414358,19957
1013.15,1.305494,412923,20435
1016.89,1.306260,411526,20330
1020.63,1.315413,409066,19787
1024.36,1.315464,406777,19674
1028.09,1.313478,404427,19650
1031.82,1.307991,401911,19776
1036.78,1.305225,398410,19729
1040.49,1.302110,396204,19761
1044.2,1.295966,394236,19943
1047.91,1.312231,392042,19103
1051.61,1.319305,389823,18688
1055.31,1.306109,388234,19186
1059,1.316634,387599,18696
1063.92,1.320001,386688,18508
1067.61,1.309124,386598,18973
1071.29,1.313768,387377,18809
1074.96,1.312602,388536,18916
1078.63,1.315131,389855,18870
1082.3,1.314051,391215,18983
1085.96,1.321721,393215,18746
1090.84,1.315188,396270,19178
1094.49,1.327016,398760,18780
1098.14,1.321438,400987,19129
1101.79,1.307949,403477,19855
1105.43,1.322890,406116,19309
1109.06,1.314621,407701,19757
1112.7,1.312126,409859,19976
1117.53,1.319499,412494,19766
1121.15,1.311764,414909,20239
1124.77,1.323143,416559,19794
1128.38,1.314318,418532,20296
1131.99,1.316093,419956,20282
1135.6,1.318403,421946,20270
1139.2,1.311672,423881,20681
1143.99,1.318033,426786,20520
1147.58,1.318329,428617,20594
1151.17,1.315896,431169,20833
1154.75,1.313610,433579,21060
1158.33,1.324346,436264,20673
1161.91,1.325138,439132,20771
1165.48,1.313346,442389,21501
1169.04,1.321972,446101,21255
1173.79,1.313280,451929,21968
1177.34,1.316389,456026,22009
1180.9,1.320659,461306,22046
1184.44,1.314131,467657,22688
1187.99,1.324282,473969,22463
1191.52,1.319969,479856,22969
1195.06,1.321475,487372,23248
1199.76,1.324503,497347,23559
1203.29,1.316342,504311,24342
1206.81,1.323156,511507,24305
1210.33,1.325854,519078,24512
1213.84,1.324996,527163,24943
1217.35,1.329250,534208,25030
1220.85,1.328538,540472,25365
1225.51,1.330864,549929,25671
1229.01,1.325020,556888,26348
1232.5,1.319978,562180,26909
1235.98,1.328795,567975,26640
1239.46,1.320701,574815,27468
1242.94,1.321758,582782,27781
1246.41,1.320289,591476,28291
1251.03,1.328128,604016,28374
1254.5,1.329498,612289,28672
1257.96,1.323047,619125,29426
1261.41,1.326203,624551,29469
1264.86,1.330718,629900,29414
1268.31,1.330858,634345,29612
1271.75,1.332645,638574,29687
1276.33,1.325943,642499,30334
1279.76,1.328225,645905,30335
1283.19,1.326969,648307,30536
1286.61,1.329424,650446,30464
1290.03,1.328501,652132,30608
1293.44,1.333329,653907,30352
1296.85,1.333292,655963,30450
1301.39,1.335080,657349,30389
1304.8,1.330739,657558,30704
1308.19,1.334508,658515,30483
1311.58,1.328376,658804,30930
1314.97,1.331938,659011,30687
1318.36,1.333465,658272,30545
1321.73,1.337960,658022,30219
1326.23,1.330140,657870,30761
1329.6,1.335064,656482,30350
1332.97,1.332477,654926,30459
1336.33,1.329108,653727,30640
1339.69,1.337457,652497,30000
1343.04,1.334101,649913,30113
1346.39,1.331089,647671,30218
1349.73,1.330486,645338,30151
1354.18,1.332979,641175,29785
1357.52,1.331064,638376,29786
1360.85,1.319836,635805,30443
1364.17,1.330307,633413,29606
1367.49,1.329563,631026,29545
1370.81,1.328423,628050,29483
1374.12,1.328754,625034,29319
1378.54,1.328689,620272,29100
1381.84,1.326824,616892,29066
1385.14,1.327673,613613,28855
1388.43,1.328715,611526,28688
1391.72,1.331429,610663,28469
1395.01,1.329127,610634,28619
1398.29,1.326272,611700,28858
1402.66,1.330943,614051,28659
1405.93,1.329594,616268,28852
1409.2,1.330172,617795,28885
1412.46,1.330433,618872,28918
1415.72,1.329625,619795,29015
1418.98,1.336145,620495,28615
1422.23,1.333022,621087,28849
1426.56,1.332471,621375,28899
1429.8,1.337338,621616,28588
1433.04,1.336104,622129,28693
1436.27,1.336911,621526,28612
1439.5,1.334729,621113,28737
1442.72,1.342926,620921,28191
1445.94,1.327793,620270,29160
1450.23,1.334710,618860,28634
1453.44,1.341482,617697,28138
1456.64,1.340551,616264,28133
1459.85,1.330942,614413,28676
1463.04,1.332933,612307,28447
1466.24,1.330386,610032,28508
1469.43,1.330959,607345,28345
1473.67,1.336622,603789,27814
1476.85,1.336051,601175,27730
1480.02,1.335837,597737,27585
1483.19,1.334110,594479,27544
1486.36,1.333706,591232,27419
1489.52,1.341004,587853,26808
1492.68,1.338396,583875,26787
1496.89,1.341359,578062,26340
1500.03,1.341943,574159,26127
1503.18,1.336004,570285,26308
1506.32,1.339845,565444,25855
1509.45,1.343062,560571,25443
1512.58,1.337544,555821,25550
1515.71,1.338648,550344,25234
1519.87,1.333582,543983,25235
1522.99,1.337648,538764,24760
1526.1,1.347840,533692,23958
1529.21,1.335092,527902,24404
1532.32,1.342553,521886,23715
1535.42,1.341321,515888,23509
1538.51,1.336861,509987,23480
1541.6,1.337299,503936,23178
1545.72,1.337183,494694,22759
1548.8,1.342932,488378,22173
1551.88,1.334493,481832,22305
1554.95,1.332016,474989,22114
1558.02,1.344110,467818,21182
1561.08,1.332586,460730,21422
1564.15,1.334565,454170,21021
1568.22,1.334621,444181,20556
1571.27,1.340725,436947,19939
1574.32,1.331598,429598,20020
1577.36,1.329720,422039,19753
1580.4,1.335474,414375,19139
1583.43,1.339135,406354,18611
1586.46,1.332877,398475,18515
1590.49,1.337004,388982,17903
1593.51,1.332987,380708,17685
1596.53,1.328502,372727,17494
1599.54,1.335223,365060,16871
1602.55,1.330872,357543,16690
1605.55,1.341580,349495,15917
1608.55,1.329021,341154,15993
1612.54,1.335458,330877,15283
1615.53,1.321694,322904,15395
1618.51,1.319321,315116,15106
1621.49,1.330351,307217,14358
1624.47,1.331826,299481,13949
1627.44,1.320540,292112,13964
1630.41,1.321241,284245,13566
1634.36,1.326647,274079,12919
1637.32,1.326659,266916,12581
1640.27,1.316304,259612,12532
1643.22,1.327638,251804,11842
1646.16,1.317971,244348,11750
1649.1,1.326734,236703,11155
1652.04,1.324877,228171,10799
1655.95,1.327267,215408,10139
1658.88,1.328626,204937,9616
1661.8,1.322186,193395,9210
1664.72,1.318555,179728,8631
1667.63,1.327630,163642,7696
1670.54,1.332452,146312,6805
1673.44,1.335170,128451,5937
1677.31,1.333011,105080,4881
1680.21,1.324443,88906,4212
1683.1,1.347622,75033,3370
1685.99,1.359491,63520,2776
1688.87,1.213288,53714,3287
1691.75,1.326829,45653,2151
1694.62,1.339007,39137,1793
1697.49,1.396349,33776,1356
1701.31,1.209814,28175,1738