File: samples/unknown/Column 1_078087_20241121_164450.csv
Method:,Column 1,,
Host Date-Time:,21/11/24 @ 16:44:50,,
Header Version:,1,,
System Temp (C):,31.98,,
Detector Temp (C):,26.91,,
Humidity (%):,4.44,,
Lamp PD:,3808,,
Shift Vector Coefficients:,-10.5391,0.0761263,-0.000134223,,
Pixel to Wavelength Coefficients:,1775.68,-0.916766,-0.000235065,,
Serial Number:,5510004,,
Scan Config Name:,Column 1,,
Scan Config Type:,Slew,,
Section 1,,
Start wavelength (nm):,900,,
End wavelength (nm):,1700,,
Pattern Pixel Width (nm):,   7.03,,,,
Exposure (ms):,  0.635,,,,
Digital Resolution:,228,,
Num Repeats:,6,,
PGA Gain:,64,,
Total Measurement Time in sec:,  2.804,,
Wavelength (nm),Absorbance (AU),Reference Signal (unitless),Sample Signal (unitless)
901.51,1.311504,108485,5295
905.376,1.297699,121306,6112
909.237,1.306027,131909,6520
913.095,1.328874,143299,6720
916.948,1.297893,156982,7906
922.079,1.293842,179937,9147
925.923,1.302992,200504,9980
929.762,1.311573,222660,10866
933.597,1.308062,244426,12025
937.427,1.325517,263972,12475
941.254,1.305374,281845,13952
945.076,1.320467,297271,14213
950.165,1.315021,315605,15280
953.978,1.309545,328029,16083
957.786,1.314200,340470,16515
961.59,1.309742,352317,17266
965.389,1.306975,363056,17906
969.185,1.304961,373162,18490
972.976,1.307286,382632,18858
976.763,1.306079,391202,19334
981.806,1.304615,400190,19845
985.583,1.305402,406088,20101
989.355,1.303666,410162,20384
993.124,1.315477,412868,19968
996.888,1.312570,414263,20170
1000.65,1.304131,415476,20626
1004.4,1.315223,415479,20106
1009.41,1.312153,414358,20194
1013.15,1.312781,412923,20095
1016.89,1.303322,411526,20468
1020.63,1.316490,409066,19738
1024.36,1.303017,406777,20246
1028.09,1.314850,404427,19588
1031.82,1.310281,401911,19672
1036.78,1.303051,398410,19828
1040.49,1.303122,396204,19715
1044.2,1.311890,394236,19225
1047.91,1.305173,392042,19416
1051.61,1.309925,389823,19096
1055.31,1.311439,388234,18952
1059,1.307918,387599,19075
1063.92,1.310830,386688,18903
1067.61,1.307114,386598,19061
1071.29,1.311971,387377,18887
1074.96,1.312258,388536,18931
1078.63,1.306766,389855,19237
1082.3,1.309092,391215,19201
1085.96,1.321189,393215,18769
1090.84,1.314441,396270,19211
1094.49,1.314547,398760,19327
1098.14,1.315889,400987,19375
1101.79,1.308365,403477,19836
1105.43,1.315310,406116,19649
1109.06,1.317820,407701,19612
1112.7,1.319427,409859,19643
1117.53,1.313282,412494,20051
1121.15,1.319471,414909,19883
1124.77,1.321501,416559,19869
1128.38,1.326932,418532,19715
1131.99,1.315729,419956,20299
1135.6,1.318489,421946,20266
1139.2,1.319620,423881,20306
1143.99,1.319071,426786,20471
1147.58,1.316036,428617,20703
1151.17,1.324528,431169,20423
1154.75,1.317691,433579,20863
1158.33,1.316807,436264,21035
1161.91,1.324699,439132,20792
1165.48,1.319468,442389,21200
1169.04,1.319141,446101,21394
1173.79,1.320777,451929,21592
1177.34,1.311699,456026,22248
1180.9,1.321270,461306,22015
1184.44,1.311345,467657,22834
1187.99,1.321123,473969,22627
1191.52,1.321503,479856,22888
1195.06,1.319183,487372,23371
1199.76,1.324281,497347,23571
1203.29,1.330708,504311,23550
1206.81,1.323478,511507,24287
1210.33,1.320396,519078,24822
1213.84,1.325658,527163,24905
1217.35,1.319453,534208,25601
1220.85,1.328128,540472,25389
1225.51,1.316308,549929,26546
1229.01,1.324510,556888,26379
1232.5,1.328091,562180,26411
1235.98,1.323577,567975,26962
1239.46,1.324178,574815,27249
1242.94,1.323811,582782,27650
1246.41,1.318481,591476,28409
1251.03,1.325412,604016,28552
1254.5,1.320549,612289,29269
1257.96,1.321986,619125,29498
1261.41,1.321891,624551,29763
1264.86,1.326252,629900,29718
1268.31,1.327687,634345,29829
1271.75,1.330267,638574,29850
1276.33,1.326760,642499,30277
1279.76,1.324547,645905,30593
1283.19,1.325974,648307,30606
1286.61,1.327532,650446,30597
1290.03,1.327650,652132,30668
1293.44,1.331629,653907,30471
1296.85,1.326556,655963,30926
1301.39,1.332927,657349,30540
1304.8,1.331022,657558,30684
1308.19,1.332929,658515,30594
1311.58,1.326765,658804,31045
1314.97,1.333995,659011,30542
1318.36,1.331635,658272,30674
1321.73,1.333258,658022,30548
1326.23,1.335067,657870,30414
1329.6,1.330920,656482,30641
1332.97,1.328714,654926,30724
1336.33,1.330798,653727,30521
1339.69,1.332162,652497,30368
1343.04,1.331226,649913,30313
1346.39,1.332889,647671,30093
1349.73,1.330270,645338,30166
1354.18,1.331581,641175,29881
1357.52,1.332072,638376,29717
1360.85,1.325667,635805,30037
1364.17,1.336126,633413,29212
1367.49,1.326239,631026,29772
1370.81,1.327760,628050,29528
1374.12,1.327867,625034,29379
1378.54,1.329316,620272,29058
1381.84,1.331737,616892,28739
1385.14,1.330255,613613,28684
1388.43,1.327128,611526,28793
1391.72,1.327693,610663,28715
1395.01,1.323698,610634,28979
1398.29,1.332151,611700,28470
1402.66,1.332081,614051,28584
1405.93,1.326743,616268,29042
1409.2,1.328536,617795,28994
1412.46,1.332480,618872,28782
1415.72,1.326419,619795,29230
1418.98,1.330835,620495,28967
1422.23,1.334938,621087,28722
1426.56,1.331555,621375,28960
1429.8,1.332444,621616,28912
1433.04,1.334684,622129,28787
1436.27,1.336532,621526,28637
1439.5,1.330743,621113,29002
1442.72,1.336746,620921,28595
1445.94,1.327272,620270,29195
1450.23,1.332713,618860,28766
1453.44,1.336815,617697,28442
1456.64,1.337352,616264,28341
1459.85,1.339445,614413,28120
1463.04,1.341147,612307,27914
1466.24,1.335396,610032,28181
1469.43,1.338985,607345,27826
1473.67,1.334954,603789,27921
1476.85,1.339100,601175,27536
1480.02,1.332106,597737,27823
1483.19,1.341007,594479,27110
1486.36,1.340748,591232,26978
1489.52,1.333759,587853,27259
1492.68,1.337974,583875,26813
1496.89,1.336799,578062,26618
1500.03,1.340101,574159,26238
1503.18,1.334422,570285,26404
1506.32,1.339107,565444,25899
1509.45,1.334058,560571,25976
1512.58,1.340187,555821,25395
1515.71,1.338149,550344,25263
1519.87,1.336622,543983,25059
1522.99,1.335863,538764,24862
1526.1,1.335509,533692,24648
1529.21,1.339582,527902,24153
1532.32,1.334389,521886,24165
1535.42,1.331350,515888,24055
1538.51,1.341192,509987,23247
1541.6,1.332510,503936,23435
1545.72,1.339115,494694,22658
1548.8,1.335860,488378,22537
1551.88,1.338130,481832,22119
1554.95,1.334972,474989,21964
1558.02,1.343987,467818,21188
1561.08,1.333033,460730,21400
1564.15,1.335910,454170,20956
1568.22,1.334262,444181,20573
1571.27,1.334798,436947,20213
1574.32,1.329003,429598,20140
1577.36,1.330556,422039,19715
1580.4,1.332805,414375,19257
1583.43,1.331387,406354,18946
1586.46,1.326567,398475,18786
1590.49,1.326010,388982,18362
1593.51,1.336191,380708,17555
1596.53,1.332943,372727,17316
1599.54,1.326735,365060,17204
1602.55,1.325853,357543,16884
1605.55,1.324433,349495,16558
1608.55,1.313838,341154,16562
1612.54,1.337081,330877,15226
1615.53,1.323305,322904,15338
1618.51,1.331508,315116,14688
1621.49,1.326317,307217,14492
1624.47,1.331982,299481,13944
1627.44,1.315930,292112,14113
1630.41,1.323198,284245,13505
1634.36,1.339232,274079,12550
1637.32,1.323290,266916,12679
1640.27,1.327431,259612,12215
1643.22,1.315843,251804,12168
1646.16,1.326029,244348,11534
1649.1,1.303317,236703,11773
1652.04,1.305682,228171,11287
1655.95,1.314769,215408,10435
1658.88,1.321015,204937,9786
1661.8,1.315959,193395,9343
1664.72,1.321432,179728,8574
1667.63,1.318362,163642,7862
1670.54,1.299406,146312,7343
1673.44,1.294357,128451,6522
1677.31,1.296998,105080,5303
1680.21,1.274070,88906,4730
1683.1,1.268656,75033,4042
1685.99,1.318896,63520,3048
1688.87,1.302764,53714,2675
1691.75,1.362366,45653,1982
1694.62,1.218940,39137,2364
1697.49,1.188561,33776,2188
1701.31,1.233962,28175,1644