File: samples/unknown/Column 1_078037_20241121_164223.csv
Method:,Column 1,,
Host Date-Time:,21/11/24 @ 16:42:23,,
Header Version:,1,,
System Temp (C):,30.43,,
Detector Temp (C):,25.22,,
Humidity (%):,5.85,,
Lamp PD:,3811,,
Shift Vector Coefficients:,-10.5391,0.0761263,-0.000134223,,
Pixel to Wavelength Coefficients:,1775.68,-0.916766,-0.000235065,,
Serial Number:,5510004,,
Scan Config Name:,Column 1,,
Scan Config Type:,Slew,,
Section 1,,
Start wavelength (nm):,900,,
End wavelength (nm):,1700,,
Pattern Pixel Width (nm):,   7.03,,,,
Exposure (ms):,  0.635,,,,
Digital Resolution:,228,,
Num Repeats:,6,,
PGA Gain:,64,,
Total Measurement Time in sec:,  2.708,,
Wavelength (nm),Absorbance (AU),Reference Signal (unitless),Sample Signal (unitless)
901.51,1.325761,108485,5124
905.376,1.294090,121306,6163
909.237,1.299220,131909,6623
913.095,1.315134,143299,6936
916.948,1.299654,156982,7874
922.079,1.324783,179937,8518
925.923,1.300562,200504,10036
929.762,1.299006,222660,11185
933.597,1.323764,244426,11598
937.427,1.318233,263972,12686
941.254,1.316759,281845,13591
945.076,1.324612,297271,14078
950.165,1.308112,315605,15525
953.978,1.315089,328029,15879
957.786,1.307390,340470,16776
961.59,1.310346,352317,17242
965.389,1.304098,363056,18025
969.185,1.310968,373162,18236
972.976,1.318767,382632,18366
976.763,1.311754,391202,19083
981.806,1.308396,400190,19673
985.583,1.310051,406088,19887
989.355,1.315086,410162,19855
993.124,1.304163,412868,20495
996.888,1.313001,414263,20150
1000.65,1.311221,415476,20292
1004.4,1.314425,415479,20143
1009.41,1.304987,414358,20530
1013.15,1.309251,412923,20259
1016.89,1.315064,411526,19922
1020.63,1.307217,409066,20164
1024.36,1.310329,406777,19908
1028.09,1.310087,404427,19804
1031.82,1.304601,401911,19931
1036.78,1.304499,398410,19762
1040.49,1.309535,396204,19426
1044.2,1.312681,394236,19190
1047.91,1.316411,392042,18920
1051.61,1.317033,389823,18786
1055.31,1.311759,388234,18938
1059,1.308260,387599,19060
1063.92,1.311129,386688,18890
1067.61,1.320722,386598,18473
1071.29,1.316223,387377,18703
1074.96,1.307557,388536,19137
1078.63,1.311556,389855,19026
1082.3,1.317981,391215,18812
1085.96,1.314667,393215,19053
1090.84,1.318712,396270,19023
1094.49,1.317840,398760,19181
1098.14,1.312295,400987,19536
1101.79,1.320059,403477,19309
1105.43,1.314846,406116,19670
1109.06,1.321400,407701,19451
1112.7,1.324318,409859,19423
1117.53,1.310583,412494,20176
1121.15,1.317575,414909,19970
1124.77,1.324946,416559,19712
1128.38,1.314147,418532,20304
1131.99,1.311535,419956,20496
1135.6,1.317568,421946,20309
1139.2,1.319919,423881,20292
1143.99,1.315606,426786,20635
1147.58,1.306533,428617,21161
1151.17,1.330631,431169,20138
1154.75,1.321602,433579,20676
1158.33,1.323632,436264,20707
1161.91,1.330439,439132,20519
1165.48,1.319878,442389,21180
1169.04,1.318979,446101,21402
1173.79,1.318610,451929,21700
1177.34,1.313263,456026,22168
1180.9,1.318459,461306,22158
1184.44,1.319582,467657,22405
1187.99,1.326414,473969,22353
1191.52,1.320461,479856,22943
1195.06,1.322223,487372,23208
1199.76,1.329024,497347,23315
1203.29,1.318023,504311,24248
1206.81,1.326600,511507,24113
1210.33,1.323134,519078,24666
1213.84,1.317488,527163,25378
1217.35,1.323904,534208,25340
1220.85,1.322806,540472,25702
1225.51,1.328283,549929,25824
1229.01,1.324032,556888,26408
1232.5,1.324146,562180,26652
1235.98,1.322082,567975,27055
1239.46,1.321397,574815,27424
1242.94,1.326173,582782,27500
1246.41,1.324190,591476,28038
1251.03,1.324091,604016,28639
1254.5,1.328575,612289,28733
1257.96,1.328124,619125,29084
1261.41,1.326660,624551,29438
1264.86,1.325187,629900,29791
1268.31,1.327541,634345,29839
1271.75,1.329482,638574,29904
1276.33,1.331461,642499,29951
1279.76,1.328268,645905,30332
1283.19,1.328550,648307,30425
1286.61,1.333636,650446,30170
1290.03,1.333424,652132,30263
1293.44,1.328632,653907,30682
1296.85,1.332594,655963,30499
1301.39,1.329796,657349,30761
1304.8,1.332724,657558,30564
1308.19,1.333157,658515,30578
1311.58,1.332467,658804,30640
1314.97,1.330737,659011,30772
1318.36,1.330603,658272,30747
1321.73,1.332037,658022,30634
1326.23,1.328857,657870,30852
1329.6,1.335838,656482,30296
1332.97,1.333176,654926,30410
1336.33,1.338724,653727,29969
1339.69,1.330663,652497,30473
1343.04,1.330368,649913,30373
1346.39,1.330356,647671,30269
1349.73,1.331957,645338,30049
1354.18,1.328843,641175,30070
1357.52,1.331196,638376,29777
1360.85,1.325725,635805,30033
1364.17,1.331159,633413,29548
1367.49,1.334159,631026,29234
1370.81,1.329529,628050,29408
1374.12,1.326082,625034,29500
1378.54,1.332030,620272,28877
1381.84,1.327751,616892,29004
1385.14,1.325287,613613,29014
1388.43,1.330307,611526,28583
1391.72,1.330241,610663,28547
1395.01,1.337647,610634,28063
1398.29,1.326257,611700,28859
1402.66,1.332431,614051,28561
1405.93,1.337048,616268,28361
1409.2,1.331723,617795,28782
1412.46,1.325178,618872,29270
1415.72,1.324448,619795,29363
1418.98,1.335023,620495,28689
1422.23,1.333624,621087,28809
1426.56,1.325938,621375,29337
1429.8,1.331394,621616,28982
1433.04,1.335379,622129,28741
1436.27,1.336790,621526,28620
1439.5,1.336698,621113,28607
1442.72,1.328606,620921,29136
1445.94,1.333611,620270,28772
1450.23,1.333559,618860,28710
1453.44,1.333287,617697,28674
1456.64,1.336693,616264,28384
1459.85,1.337012,614413,28278
1463.04,1.337429,612307,28154
1466.24,1.339935,610032,27888
1469.43,1.331496,607345,28310
1473.67,1.338014,603789,27725
1476.85,1.336396,601175,27708
1480.02,1.339394,597737,27360
1483.19,1.335673,594479,27445
1486.36,1.332362,591232,27504
1489.52,1.334365,587853,27221
1492.68,1.341063,583875,26623
1496.89,1.335691,578062,26686
1500.03,1.339324,574159,26285
1503.18,1.335542,570285,26336
1506.32,1.340232,565444,25832
1509.45,1.338241,560571,25727
1512.58,1.340375,555821,25384
1515.71,1.336605,550344,25353
1519.87,1.341993,543983,24751
1522.99,1.336807,538764,24808
1526.1,1.336815,533692,24574
1529.21,1.341745,527902,24033
1532.32,1.334551,521886,24156
1535.42,1.339625,515888,23601
1538.51,1.339254,509987,23351
1541.6,1.330311,503936,23554
1545.72,1.342000,494694,22508
1548.8,1.339420,488378,22353
1551.88,1.338877,481832,22081
1554.95,1.332704,474989,22079
1558.02,1.333017,467818,21730
1561.08,1.341455,460730,20989
1564.15,1.340745,454170,20724
1568.22,1.339615,444181,20321
1571.27,1.334368,436947,20233
1574.32,1.334646,429598,19880
1577.36,1.337775,422039,19390
1580.4,1.330152,414375,19375
1583.43,1.331227,406354,18953
1586.46,1.342219,398475,18121
1590.49,1.339778,388982,17789
1593.51,1.340367,380708,17387
1596.53,1.334753,372727,17244
1599.54,1.329038,365060,17113
1602.55,1.324748,357543,16927
1605.55,1.336157,349495,16117
1608.55,1.325936,341154,16107
1612.54,1.329952,330877,15478
1615.53,1.328346,322904,15161
1618.51,1.334951,315116,14572
1621.49,1.336290,307217,14163
1624.47,1.329466,299481,14025
1627.44,1.323004,292112,13885
1630.41,1.321818,284245,13548
1634.36,1.336301,274079,12635
1637.32,1.319470,266916,12791
1640.27,1.316443,259612,12528
1643.22,1.323186,251804,11964
1646.16,1.318415,244348,11738
1649.1,1.323051,236703,11250
1652.04,1.319561,228171,10932
1655.95,1.319666,215408,10318
1658.88,1.318052,204937,9853
1661.8,1.321997,193395,9214
1664.72,1.338583,179728,8242
1667.63,1.345368,163642,7388
1670.54,1.323108,146312,6953
1673.44,1.336563,128451,5918
1677.31,1.389975,105080,4281
1680.21,1.344705,88906,4020
1683.1,1.339326,75033,3435
1685.99,1.333088,63520,2950
1688.87,1.386679,53714,2205
1691.75,1.233609,45653,2666
1694.62,1.375104,39137,1650
1697.49,1.300465,33776,1691
1701.31,1.337930,28175,1294