File: samples/unknown/Column 1_078017_20241121_164125.csv
Method:,Column 1,,
Host Date-Time:,21/11/24 @ 16:41:25,,
Header Version:,1,,
System Temp (C):,29.61,,
Detector Temp (C):,24.86,,
Humidity (%):,7.11,,
Lamp PD:,3813,,
Shift Vector Coefficients:,-10.5391,0.0761263,-0.000134223,,
Pixel to Wavelength Coefficients:,1775.68,-0.916766,-0.000235065,,
Serial Number:,5510004,,
Scan Config Name:,Column 1,,
Scan Config Type:,Slew,,
Section 1,,
Start wavelength (nm):,900,,
End wavelength (nm):,1700,,
Pattern Pixel Width (nm):,   7.03,,,,
Exposure (ms):,  0.635,,,,
Digital Resolution:,228,,
Num Repeats:,6,,
PGA Gain:,64,,
Total Measurement Time in sec:,  2.705,,
Wavelength (nm),Absorbance (AU),Reference Signal (unitless),Sample Signal (unitless)
901.51,1.271044,108485,5812
905.376,1.313693,121306,5891
909.237,1.286936,131909,6813
913.095,1.293158,143299,7296
916.948,1.305261,156982,7773
922.079,1.299192,179937,9035
925.923,1.311385,200504,9789
929.762,1.318908,222660,10684
933.597,1.311398,244426,11933
937.427,1.285123,263972,13691
941.254,1.304690,281845,13974
945.076,1.312864,297271,14464
950.165,1.302112,315605,15741
953.978,1.304338,328029,16277
957.786,1.308531,340470,16732
961.59,1.311228,352317,17207
965.389,1.304701,363056,18000
969.185,1.298989,373162,18746
972.976,1.301566,382632,19108
976.763,1.313990,391202,18985
981.806,1.307580,400190,19710
985.583,1.305986,406088,20074
989.355,1.303730,410162,20381
993.124,1.306522,412868,20384
996.888,1.305120,414263,20519
1000.65,1.307237,415476,20479
1004.4,1.306965,415479,20492
1009.41,1.316867,414358,19976
1013.15,1.301307,412923,20633
1016.89,1.304086,411526,20432
1020.63,1.301844,409066,20415
1024.36,1.309392,406777,19951
1028.09,1.306114,404427,19986
1031.82,1.315009,401911,19459
1036.78,1.305622,398410,19711
1040.49,1.307929,396204,19498
1044.2,1.310221,394236,19299
1047.91,1.308924,392042,19249
1051.61,1.308563,389823,19156
1055.31,1.311095,388234,18967
1059,1.309423,387599,19009
1063.92,1.308927,386688,18986
1067.61,1.315093,386598,18714
1071.29,1.314092,387377,18795
1074.96,1.317775,388536,18692
1078.63,1.307806,389855,19191
1082.3,1.307489,391215,19272
1085.96,1.312099,393215,19166
1090.84,1.312366,396270,19303
1094.49,1.312038,398760,19439
1098.14,1.311185,400987,19586
1101.79,1.316230,403477,19480
1105.43,1.313061,406116,19751
1109.06,1.310051,407701,19966
1112.7,1.317463,409859,19732
1117.53,1.313000,412494,20064
1121.15,1.314865,414909,20095
1124.77,1.311753,416559,20320
1128.38,1.318662,418532,20094
1131.99,1.308747,419956,20628
1135.6,1.305610,421946,20876
1139.2,1.321248,423881,20230
1143.99,1.322843,426786,20294
1147.58,1.317907,428617,20614
1151.17,1.321012,431169,20589
1154.75,1.319464,433579,20778
1158.33,1.319375,436264,20911
1161.91,1.315604,439132,21232
1165.48,1.321604,442389,21096
1169.04,1.318817,446101,21410
1173.79,1.316176,451929,21822
1177.34,1.308277,456026,22424
1180.9,1.317343,461306,22215
1184.44,1.316434,467657,22568
1187.99,1.319151,473969,22730
1191.52,1.316992,479856,23127
1195.06,1.319109,487372,23375
1199.76,1.318698,497347,23876
1203.29,1.320249,504311,24124
1206.81,1.322852,511507,24322
1210.33,1.327060,519078,24444
1213.84,1.315933,527163,25469
1217.35,1.322057,534208,25448
1220.85,1.323483,540472,25662
1225.51,1.320830,549929,26271
1229.01,1.323194,556888,26459
1232.5,1.319349,562180,26948
1235.98,1.323867,567975,26944
1239.46,1.314485,574815,27864
1242.94,1.326331,582782,27490
1246.41,1.325415,591476,27959
1251.03,1.324424,604016,28617
1254.5,1.328364,612289,28747
1257.96,1.325474,619125,29262
1261.41,1.321352,624551,29800
1264.86,1.323702,629900,29893
1268.31,1.328168,634345,29796
1271.75,1.331753,638574,29748
1276.33,1.328816,642499,30134
1279.76,1.325570,645905,30521
1283.19,1.327438,648307,30503
1286.61,1.325027,650446,30774
1290.03,1.331619,652132,30389
1293.44,1.328618,653907,30683
1296.85,1.328639,655963,30778
1301.39,1.332373,657349,30579
1304.8,1.332752,657558,30562
1308.19,1.329212,658515,30857
1311.58,1.328966,658804,30888
1314.97,1.330455,659011,30792
1318.36,1.333153,658272,30567
1321.73,1.330819,658022,30720
1326.23,1.332759,657870,30576
1329.6,1.336727,656482,30234
1332.97,1.329493,654926,30669
1336.33,1.330357,653727,30552
1339.69,1.332592,652497,30338
1343.04,1.332345,649913,30235
1346.39,1.327967,647671,30436
1349.73,1.331769,645338,30062
1354.18,1.326495,641175,30233
1357.52,1.327840,638376,30008
1360.85,1.329385,635805,29781
1364.17,1.334242,633413,29339
1367.49,1.329255,631026,29566
1370.81,1.328467,628050,29480
1374.12,1.330551,625034,29198
1378.54,1.325344,620272,29325
1381.84,1.332872,616892,28664
1385.14,1.327508,613613,28866
1388.43,1.330322,611526,28582
1391.72,1.330896,610663,28504
1395.01,1.331439,610634,28467
1398.29,1.330628,611700,28570
1402.66,1.328209,614051,28840
1405.93,1.329699,616268,28845
1409.2,1.330383,617795,28871
1412.46,1.333280,618872,28729
1415.72,1.330225,619795,28975
1418.98,1.330985,620495,28957
1422.23,1.331264,621087,28966
1426.56,1.329625,621375,29089
1429.8,1.332489,621616,28909
1433.04,1.335636,622129,28724
1436.27,1.332892,621526,28878
1439.5,1.333175,621113,28840
1442.72,1.330998,620921,28976
1445.94,1.338758,620270,28433
1450.23,1.329479,618860,28981
1453.44,1.337549,617697,28394
1456.64,1.332036,616264,28690
1459.85,1.333037,614413,28538
1463.04,1.340230,612307,27973
1466.24,1.339002,610032,27948
1469.43,1.334250,607345,28131
1473.67,1.330082,603789,28236
1476.85,1.334347,601175,27839
1480.02,1.338237,597737,27433
1483.19,1.332253,594479,27662
1486.36,1.338484,591232,27119
1489.52,1.339323,587853,26912
1492.68,1.336826,583875,26884
1496.89,1.334180,578062,26779
1500.03,1.338350,574159,26344
1503.18,1.332322,570285,26532
1506.32,1.334055,565444,26202
1509.45,1.334192,560571,25968
1512.58,1.332996,555821,25819
1515.71,1.339079,550344,25209
1519.87,1.333634,543983,25232
1522.99,1.335985,538764,24855
1526.1,1.335368,533692,24656
1529.21,1.336786,527902,24309
1532.32,1.337889,521886,23971
1535.42,1.337954,515888,23692
1538.51,1.342821,509987,23160
1541.6,1.343965,503936,22825
1545.72,1.329823,494694,23148
1548.8,1.332348,488378,22720
1551.88,1.341046,481832,21971
1554.95,1.331898,474989,22120
1558.02,1.331481,467818,21807
1561.08,1.341227,460730,21000
1564.15,1.331785,454170,21156
1568.22,1.332514,444181,20656
1571.27,1.329884,436947,20443
1574.32,1.332706,429598,19969
1577.36,1.340178,422039,19283
1580.4,1.342682,414375,18824
1583.43,1.331869,406354,18925
1586.46,1.338069,398475,18295
1590.49,1.330527,388982,18172
1593.51,1.331467,380708,17747
1596.53,1.330642,372727,17408
1599.54,1.328734,365060,17125
1602.55,1.331992,357543,16647
1605.55,1.322967,349495,16614
1608.55,1.326259,341154,16095
1612.54,1.332654,330877,15382
1615.53,1.320370,322904,15442
1618.51,1.323684,315116,14955
1621.49,1.330987,307217,14337
1624.47,1.330055,299481,14006
1627.44,1.326300,292112,13780
1630.41,1.326426,284245,13405
1634.36,1.326781,274079,12915
1637.32,1.315448,266916,12910
1640.27,1.330894,259612,12118
1643.22,1.316987,251804,12136
1646.16,1.322578,244348,11626
1649.1,1.312337,236703,11531
1652.04,1.315961,228171,11023
1655.95,1.311990,215408,10502
1658.88,1.321815,204937,9768
1661.8,1.327499,193395,9098
1664.72,1.337741,179728,8258
1667.63,1.330404,163642,7647
1670.54,1.323483,146312,6947
1673.44,1.351645,128451,5716
1677.31,1.350070,105080,4693
1680.21,1.357533,88906,3903
1683.1,1.364975,75033,3238
1685.99,1.325066,63520,3005
1688.87,1.315950,53714,2595
1691.75,1.308446,45653,2244
1694.62,1.303668,39137,1945
1697.49,1.299695,33776,1694
1701.31,1.196768,28175,1791