File: samples/unknown/Column 1_078106_20241121_164545.csv
Method:,Column 1,,
Host Date-Time:,21/11/24 @ 16:45:45,,
Header Version:,1,,
System Temp (C):,32.47,,
Detector Temp (C):,27.64,,
Humidity (%):,4.01,,
Lamp PD:,3807,,
Shift Vector Coefficients:,-10.5391,0.0761263,-0.000134223,,
Pixel to Wavelength Coefficients:,1775.68,-0.916766,-0.000235065,,
Serial Number:,5510004,,
Scan Config Name:,Column 1,,
Scan Config Type:,Slew,,
Section 1,,
Start wavelength (nm):,900,,
End wavelength (nm):,1700,,
Pattern Pixel Width (nm):,   7.03,,,,
Exposure (ms):,  0.635,,,,
Digital Resolution:,228,,
Num Repeats:,6,,
PGA Gain:,64,,
Total Measurement Time in sec:,  2.723,,
Wavelength (nm),Absorbance (AU),Reference Signal (unitless),Sample Signal (unitless)
901.51,1.324407,108485,5140
905.376,1.305008,121306,6010
909.237,1.301587,131909,6587
913.095,1.318781,143299,6878
916.948,1.329444,156982,7352
922.079,1.333642,179937,8346
925.923,1.314814,200504,9712
929.762,1.321068,222660,10631
933.597,1.310670,244426,11953
937.427,1.311575,263972,12882
941.254,1.327107,281845,13271
945.076,1.312114,297271,14489
950.165,1.302250,315605,15736
953.978,1.301492,328029,16384
957.786,1.302064,340470,16983
961.59,1.321961,352317,16787
965.389,1.302535,363056,18090
969.185,1.313284,373162,18139
972.976,1.307562,382632,18846
976.763,1.301677,391202,19531
981.806,1.305426,400190,19808
985.583,1.313053,406088,19750
989.355,1.309392,410162,20117
993.124,1.308529,412868,20290
996.888,1.307412,414263,20411
1000.65,1.299815,415476,20832
1004.4,1.309622,415479,20367
1009.41,1.309409,414358,20322
1013.15,1.319467,412923,19788
1016.89,1.311201,411526,20100
1020.63,1.311829,409066,19951
1024.36,1.311202,406777,19868
1028.09,1.315050,404427,19579
1031.82,1.311431,401911,19620
1036.78,1.318298,398410,19144
1040.49,1.309334,396204,19435
1044.2,1.309569,394236,19328
1047.91,1.316434,392042,18919
1051.61,1.311771,389823,19015
1055.31,1.318042,388234,18666
1059,1.313994,387599,18810
1063.92,1.312856,386688,18815
1067.61,1.321428,386598,18443
1071.29,1.316827,387377,18677
1074.96,1.312901,388536,18903
1078.63,1.311487,389855,19029
1082.3,1.307534,391215,19270
1085.96,1.307814,393215,19356
1090.84,1.321323,396270,18909
1094.49,1.320657,398760,19057
1098.14,1.311451,400987,19574
1101.79,1.314006,403477,19580
1105.43,1.326776,406116,19137
1109.06,1.316935,407701,19652
1112.7,1.322266,409859,19515
1117.53,1.321635,412494,19669
1121.15,1.314541,414909,20110
1124.77,1.312287,416559,20295
1128.38,1.322657,418532,19910
1131.99,1.319058,419956,20144
1135.6,1.319863,421946,20202
1139.2,1.319791,423881,20298
1143.99,1.319432,426786,20454
1147.58,1.328053,428617,20138
1151.17,1.310756,431169,21081
1154.75,1.314291,433579,21027
1158.33,1.327086,436264,20543
1161.91,1.323114,439132,20868
1165.48,1.322305,442389,21062
1169.04,1.321135,446101,21296
1173.79,1.314170,451929,21923
1177.34,1.322530,456026,21700
1180.9,1.324021,461306,21876
1184.44,1.318228,467657,22475
1187.99,1.322719,473969,22544
1191.52,1.319402,479856,22999
1195.06,1.321288,487372,23258
1199.76,1.327184,497347,23414
1203.29,1.325228,504311,23849
1206.81,1.327177,511507,24081
1210.33,1.321061,519078,24784
1213.84,1.327949,527163,24774
1217.35,1.320438,534208,25543
1220.85,1.318669,540472,25948
1225.51,1.325250,549929,26005
1229.01,1.325961,556888,26291
1232.5,1.316090,562180,27151
1235.98,1.321440,567975,27095
1239.46,1.322301,574815,27367
1242.94,1.325858,582782,27520
1246.41,1.328893,591476,27736
1251.03,1.325671,604016,28535
1254.5,1.327112,612289,28830
1257.96,1.329980,619125,28960
1261.41,1.326910,624551,29421
1264.86,1.331072,629900,29390
1268.31,1.329189,634345,29726
1271.75,1.327439,638574,30045
1276.33,1.330882,642499,29991
1279.76,1.332252,645905,30055
1283.19,1.329250,648307,30376
1286.61,1.328442,650446,30533
1290.03,1.331633,652132,30388
1293.44,1.332700,653907,30396
1296.85,1.329218,655963,30737
1301.39,1.331408,657349,30647
1304.8,1.334832,657558,30416
1308.19,1.331017,658515,30729
1311.58,1.334044,658804,30529
1314.97,1.332774,659011,30628
1318.36,1.327717,658272,30952
1321.73,1.331074,658022,30702
1326.23,1.331483,657870,30666
1329.6,1.333636,656482,30450
1332.97,1.331551,654926,30524
1336.33,1.333868,653727,30306
1339.69,1.342583,652497,29648
1343.04,1.333539,649913,30152
1346.39,1.332788,647671,30100
1349.73,1.339200,645338,29552
1354.18,1.331262,641175,29903
1357.52,1.334049,638376,29582
1360.85,1.326362,635805,29989
1364.17,1.334034,633413,29353
1367.49,1.325991,631026,29789
1370.81,1.324668,628050,29739
1374.12,1.332145,625034,29091
1378.54,1.325848,620272,29291
1381.84,1.330741,616892,28805
1385.14,1.334454,613613,28408
1388.43,1.329245,611526,28653
1391.72,1.323359,610663,29003
1395.01,1.328550,610634,28657
1398.29,1.329202,611700,28664
1402.66,1.326526,614051,28952
1405.93,1.330981,616268,28760
1409.2,1.335573,617795,28528
1412.46,1.331666,618872,28836
1415.72,1.333897,619795,28731
1418.98,1.330280,620495,29004
1422.23,1.332029,621087,28915
1426.56,1.339669,621375,28424
1429.8,1.331709,621616,28961
1433.04,1.329376,622129,29141
1436.27,1.336213,621526,28658
1439.5,1.331732,621113,28936
1442.72,1.338359,620921,28489
1445.94,1.336427,620270,28586
1450.23,1.334165,618860,28670
1453.44,1.338222,617697,28350
1456.64,1.339548,616264,28198
1459.85,1.334699,614413,28429
1463.04,1.336074,612307,28242
1466.24,1.334319,610032,28251
1469.43,1.336464,607345,27988
1473.67,1.335156,603789,27908
1476.85,1.336960,601175,27672
1480.02,1.341367,597737,27236
1483.19,1.339424,594479,27209
1486.36,1.340796,591232,26975
1489.52,1.338742,587853,26948
1492.68,1.338688,583875,26769
1496.89,1.338417,578062,26519
1500.03,1.336410,574159,26462
1503.18,1.335427,570285,26343
1506.32,1.343031,565444,25666
1509.45,1.344499,560571,25359
1512.58,1.336729,555821,25598
1515.71,1.339079,550344,25209
1519.87,1.365165,543983,23465
1522.99,1.341666,538764,24532
1526.1,1.336444,533692,24595
1529.21,1.338953,527902,24188
1532.32,1.342956,521886,23693
1535.42,1.334121,515888,23902
1538.51,1.339012,509987,23364
1541.6,1.345700,503936,22734
1545.72,1.339038,494694,22662
1548.8,1.338082,488378,22422
1551.88,1.342352,481832,21905
1554.95,1.337093,474989,21857
1558.02,1.341310,467818,21319
1561.08,1.342408,460730,20943
1564.15,1.339343,454170,20791
1568.22,1.337526,444181,20419
1571.27,1.339182,436947,20010
1574.32,1.344411,429598,19438
1577.36,1.330380,422039,19723
1580.4,1.332174,414375,19285
1583.43,1.334470,406354,18812
1586.46,1.328374,398475,18708
1590.49,1.336882,388982,17908
1593.51,1.332791,380708,17693
1596.53,1.323123,372727,17712
1599.54,1.332554,365060,16975
1602.55,1.335239,357543,16523
1605.55,1.319322,349495,16754
1608.55,1.326989,341154,16068
1612.54,1.331104,330877,15437
1615.53,1.326744,322904,15217
1618.51,1.318000,315116,15152
1621.49,1.330200,307217,14363
1624.47,1.316291,299481,14457
1627.44,1.335602,292112,13488
1630.41,1.321786,284245,13549
1634.36,1.349456,274079,12258
1637.32,1.331764,266916,12434
1640.27,1.312475,259612,12643
1643.22,1.314063,251804,12218
1646.16,1.303468,244348,12149
1649.1,1.313959,236703,11488
1652.04,1.341102,228171,10403
1655.95,1.320298,215408,10303
1658.88,1.323329,204937,9734
1661.8,1.296995,193395,9760
1664.72,1.317650,179728,8649
1667.63,1.318196,163642,7865
1670.54,1.294935,146312,7419
1673.44,1.261968,128451,7027
1677.31,1.254067,105080,5854
1680.21,1.277758,88906,4690
1683.1,1.306230,75033,3707
1685.99,1.299256,63520,3189
1688.87,1.334761,53714,2485
1691.75,1.305745,45653,2258
1694.62,1.241371,39137,2245
1697.49,1.236574,33776,1959
1701.31,1.220951,28175,1694