File: samples/unknown/Column 1_078108_20241121_164551.csv
Method:,Column 1,,
Host Date-Time:,21/11/24 @ 16:45:51,,
Header Version:,1,,
System Temp (C):,32.49,,
Detector Temp (C):,27.76,,
Humidity (%):,4.1,,
Lamp PD:,3807,,
Shift Vector Coefficients:,-10.5391,0.0761263,-0.000134223,,
Pixel to Wavelength Coefficients:,1775.68,-0.916766,-0.000235065,,
Serial Number:,5510004,,
Scan Config Name:,Column 1,,
Scan Config Type:,Slew,,
Section 1,,
Start wavelength (nm):,900,,
End wavelength (nm):,1700,,
Pattern Pixel Width (nm):,   7.03,,,,
Exposure (ms):,  0.635,,,,
Digital Resolution:,228,,
Num Repeats:,6,,
PGA Gain:,64,,
Total Measurement Time in sec:,  2.707,,
Wavelength (nm),Absorbance (AU),Reference Signal (unitless),Sample Signal (unitless)
901.51,1.304265,108485,5384
905.376,1.323988,121306,5753
909.237,1.329778,131909,6173
913.095,1.328422,143299,6727
916.948,1.310771,156982,7675
922.079,1.320875,179937,8595
925.923,1.320350,200504,9589
929.762,1.321640,222660,10617
933.597,1.318886,244426,11729
937.427,1.312148,263972,12865
941.254,1.313100,281845,13706
945.076,1.315333,297271,14382
950.165,1.326191,315605,14892
953.978,1.305005,328029,16252
957.786,1.307494,340470,16772
961.59,1.309088,352317,17292
965.389,1.325153,363056,17172
969.185,1.307434,373162,18385
972.976,1.306825,382632,18878
976.763,1.311959,391202,19074
981.806,1.306875,400190,19742
985.583,1.303677,406088,20181
989.355,1.308788,410162,20145
993.124,1.320574,412868,19735
996.888,1.315465,414263,20036
1000.65,1.314206,415476,20153
1004.4,1.305273,415479,20572
1009.41,1.315955,414358,20018
1013.15,1.319116,412923,19804
1016.89,1.321521,411526,19628
1020.63,1.317768,409066,19680
1024.36,1.309305,406777,19955
1028.09,1.311185,404427,19754
1031.82,1.311387,401911,19622
1036.78,1.310652,398410,19484
1040.49,1.315410,396204,19165
1044.2,1.319777,394236,18879
1047.91,1.312276,392042,19101
1051.61,1.309857,389823,19099
1055.31,1.304708,388234,19248
1059,1.307167,387599,19108
1063.92,1.309889,386688,18944
1067.61,1.307433,386598,19047
1071.29,1.317339,387377,18655
1074.96,1.314558,388536,18831
1078.63,1.323121,389855,18526
1082.3,1.321434,391215,18663
1085.96,1.313347,393215,19111
1090.84,1.318096,396270,19050
1094.49,1.319792,398760,19095
1098.14,1.314836,400987,19422
1101.79,1.312699,403477,19639
1105.43,1.309121,406116,19931
1109.06,1.323033,407701,19378
1112.7,1.314786,409859,19854
1117.53,1.309636,412494,20220
1121.15,1.317705,414909,19964
1124.77,1.326579,416559,19638
1128.38,1.324012,418532,19848
1131.99,1.323261,419956,19950
1135.6,1.313863,421946,20483
1139.2,1.320755,423881,20253
1143.99,1.321795,426786,20343
1147.58,1.322887,428617,20379
1151.17,1.325742,431169,20366
1154.75,1.317234,433579,20885
1158.33,1.322167,436264,20777
1161.91,1.318869,439132,21073
1165.48,1.319161,442389,21215
1169.04,1.317824,446101,21459
1173.79,1.317431,451929,21759
1177.34,1.330121,456026,21324
1180.9,1.320246,461306,22067
1184.44,1.318672,467657,22452
1187.99,1.315820,473969,22905
1191.52,1.314632,479856,23253
1195.06,1.325642,487372,23026
1199.76,1.324079,497347,23582
1203.29,1.322180,504311,24017
1206.81,1.325809,511507,24157
1210.33,1.326084,519078,24499
1213.84,1.330146,527163,24649
1217.35,1.323407,534208,25369
1220.85,1.322502,540472,25720
1225.51,1.324716,549929,26037
1229.01,1.327433,556888,26202
1232.5,1.326974,562180,26479
1235.98,1.320112,567975,27178
1239.46,1.316077,574815,27762
1242.94,1.321368,582782,27806
1246.41,1.323989,591476,28051
1251.03,1.321189,604016,28831
1254.5,1.323213,612289,29090
1257.96,1.331512,619125,28858
1261.41,1.325702,624551,29503
1264.86,1.331190,629900,29382
1268.31,1.325421,634345,29985
1271.75,1.327989,638574,30007
1276.33,1.324556,642499,30431
1279.76,1.337266,645905,29710
1283.19,1.331702,648307,30205
1286.61,1.330981,650446,30355
1290.03,1.329253,652132,30555
1293.44,1.329468,653907,30623
1296.85,1.337981,655963,30123
1301.39,1.334594,657349,30423
1304.8,1.330541,657558,30718
1308.19,1.330890,658515,30738
1311.58,1.329374,658804,30859
1314.97,1.333754,659011,30559
1318.36,1.331550,658272,30680
1321.73,1.336211,658022,30341
1326.23,1.334196,657870,30475
1329.6,1.331601,656482,30593
1332.97,1.328630,654926,30730
1336.33,1.334441,653727,30266
1339.69,1.330236,652497,30503
1343.04,1.331212,649913,30314
1346.39,1.333712,647671,30036
1349.73,1.333332,645338,29954
1354.18,1.330942,641175,29925
1357.52,1.333550,638376,29616
1360.85,1.331255,635805,29653
1364.17,1.333916,633413,29361
1367.49,1.326809,631026,29733
1370.81,1.325530,628050,29680
1374.12,1.331354,625034,29144
1378.54,1.331790,620272,28893
1381.84,1.329567,616892,28883
1385.14,1.328005,613613,28833
1388.43,1.334030,611526,28339
1391.72,1.333402,610663,28340
1395.01,1.336673,610634,28126
1398.29,1.328853,611700,28687
1402.66,1.324416,614051,29093
1405.93,1.335794,616268,28443
1409.2,1.330022,617795,28895
1412.46,1.333885,618872,28689
1415.72,1.333278,619795,28772
1418.98,1.336722,620495,28577
1422.23,1.335346,621087,28695
1426.56,1.335805,621375,28678
1429.8,1.337764,621616,28560
1433.04,1.335878,622129,28708
1436.27,1.339866,621526,28418
1439.5,1.337017,621113,28586
1442.72,1.340284,620921,28363
1445.94,1.334396,620270,28720
1450.23,1.339852,618860,28297
1453.44,1.353945,617697,27342
1456.64,1.340891,616264,28111
1459.85,1.333235,614413,28525
1463.04,1.336197,612307,28234
1466.24,1.332233,610032,28387
1469.43,1.342039,607345,27631
1473.67,1.337450,603789,27761
1476.85,1.336333,601175,27712
1480.02,1.337493,597737,27480
1483.19,1.336132,594479,27416
1486.36,1.339013,591232,27086
1489.52,1.337792,587853,27007
1492.68,1.340981,583875,26628
1496.89,1.338417,578062,26519
1500.03,1.338317,574159,26346
1503.18,1.345450,570285,25742
1506.32,1.343743,565444,25624
1509.45,1.344636,560571,25351
1512.58,1.335053,555821,25697
1515.71,1.337497,550344,25301
1519.87,1.340994,543983,24808
1522.99,1.341559,538764,24538
1526.1,1.339421,533692,24427
1529.21,1.343592,527902,23931
1532.32,1.339632,521886,23875
1535.42,1.335450,515888,23829
1538.51,1.339142,509987,23357
1541.6,1.333364,503936,23389
1545.72,1.329617,494694,23159
1548.8,1.344226,488378,22107
1551.88,1.333851,481832,22338
1554.95,1.344084,474989,21508
1558.02,1.338245,467818,21470
1561.08,1.339782,460730,21070
1564.15,1.343077,454170,20613
1568.22,1.338953,444181,20352
1571.27,1.334197,436947,20241
1574.32,1.344366,429598,19440
1577.36,1.333806,422039,19568
1580.4,1.333369,414375,19232
1583.43,1.332075,406354,18916
1586.46,1.334146,398475,18461
1590.49,1.333958,388982,18029
1593.51,1.331908,380708,17729
1596.53,1.331541,372727,17372
1599.54,1.320843,365060,17439
1602.55,1.333770,357543,16579
1605.55,1.334892,349495,16164
1608.55,1.340021,341154,15593
1612.54,1.318898,330877,15877
1615.53,1.327316,322904,15197
1618.51,1.335757,315116,14545
1621.49,1.333113,307217,14267
1624.47,1.319154,299481,14362
1627.44,1.324727,292112,13830
1630.41,1.330462,284245,13281
1634.36,1.318686,274079,13158
1637.32,1.316324,266916,12884
1640.27,1.320203,259612,12420
1643.22,1.323223,251804,11963
1646.16,1.312973,244348,11886
1649.1,1.303243,236703,11775
1652.04,1.317342,228171,10988
1655.95,1.323641,215408,10224
1658.88,1.287956,204937,10560
1661.8,1.300660,193395,9678
1664.72,1.306203,179728,8880
1667.63,1.314129,163642,7939
1670.54,1.313410,146312,7110
1673.44,1.287027,128451,6633
1677.31,1.269011,105080,5656
1680.21,1.287402,88906,4587
1683.1,1.285526,75033,3888
1685.99,1.292231,63520,3241
1688.87,1.357912,53714,2356
1691.75,1.269595,45653,2454
1694.62,1.321909,39137,1865
1697.49,1.301493,33776,1687
1701.31,1.391438,28175,1144