File: samples/unknown/Column 1_078046_20241121_164250.csv
Method:,Column 1,,
Host Date-Time:,21/11/24 @ 16:42:50,,
Header Version:,1,,
System Temp (C):,30.7,,
Detector Temp (C):,25.49,,
Humidity (%):,5.36,,
Lamp PD:,3810,,
Shift Vector Coefficients:,-10.5391,0.0761263,-0.000134223,,
Pixel to Wavelength Coefficients:,1775.68,-0.916766,-0.000235065,,
Serial Number:,5510004,,
Scan Config Name:,Column 1,,
Scan Config Type:,Slew,,
Section 1,,
Start wavelength (nm):,900,,
End wavelength (nm):,1700,,
Pattern Pixel Width (nm):,   7.03,,,,
Exposure (ms):,  0.635,,,,
Digital Resolution:,228,,
Num Repeats:,6,,
PGA Gain:,64,,
Total Measurement Time in sec:,  2.706,,
Wavelength (nm),Absorbance (AU),Reference Signal (unitless),Sample Signal (unitless)
901.51,1.300010,108485,5437
905.376,1.325349,121306,5735
909.237,1.317296,131909,6353
913.095,1.340533,143299,6542
916.948,1.312359,156982,7647
922.079,1.311923,179937,8774
925.923,1.310100,200504,9818
929.762,1.304123,222660,11054
933.597,1.299763,244426,12257
937.427,1.318199,263972,12687
941.254,1.310887,281845,13776
945.076,1.326590,297271,14014
950.165,1.324038,315605,14966
953.978,1.309356,328029,16090
957.786,1.319678,340470,16308
961.59,1.315540,352317,17037
965.389,1.314116,363056,17614
969.185,1.315709,373162,18038
972.976,1.315633,382632,18499
976.763,1.317459,391202,18834
981.806,1.307073,400190,19733
985.583,1.306419,406088,20054
989.355,1.308142,410162,20175
993.124,1.304630,412868,20473
996.888,1.314837,414263,20065
1000.65,1.309171,415476,20388
1004.4,1.307050,415479,20488
1009.41,1.308875,414358,20347
1013.15,1.308437,412923,20297
1016.89,1.315762,411526,19890
1020.63,1.315260,409066,19794
1024.36,1.313569,406777,19760
1028.09,1.309211,404427,19844
1031.82,1.312850,401911,19556
1036.78,1.311723,398410,19436
1040.49,1.315002,396204,19183
1044.2,1.325054,394236,18651
1047.91,1.310122,392042,19196
1051.61,1.308721,389823,19149
1055.31,1.319814,388234,18590
1059,1.312680,387599,18867
1063.92,1.315589,386688,18697
1067.61,1.315976,386598,18676
1071.29,1.315874,387377,18718
1074.96,1.311227,388536,18976
1078.63,1.315431,389855,18857
1082.3,1.305690,391215,19352
1085.96,1.314279,393215,19070
1090.84,1.320497,396270,18945
1094.49,1.315650,398760,19278
1098.14,1.322302,400987,19091
1101.79,1.313430,403477,19606
1105.43,1.317548,406116,19548
1109.06,1.321020,407701,19468
1112.7,1.317970,409859,19709
1117.53,1.319675,412494,19758
1121.15,1.319253,414909,19893
1124.77,1.325409,416559,19691
1128.38,1.320851,418532,19993
1131.99,1.325028,419956,19869
1135.6,1.330152,421946,19729
1139.2,1.315299,423881,20509
1143.99,1.321219,426786,20370
1147.58,1.317339,428617,20641
1151.17,1.318677,431169,20700
1154.75,1.319339,433579,20784
1158.33,1.322125,436264,20779
1161.91,1.323677,439132,20841
1165.48,1.324330,442389,20964
1169.04,1.313534,446101,21672
1173.79,1.316933,451929,21784
1177.34,1.323171,456026,21668
1180.9,1.314848,461306,22343
1184.44,1.327880,467657,21981
1187.99,1.320030,473969,22684
1191.52,1.322320,479856,22845
1195.06,1.330192,487372,22786
1199.76,1.319918,497347,23809
1203.29,1.326797,504311,23763
1206.81,1.325916,511507,24151
1210.33,1.323680,519078,24635
1213.84,1.327616,527163,24793
1217.35,1.329215,534208,25032
1220.85,1.325433,540472,25547
1225.51,1.326186,549929,25949
1229.01,1.327052,556888,26225
1232.5,1.323624,562180,26684
1235.98,1.325385,567975,26850
1239.46,1.326318,574815,27115
1242.94,1.326000,582782,27511
1246.41,1.328189,591476,27781
1251.03,1.323575,604016,28673
1254.5,1.328213,612289,28757
1257.96,1.324155,619125,29351
1261.41,1.324306,624551,29598
1264.86,1.328744,629900,29548
1268.31,1.329160,634345,29728
1271.75,1.329860,638574,29878
1276.33,1.330534,642499,30015
1279.76,1.330795,645905,30156
1283.19,1.328564,648307,30424
1286.61,1.333967,650446,30147
1290.03,1.331362,652132,30407
1293.44,1.330079,653907,30580
1296.85,1.335451,655963,30299
1301.39,1.334009,657349,30464
1304.8,1.334190,657558,30461
1308.19,1.330834,658515,30742
1311.58,1.334172,658804,30520
1314.97,1.333441,659011,30581
1318.36,1.330998,658272,30719
1321.73,1.337601,658022,30244
1326.23,1.331568,657870,30660
1329.6,1.334464,656482,30392
1332.97,1.333819,654926,30365
1336.33,1.339319,653727,29928
1339.69,1.335868,652497,30110
1343.04,1.326127,649913,30671
1346.39,1.334392,647671,29989
1349.73,1.334421,645338,29879
1354.18,1.332527,641175,29816
1357.52,1.333081,638376,29648
1360.85,1.331724,635805,29621
1364.17,1.334301,633413,29335
1367.49,1.336005,631026,29110
1370.81,1.337111,628050,28899
1374.12,1.329614,625034,29261
1378.54,1.333069,620272,28808
1381.84,1.331934,616892,28726
1385.14,1.332000,613613,28569
1388.43,1.331890,611526,28479
1391.72,1.331979,610663,28433
1395.01,1.330327,610634,28540
1398.29,1.320442,611700,29248
1402.66,1.329914,614051,28727
1405.93,1.331661,616268,28715
1409.2,1.331045,617795,28827
1412.46,1.329862,618872,28956
1415.72,1.332268,619795,28839
1418.98,1.333693,620495,28777
1422.23,1.332044,621087,28914
1426.56,1.334837,621375,28742
1429.8,1.334582,621616,28770
1433.04,1.332547,622129,28929
1436.27,1.337944,621526,28544
1439.5,1.333808,621113,28798
1442.72,1.336473,620921,28613
1445.94,1.335396,620270,28654
1450.23,1.332200,618860,28800
1453.44,1.341868,617697,28113
1456.64,1.336800,616264,28377
1459.85,1.341318,614413,27999
1463.04,1.338974,612307,28054
1466.24,1.343359,610032,27669
1469.43,1.338143,607345,27880
1473.67,1.345327,603789,27262
1476.85,1.337997,601175,27606
1480.02,1.336799,597737,27524
1483.19,1.337592,594479,27324
1486.36,1.334626,591232,27361
1489.52,1.339613,587853,26894
1492.68,1.339630,583875,26711
1496.89,1.339401,578062,26459
1500.03,1.345012,574159,25943
1503.18,1.337724,570285,26204
1506.32,1.346122,565444,25484
1509.45,1.345991,560571,25272
1512.58,1.338736,555821,25480
1515.71,1.340563,550344,25123
1519.87,1.344421,543983,24613
1522.99,1.338649,538764,24703
1526.1,1.338941,533692,24454
1529.21,1.340662,527902,24093
1532.32,1.341729,521886,23760
1535.42,1.341913,515888,23477
1538.51,1.347136,509987,22931
1541.6,1.337974,503936,23142
1545.72,1.339326,494694,22647
1548.8,1.343637,488378,22137
1551.88,1.337581,481832,22147
1554.95,1.335704,474989,21927
1558.02,1.345445,467818,21117
1561.08,1.333947,460730,21355
1564.15,1.332134,454170,21139
1568.22,1.337568,444181,20417
1571.27,1.334090,436947,20246
1574.32,1.340806,429598,19600
1577.36,1.331769,422039,19660
1580.4,1.341208,414375,18888
1583.43,1.326622,406354,19155
1586.46,1.336056,398475,18380
1590.49,1.329572,388982,18212
1593.51,1.336612,380708,17538
1596.53,1.336798,372727,17163
1599.54,1.333861,365060,16924
1602.55,1.343358,357543,16217
1605.55,1.322340,349495,16638
1608.55,1.321456,341154,16274
1612.54,1.327713,330877,15558
1615.53,1.336033,322904,14895
1618.51,1.333909,315116,14607
1621.49,1.331563,307217,14318
1624.47,1.331702,299481,13953
1627.44,1.331787,292112,13607
1630.41,1.337816,284245,13058
1634.36,1.328095,274079,12876
1637.32,1.327592,266916,12554
1640.27,1.336703,259612,11957
1643.22,1.329402,251804,11794
1646.16,1.329165,244348,11451
1649.1,1.319974,236703,11330
1652.04,1.313486,228171,11086
1655.95,1.313440,215408,10467
1658.88,1.332482,204937,9531
1661.8,1.339257,193395,8855
1664.72,1.302599,179728,8954
1667.63,1.333710,163642,7589
1670.54,1.322109,146312,6969
1673.44,1.331601,128451,5986
1677.31,1.323158,105080,4993
1680.21,1.359205,88906,3888
1683.1,1.419190,75033,2858
1685.99,1.291428,63520,3247
1688.87,1.285574,53714,2783
1691.75,1.342033,45653,2077
1694.62,1.429725,39137,1455
1697.49,1.293080,33776,1720
1701.31,1.284620,28175,1463