File: samples/unknown/Column 1_078052_20241121_164307.csv
Method:,Column 1,,
Host Date-Time:,21/11/24 @ 16:43:7,,
Header Version:,1,,
System Temp (C):,30.9,,
Detector Temp (C):,25.69,,
Humidity (%):,5.37,,
Lamp PD:,3810,,
Shift Vector Coefficients:,-10.5391,0.0761263,-0.000134223,,
Pixel to Wavelength Coefficients:,1775.68,-0.916766,-0.000235065,,
Serial Number:,5510004,,
Scan Config Name:,Column 1,,
Scan Config Type:,Slew,,
Section 1,,
Start wavelength (nm):,900,,
End wavelength (nm):,1700,,
Pattern Pixel Width (nm):,   7.03,,,,
Exposure (ms):,  0.635,,,,
Digital Resolution:,228,,
Num Repeats:,6,,
PGA Gain:,64,,
Total Measurement Time in sec:,  2.706,,
Wavelength (nm),Absorbance (AU),Reference Signal (unitless),Sample Signal (unitless)
901.51,1.322973,108485,5157
905.376,1.328923,121306,5688
909.237,1.296474,131909,6665
913.095,1.316639,143299,6912
916.948,1.325095,156982,7426
922.079,1.306512,179937,8884
925.923,1.319354,200504,9611
929.762,1.300212,222660,11154
933.597,1.309763,244426,11978
937.427,1.313738,263972,12818
941.254,1.318809,281845,13527
945.076,1.318485,297271,14278
950.165,1.305435,315605,15621
953.978,1.311629,328029,16006
957.786,1.315412,340470,16469
961.59,1.304442,352317,17478
965.389,1.314288,363056,17607
969.185,1.308190,373162,18353
972.976,1.312545,382632,18631
976.763,1.316882,391202,18859
981.806,1.308440,400190,19671
985.583,1.308960,406088,19937
989.355,1.305716,410162,20288
993.124,1.315564,412868,19964
996.888,1.300446,414263,20741
1000.65,1.319366,415476,19915
1004.4,1.308408,415479,20424
1009.41,1.311358,414358,20231
1013.15,1.308972,412923,20272
1016.89,1.307394,411526,20277
1020.63,1.313945,409066,19854
1024.36,1.318365,406777,19543
1028.09,1.310746,404427,19774
1031.82,1.309840,401911,19692
1036.78,1.309984,398410,19514
1040.49,1.315365,396204,19167
1044.2,1.316272,394236,19032
1047.91,1.305441,392042,19404
1051.61,1.318376,389823,18728
1055.31,1.307333,388234,19132
1059,1.310086,387599,18980
1063.92,1.307466,386688,19050
1067.61,1.314027,386598,18760
1071.29,1.312730,387377,18854
1074.96,1.314166,388536,18848
1078.63,1.306066,389855,19268
1082.3,1.302960,391215,19474
1085.96,1.319296,393215,18851
1090.84,1.318370,396270,19038
1094.49,1.314637,398760,19323
1098.14,1.320599,400987,19166
1101.79,1.325218,403477,19081
1105.43,1.313677,406116,19723
1109.06,1.311336,407701,19907
1112.7,1.321421,409859,19553
1117.53,1.316652,412494,19896
1121.15,1.315535,414909,20064
1124.77,1.315595,416559,20141
1128.38,1.319095,418532,20074
1131.99,1.320462,419956,20079
1135.6,1.315797,421946,20392
1139.2,1.321141,423881,20235
1143.99,1.322864,426786,20293
1147.58,1.317739,428617,20622
1151.17,1.319202,431169,20675
1154.75,1.324933,433579,20518
1158.33,1.324808,436264,20651
1161.91,1.321121,439132,20964
1165.48,1.325243,442389,20920
1169.04,1.316752,446101,21512
1173.79,1.319793,451929,21641
1177.34,1.319936,456026,21830
1180.9,1.315061,461306,22332
1184.44,1.314744,467657,22656
1187.99,1.319189,473969,22728
1191.52,1.327753,479856,22561
1195.06,1.331816,487372,22701
1199.76,1.323582,497347,23609
1203.29,1.327309,504311,23735
1206.81,1.320164,511507,24473
1210.33,1.321552,519078,24756
1213.84,1.327949,527163,24774
1217.35,1.325105,534208,25270
1220.85,1.332771,540472,25119
1225.51,1.324616,549929,26043
1229.01,1.322145,556888,26523
1232.5,1.320446,562180,26880
1235.98,1.326389,567975,26788
1239.46,1.324528,574815,27227
1242.94,1.327803,582782,27397
1246.41,1.322042,591476,28177
1251.03,1.329477,604016,28286
1254.5,1.330150,612289,28629
1257.96,1.325549,619125,29257
1261.41,1.329724,624551,29231
1264.86,1.325478,629900,29771
1268.31,1.327410,634345,29848
1271.75,1.326919,638574,30081
1276.33,1.331737,642499,29932
1279.76,1.325570,645905,30521
1283.19,1.326713,648307,30554
1286.61,1.331296,650446,30333
1290.03,1.328855,652132,30583
1293.44,1.330988,653907,30516
1296.85,1.329812,655963,30695
1301.39,1.333211,657349,30520
1304.8,1.332355,657558,30590
1308.19,1.325624,658515,31113
1311.58,1.337859,658804,30262
1314.97,1.334166,659011,30530
1318.36,1.331437,658272,30688
1321.73,1.328423,658022,30890
1326.23,1.333044,657870,30556
1329.6,1.333008,656482,30494
1332.97,1.336142,654926,30203
1336.33,1.331025,653727,30505
1339.69,1.331519,652497,30413
1343.04,1.330997,649913,30329
1346.39,1.328795,647671,30378
1349.73,1.333187,645338,29964
1354.18,1.331960,641175,29855
1357.52,1.334548,638376,29548
1360.85,1.328380,635805,29850
1364.17,1.331012,633413,29558
1367.49,1.327525,631026,29684
1370.81,1.329824,628050,29388
1374.12,1.332518,625034,29066
1378.54,1.332196,620272,28866
1381.84,1.327437,616892,29025
1385.14,1.332182,613613,28557
1388.43,1.329624,611526,28628
1391.72,1.325776,610663,28842
1395.01,1.326524,610634,28791
1398.29,1.330370,611700,28587
1402.66,1.327953,614051,28857
1405.93,1.329488,616268,28859
1409.2,1.336457,617795,28470
1412.46,1.334022,618872,28680
1415.72,1.336551,619795,28556
1418.98,1.333814,620495,28769
1422.23,1.331759,621087,28933
1426.56,1.336032,621375,28663
1429.8,1.336246,621616,28660
1433.04,1.330974,622129,29034
1436.27,1.336441,621526,28643
1439.5,1.335561,621113,28682
1442.72,1.334232,620921,28761
1445.94,1.337477,620270,28517
1450.23,1.335758,618860,28565
1453.44,1.337947,617697,28368
1456.64,1.336862,616264,28373
1459.85,1.332429,614413,28578
1463.04,1.338495,612307,28085
1466.24,1.337420,610032,28050
1469.43,1.338517,607345,27856
1473.67,1.330651,603789,28199
1476.85,1.339305,601175,27523
1480.02,1.333936,597737,27706
1483.19,1.341552,594479,27076
1486.36,1.336758,591232,27227
1489.52,1.342790,587853,26698
1492.68,1.339142,583875,26741
1496.89,1.340584,578062,26387
1500.03,1.339837,574159,26254
1503.18,1.339884,570285,26074
1506.32,1.338537,565444,25933
1509.45,1.341104,560571,25558
1512.58,1.346526,555821,25027
1515.71,1.338321,550344,25253
1519.87,1.333135,543983,25261
1522.99,1.335880,538764,24861
1526.1,1.336426,533692,24596
1529.21,1.340789,527902,24086
1532.32,1.339014,521886,23909
1535.42,1.339092,515888,23630
1538.51,1.338121,509987,23412
1541.6,1.341044,503936,22979
1545.72,1.335431,494694,22851
1548.8,1.337617,488378,22446
1551.88,1.341066,481832,21970
1554.95,1.337670,474989,21828
1558.02,1.343721,467818,21201
1561.08,1.330846,460730,21508
1564.15,1.331888,454170,21151
1568.22,1.335594,444181,20510
1571.27,1.333939,436947,20253
1574.32,1.335652,429598,19834
1577.36,1.334450,422039,19539
1580.4,1.326069,414375,19558
1583.43,1.342344,406354,18474
1586.46,1.340115,398475,18209
1590.49,1.347512,388982,17475
1593.51,1.329441,380708,17830
1596.53,1.327733,372727,17525
1599.54,1.330334,365060,17062
1602.55,1.339359,357543,16367
1605.55,1.324250,349495,16565
1608.55,1.326502,341154,16086
1612.54,1.319528,330877,15854
1615.53,1.323446,322904,15333
1618.51,1.325634,315116,14888
1621.49,1.324284,307217,14560
1624.47,1.332262,299481,13935
1627.44,1.332394,292112,13588
1630.41,1.324132,284245,13476
1634.36,1.328669,274079,12859
1637.32,1.333549,266916,12383
1640.27,1.329606,259612,12154
1643.22,1.328666,251804,11814
1646.16,1.319007,244348,11722
1649.1,1.321010,236703,11303
1652.04,1.319919,228171,10923
1655.95,1.323259,215408,10233
1658.88,1.326868,204937,9655
1661.8,1.330757,193395,9030
1664.72,1.318303,179728,8636
1667.63,1.312382,163642,7971
1670.54,1.322296,146312,6966
1673.44,1.324192,128451,6089
1677.31,1.310472,105080,5141
1680.21,1.318401,88906,4271
1683.1,1.313793,75033,3643
1685.99,1.325211,63520,3004
1688.87,1.387467,53714,2201
1691.75,1.282345,45653,2383
1694.62,1.405631,39137,1538
1697.49,1.245533,33776,1919
1701.31,1.512346,28175,866