File: samples/unknown/Column 1_078065_20241121_164345.csv
Method:,Column 1,,
Host Date-Time:,21/11/24 @ 16:43:45,,
Header Version:,1,,
System Temp (C):,31.43,,
Detector Temp (C):,26.12,,
Humidity (%):,5.32,,
Lamp PD:,3809,,
Shift Vector Coefficients:,-10.5391,0.0761263,-0.000134223,,
Pixel to Wavelength Coefficients:,1775.68,-0.916766,-0.000235065,,
Serial Number:,5510004,,
Scan Config Name:,Column 1,,
Scan Config Type:,Slew,,
Section 1,,
Start wavelength (nm):,900,,
End wavelength (nm):,1700,,
Pattern Pixel Width (nm):,   7.03,,,,
Exposure (ms):,  0.635,,,,
Digital Resolution:,228,,
Num Repeats:,6,,
PGA Gain:,64,,
Total Measurement Time in sec:,  2.705,,
Wavelength (nm),Absorbance (AU),Reference Signal (unitless),Sample Signal (unitless)
901.51,1.309866,108485,5315
905.376,1.300407,121306,6074
909.237,1.325020,131909,6241
913.095,1.318402,143299,6884
916.948,1.316582,156982,7573
922.079,1.304950,179937,8916
925.923,1.305568,200504,9921
929.762,1.309221,222660,10925
933.597,1.320296,244426,11691
937.427,1.317823,263972,12698
941.254,1.318135,281845,13548
945.076,1.305658,297271,14706
950.165,1.318645,315605,15153
953.978,1.312444,328029,15976
957.786,1.299896,340470,17068
961.59,1.311506,352317,17196
965.389,1.311093,363056,17737
969.185,1.315204,373162,18059
972.976,1.309780,382632,18750
976.763,1.310641,391202,19132
981.806,1.304265,400190,19861
985.583,1.314374,406088,19690
989.355,1.303922,410162,20372
993.124,1.305841,412868,20416
996.888,1.306201,414263,20468
1000.65,1.312185,415476,20247
1004.4,1.306562,415479,20511
1009.41,1.315305,414358,20048
1013.15,1.314622,412923,20010
1016.89,1.304490,411526,20413
1020.63,1.308489,409066,20105
1024.36,1.308761,406777,19980
1028.09,1.306071,404427,19988
1031.82,1.299984,401911,20144
1036.78,1.311522,398410,19445
1040.49,1.313420,396204,19253
1044.2,1.302040,394236,19666
1047.91,1.303521,392042,19490
1051.61,1.307046,389823,19223
1055.31,1.309039,388234,19057
1059,1.317122,387599,18675
1063.92,1.310302,386688,18926
1067.61,1.313888,386598,18766
1071.29,1.309952,387377,18975
1074.96,1.318380,388536,18666
1078.63,1.314809,389855,18884
1082.3,1.309997,391215,19161
1085.96,1.315305,393215,19025
1090.84,1.315777,396270,19152
1094.49,1.314300,398760,19338
1098.14,1.311784,400987,19559
1101.79,1.316855,403477,19452
1105.43,1.315509,406116,19640
1109.06,1.305873,407701,20159
1112.7,1.313367,409859,19919
1117.53,1.309615,412494,20221
1121.15,1.319449,414909,19884
1124.77,1.310132,416559,20396
1128.38,1.317691,418532,20139
1131.99,1.313914,419956,20384
1135.6,1.311158,421946,20611
1139.2,1.311337,423881,20697
1143.99,1.320112,426786,20422
1147.58,1.319977,428617,20516
1151.17,1.313775,431169,20935
1154.75,1.319444,433579,20779
1158.33,1.317365,436264,21008
1161.91,1.318333,439132,21099
1165.48,1.314235,442389,21457
1169.04,1.320463,446101,21329
1173.79,1.319632,451929,21649
1177.34,1.309460,456026,22363
1180.9,1.318165,461306,22173
1184.44,1.320126,467657,22377
1187.99,1.318635,473969,22757
1191.52,1.316654,479856,23145
1195.06,1.320934,487372,23277
1199.76,1.318953,497347,23862
1203.29,1.321042,504311,24080
1206.81,1.324229,511507,24245
1210.33,1.317797,519078,24971
1213.84,1.329037,527163,24712
1217.35,1.329597,534208,25010
1220.85,1.325756,540472,25528
1225.51,1.329934,549929,25726
1229.01,1.322965,556888,26473
1232.5,1.320301,562180,26889
1235.98,1.322660,567975,27019
1239.46,1.321334,574815,27428
1242.94,1.347586,582782,26177
1246.41,1.325276,591476,27968
1251.03,1.320677,604016,28865
1254.5,1.319008,612289,29373
1257.96,1.328079,619125,29087
1261.41,1.325864,624551,29492
1264.86,1.326515,629900,29700
1268.31,1.330447,634345,29640
1271.75,1.323010,638574,30353
1276.33,1.327506,642499,30225
1279.76,1.323823,645905,30644
1283.19,1.330180,648307,30311
1286.61,1.327532,650446,30597
1290.03,1.333251,652132,30275
1293.44,1.325108,653907,30932
1296.85,1.330633,655963,30637
1301.39,1.326588,657349,30989
1304.8,1.328989,657558,30828
1308.19,1.326127,658515,31077
1311.58,1.335155,658804,30451
1314.97,1.329891,659011,30832
1318.36,1.327058,658272,30999
1321.73,1.340338,658022,30054
1326.23,1.330775,657870,30716
1329.6,1.332724,656482,30514
1332.97,1.332919,654926,30428
1336.33,1.337277,653727,30069
1339.69,1.327299,652497,30710
1343.04,1.328570,649913,30499
1346.39,1.330041,647671,30291
1349.73,1.335542,645338,29802
1354.18,1.326768,641175,30214
1357.52,1.328868,638376,29937
1360.85,1.324887,635805,30091
1364.17,1.334775,633413,29303
1367.49,1.330328,631026,29493
1370.81,1.332507,628050,29207
1374.12,1.328799,625034,29316
1378.54,1.329690,620272,29033
1381.84,1.328906,616892,28927
1385.14,1.319725,613613,29388
1388.43,1.326073,611526,28863
1391.72,1.327285,610663,28742
1395.01,1.315900,610634,29504
1398.29,1.322675,611700,29098
1402.66,1.329431,614051,28759
1405.93,1.325608,616268,29118
1409.2,1.330849,617795,28840
1412.46,1.328096,618872,29074
1415.72,1.328161,619795,29113
1418.98,1.336357,620495,28601
1422.23,1.330665,621087,29006
1426.56,1.332201,621375,28917
1429.8,1.339532,621616,28444
1433.04,1.326509,622129,29334
1436.27,1.333569,621526,28833
1439.5,1.331942,621113,28922
1442.72,1.331373,620921,28951
1445.94,1.336033,620270,28612
1450.23,1.333998,618860,28681
1453.44,1.334911,617697,28567
1456.64,1.338518,616264,28265
1459.85,1.335785,614413,28358
1463.04,1.333804,612307,28390
1466.24,1.337219,610032,28063
1469.43,1.332525,607345,28243
1473.67,1.337622,603789,27750
1476.85,1.336600,601175,27695
1480.02,1.330781,597737,27908
1483.19,1.335183,594479,27476
1486.36,1.333928,591232,27405
1489.52,1.338243,587853,26979
1492.68,1.338980,583875,26751
1496.89,1.340206,578062,26410
1500.03,1.333677,574159,26629
1503.18,1.338355,570285,26166
1506.32,1.334039,565444,26203
1509.45,1.341733,560571,25521
1512.58,1.343155,555821,25222
1515.71,1.338975,550344,25215
1519.87,1.335860,543983,25103
1522.99,1.339775,538764,24639
1526.1,1.334225,533692,24721
1529.21,1.341240,527902,24061
1532.32,1.332918,521886,24247
1535.42,1.341026,515888,23525
1538.51,1.338938,509987,23368
1541.6,1.335448,503936,23277
1545.72,1.334995,494694,22874
1548.8,1.333305,488378,22670
1551.88,1.332570,481832,22404
1554.95,1.337252,474989,21849
1558.02,1.333777,467818,21692
1561.08,1.335883,460730,21260
1564.15,1.338800,454170,20817
1568.22,1.338697,444181,20364
1571.27,1.338704,436947,20032
1574.32,1.328378,429598,20169
1577.36,1.337081,422039,19421
1580.4,1.336247,414375,19105
1583.43,1.333939,406354,18835
1586.46,1.339734,398475,18225
1590.49,1.326246,388982,18352
1593.51,1.330465,380708,17788
1596.53,1.334375,372727,17259
1599.54,1.330105,365060,17071
1602.55,1.325699,357543,16890
1605.55,1.330109,349495,16343
1608.55,1.327340,341154,16055
1612.54,1.328076,330877,15545
1615.53,1.322739,322904,15358
1618.51,1.326013,315116,14875
1621.49,1.320128,307217,14700
1624.47,1.318308,299481,14390
1627.44,1.316238,292112,14103
1630.41,1.322813,284245,13517
1634.36,1.323465,274079,13014
1637.32,1.314205,266916,12947
1640.27,1.317449,259612,12499
1643.22,1.314667,251804,12201
1646.16,1.312279,244348,11905
1649.1,1.316576,236703,11419
1652.04,1.314859,228171,11051
1655.95,1.305668,215408,10656
1658.88,1.327093,204937,9650
1661.8,1.301648,193395,9656
1664.72,1.317700,179728,8648
1667.63,1.325210,163642,7739
1670.54,1.292250,146312,7465
1673.44,1.303917,128451,6380
1677.31,1.322463,105080,5001
1680.21,1.300473,88906,4451
1683.1,1.315585,75033,3628
1685.99,1.321468,63520,3030
1688.87,1.365161,53714,2317
1691.75,1.250721,45653,2563
1694.62,1.336351,39137,1804
1697.49,1.342783,33776,1534
1701.31,1.186701,28175,1833