File: samples/unknown/Column 1_078091_20241121_164502.csv
Method:,Column 1,,
Host Date-Time:,21/11/24 @ 16:45:2,,
Header Version:,1,,
System Temp (C):,32.06,,
Detector Temp (C):,27.13,,
Humidity (%):,4.4,,
Lamp PD:,3808,,
Shift Vector Coefficients:,-10.5391,0.0761263,-0.000134223,,
Pixel to Wavelength Coefficients:,1775.68,-0.916766,-0.000235065,,
Serial Number:,5510004,,
Scan Config Name:,Column 1,,
Scan Config Type:,Slew,,
Section 1,,
Start wavelength (nm):,900,,
End wavelength (nm):,1700,,
Pattern Pixel Width (nm):,   7.03,,,,
Exposure (ms):,  0.635,,,,
Digital Resolution:,228,,
Num Repeats:,6,,
PGA Gain:,64,,
Total Measurement Time in sec:,  2.719,,
Wavelength (nm),Absorbance (AU),Reference Signal (unitless),Sample Signal (unitless)
901.51,1.334493,108485,5022
905.376,1.332449,121306,5642
909.237,1.305162,131909,6533
913.095,1.297766,143299,7219
916.948,1.327264,156982,7389
922.079,1.298280,179937,9054
925.923,1.316382,200504,9677
929.762,1.310774,222660,10886
933.597,1.317186,244426,11775
937.427,1.319399,263972,12652
941.254,1.305530,281845,13947
945.076,1.306072,297271,14692
950.165,1.305435,315605,15621
953.978,1.310979,328029,16030
957.786,1.297233,340470,17173
961.59,1.311052,352317,17214
965.389,1.306539,363056,17924
969.185,1.296609,373162,18849
972.976,1.301702,382632,19102
976.763,1.311254,391202,19105
981.806,1.301193,400190,20002
985.583,1.307981,406088,19982
989.355,1.306874,410162,20234
993.124,1.310718,412868,20188
996.888,1.307603,414263,20402
1000.65,1.304426,415476,20612
1004.4,1.305294,415479,20571
1009.41,1.305135,414358,20523
1013.15,1.316209,412923,19937
1016.89,1.305385,411526,20371
1020.63,1.302376,409066,20390
1024.36,1.306874,406777,20067
1028.09,1.313433,404427,19652
1031.82,1.307070,401911,19818
1036.78,1.309317,398410,19544
1040.49,1.297063,396204,19992
1044.2,1.304254,394236,19566
1047.91,1.311867,392042,19119
1051.61,1.309652,389823,19108
1055.31,1.297858,388234,19554
1059,1.318636,387599,18610
1063.92,1.302321,386688,19277
1067.61,1.313125,386598,18799
1071.29,1.312730,387377,18854
1074.96,1.308967,388536,19075
1078.63,1.306563,389855,19246
1082.3,1.315471,391215,18921
1085.96,1.312507,393215,19148
1090.84,1.311917,396270,19323
1094.49,1.324802,398760,18876
1098.14,1.308796,400987,19694
1101.79,1.308606,403477,19825
1105.43,1.320736,406116,19405
1109.06,1.311336,407701,19907
1112.7,1.330556,409859,19146
1117.53,1.315366,412494,19955
1121.15,1.312924,414909,20185
1124.77,1.325806,416559,19673
1128.38,1.315196,418532,20255
1131.99,1.318390,419956,20175
1135.6,1.323056,421946,20054
1139.2,1.321871,423881,20201
1143.99,1.307825,426786,21008
1147.58,1.320231,428617,20504
1151.17,1.318237,431169,20721
1154.75,1.312251,433579,21126
1158.33,1.323192,436264,20728
1161.91,1.325619,439132,20748
1165.48,1.315370,442389,21401
1169.04,1.311675,446101,21765
1173.79,1.321361,451929,21563
1177.34,1.313675,456026,22147
1180.9,1.313683,461306,22403
1184.44,1.316588,467657,22560
1187.99,1.314287,473969,22986
1191.52,1.320385,479856,22947
1195.06,1.318979,487372,23382
1199.76,1.316647,497347,23989
1203.29,1.325957,504311,23809
1206.81,1.321035,511507,24424
1210.33,1.321956,519078,24733
1213.84,1.326863,527163,24836
1217.35,1.323493,534208,25364
1220.85,1.323618,540472,25654
1225.51,1.327745,549929,25856
1229.01,1.326341,556888,26268
1232.5,1.321660,562180,26805
1235.98,1.324609,567975,26898
1239.46,1.322222,574815,27372
1242.94,1.319466,582782,27928
1246.41,1.320734,591476,28262
1251.03,1.324136,604016,28636
1254.5,1.328288,612289,28752
1257.96,1.321618,619125,29523
1261.41,1.329234,624551,29264
1264.86,1.324997,629900,29804
1268.31,1.329247,634345,29722
1271.75,1.329991,638574,29869
1276.33,1.331012,642499,29982
1279.76,1.327252,645905,30403
1283.19,1.327780,648307,30479
1286.61,1.332113,650446,30276
1290.03,1.330805,652132,30446
1293.44,1.335754,653907,30183
1296.85,1.328752,655963,30770
1301.39,1.327641,657349,30914
1304.8,1.330923,657558,30691
1308.19,1.328509,658515,30907
1311.58,1.327913,658804,30963
1314.97,1.330145,659011,30814
1318.36,1.337623,658272,30254
1321.73,1.327075,658022,30986
1326.23,1.327943,657870,30917
1329.6,1.332596,656482,30523
1332.97,1.334463,654926,30320
1336.33,1.337465,653727,30056
1339.69,1.330549,652497,30481
1343.04,1.330754,649913,30346
1346.39,1.338072,647671,29736
1349.73,1.329881,645338,30193
1354.18,1.330855,641175,29931
1357.52,1.333535,638376,29617
1360.85,1.328816,635805,29820
1364.17,1.324913,633413,29976
1367.49,1.326385,631026,29762
1370.81,1.331008,628050,29308
1374.12,1.329733,625034,29253
1378.54,1.326991,620272,29214
1381.84,1.329883,616892,28862
1385.14,1.327297,613613,28880
1388.43,1.327520,611526,28767
1391.72,1.335075,610663,28231
1395.01,1.327521,610634,28725
1398.29,1.329353,611700,28654
1402.66,1.334550,614051,28422
1405.93,1.331615,616268,28718
1409.2,1.331557,617795,28793
1412.46,1.331064,618872,28876
1415.72,1.329790,619795,29004
1418.98,1.333120,620495,28815
1422.23,1.330290,621087,29031
1426.56,1.334308,621375,28777
1429.8,1.336762,621616,28626
1433.04,1.331183,622129,29020
1436.27,1.333886,621526,28812
1439.5,1.338951,621113,28459
1442.72,1.335806,620921,28657
1445.94,1.335684,620270,28635
1450.23,1.334377,618860,28656
1453.44,1.329577,617697,28920
1456.64,1.337950,616264,28302
1459.85,1.337442,614413,28250
1463.04,1.340525,612307,27954
1466.24,1.328334,610032,28643
1469.43,1.336448,607345,27989
1473.67,1.331453,603789,28147
1476.85,1.333194,601175,27913
1480.02,1.337193,597737,27499
1483.19,1.339456,594479,27207
1486.36,1.335230,591232,27323
1489.52,1.334444,587853,27216
1492.68,1.330698,583875,27266
1496.89,1.339434,578062,26457
1500.03,1.333645,574159,26631
1503.18,1.336516,570285,26277
1506.32,1.336615,565444,26048
1509.45,1.336136,560571,25852
1512.58,1.336000,555821,25641
1515.71,1.338046,550344,25269
1519.87,1.339246,543983,24908
1522.99,1.331344,538764,25122
1526.1,1.337841,533692,24516
1529.21,1.337555,527902,24266
1532.32,1.342351,521886,23726
1535.42,1.339000,515888,23635
1538.51,1.338975,509987,23366
1541.6,1.332807,503936,23419
1545.72,1.332175,494694,23023
1548.8,1.340471,488378,22299
1551.88,1.337385,481832,22157
1554.95,1.338227,474989,21800
1558.02,1.338953,467818,21435
1561.08,1.336333,460730,21238
1564.15,1.330473,454170,21220
1568.22,1.338676,444181,20365
1571.27,1.334841,436947,20211
1574.32,1.337693,429598,19741
1577.36,1.334250,422039,19548
1580.4,1.333256,414375,19237
1583.43,1.334077,406354,18829
1586.46,1.329396,398475,18664
1590.49,1.340315,388982,17767
1593.51,1.333724,380708,17655
1596.53,1.338674,372727,17089
1599.54,1.328201,365060,17146
1602.55,1.330430,357543,16707
1605.55,1.323568,349495,16591
1608.55,1.331226,341154,15912
1612.54,1.329503,330877,15494
1615.53,1.330413,322904,15089
1618.51,1.321165,315116,15042
1621.49,1.319449,307217,14723
1624.47,1.337120,299481,13780
1627.44,1.319359,292112,14002
1630.41,1.328863,284245,13330
1634.36,1.318818,274079,13154
1637.32,1.312732,266916,12991
1640.27,1.324243,259612,12305
1643.22,1.327015,251804,11859
1646.16,1.324525,244348,11574
1649.1,1.310870,236703,11570
1652.04,1.305836,228171,11283
1655.95,1.328425,215408,10112
1658.88,1.312838,204937,9972
1661.8,1.310554,193395,9460
1664.72,1.285246,179728,9319
1667.63,1.320410,163642,7825
1670.54,1.335848,146312,6752
1673.44,1.296894,128451,6484
1677.31,1.277305,105080,5549
1680.21,1.300864,88906,4447
1683.1,1.265338,75033,4073
1685.99,1.283739,63520,3305
1688.87,1.293130,53714,2735
1691.75,1.283806,45653,2375
1694.62,1.323542,39137,1858
1697.49,1.320167,33776,1616
1701.31,1.336924,28175,1297