File: samples/unknown/Column 1_078025_20241121_164148.csv
Method:,Column 1,,
Host Date-Time:,21/11/24 @ 16:41:48,,
Header Version:,1,,
System Temp (C):,29.97,,
Detector Temp (C):,24.98,,
Humidity (%):,6.87,,
Lamp PD:,3813,,
Shift Vector Coefficients:,-10.5391,0.0761263,-0.000134223,,
Pixel to Wavelength Coefficients:,1775.68,-0.916766,-0.000235065,,
Serial Number:,5510004,,
Scan Config Name:,Column 1,,
Scan Config Type:,Slew,,
Section 1,,
Start wavelength (nm):,900,,
End wavelength (nm):,1700,,
Pattern Pixel Width (nm):,   7.03,,,,
Exposure (ms):,  0.635,,,,
Digital Resolution:,228,,
Num Repeats:,6,,
PGA Gain:,64,,
Total Measurement Time in sec:,  2.708,,
Wavelength (nm),Absorbance (AU),Reference Signal (unitless),Sample Signal (unitless)
901.51,1.307991,108485,5338
905.376,1.311194,121306,5925
909.237,1.314027,131909,6401
913.095,1.292563,143299,7306
916.948,1.279765,156982,8243
922.079,1.291097,179937,9205
925.923,1.300130,200504,10046
929.762,1.307752,222660,10962
933.597,1.297255,244426,12328
937.427,1.314993,263972,12781
941.254,1.313702,281845,13687
945.076,1.303801,297271,14769
950.165,1.314878,315605,15285
953.978,1.300037,328029,16439
957.786,1.302013,340470,16985
961.59,1.308988,352317,17296
965.389,1.310996,363056,17741
969.185,1.310754,373162,18245
972.976,1.296797,382632,19319
976.763,1.306439,391202,19318
981.806,1.311008,400190,19555
985.583,1.309462,406088,19914
989.355,1.309500,410162,20112
993.124,1.306245,412868,20397
996.888,1.309224,414263,20326
1000.65,1.313711,415476,20176
1004.4,1.310861,415479,20309
1009.41,1.308257,414358,20376
1013.15,1.304476,412923,20483
1016.89,1.305236,411526,20378
1020.63,1.310177,409066,20027
1024.36,1.307697,406777,20029
1028.09,1.307943,404427,19902
1031.82,1.307070,401911,19818
1036.78,1.307321,398410,19634
1040.49,1.314030,396204,19226
1044.2,1.312432,394236,19201
1047.91,1.306764,392042,19345
1051.61,1.310972,389823,19050
1055.31,1.313230,388234,18874
1059,1.317029,387599,18679
1063.92,1.313573,386688,18784
1067.61,1.309605,386598,18952
1071.29,1.310869,387377,18935
1074.96,1.320269,388536,18585
1078.63,1.311578,389855,19025
1082.3,1.318905,391215,18772
1085.96,1.316677,393215,18965
1090.84,1.316481,396270,19121
1094.49,1.317116,398760,19213
1098.14,1.312695,400987,19518
1101.79,1.324149,403477,19128
1105.43,1.316062,406116,19615
1109.06,1.315347,407701,19724
1112.7,1.317177,409859,19745
1117.53,1.318161,412494,19827
1121.15,1.312946,414909,20184
1124.77,1.312780,416559,20272
1128.38,1.320438,418532,20012
1131.99,1.322130,419956,20002
1135.6,1.317077,421946,20332
1139.2,1.324870,423881,20062
1143.99,1.327706,426786,20068
1147.58,1.327837,428617,20148
1151.17,1.320822,431169,20598
1154.75,1.321581,433579,20677
1158.33,1.312329,436264,21253
1161.91,1.313218,439132,21349
1165.48,1.316101,442389,21365
1169.04,1.313494,446101,21674
1173.79,1.318851,451929,21688
1177.34,1.319101,456026,21872
1180.9,1.321428,461306,22007
1184.44,1.315838,467657,22599
1187.99,1.321353,473969,22615
1191.52,1.321143,479856,22907
1195.06,1.317459,487372,23464
1199.76,1.318934,497347,23863
1203.29,1.316021,504311,24360
1206.81,1.323835,511507,24267
1210.33,1.322659,519078,24693
1213.84,1.318138,527163,25340
1217.35,1.321869,534208,25459
1220.85,1.323906,540472,25637
1225.51,1.325333,549929,26000
1229.01,1.323178,556888,26460
1232.5,1.322682,562180,26742
1235.98,1.325935,567975,26816
1239.46,1.319769,574815,27527
1242.94,1.324975,582782,27576
1246.41,1.330556,591476,27630
1251.03,1.323363,604016,28687
1254.5,1.323960,612289,29040
1257.96,1.328139,619125,29083
1261.41,1.325172,624551,29539
1264.86,1.324051,629900,29869
1268.31,1.329277,634345,29720
1271.75,1.326775,638574,30091
1276.33,1.330158,642499,30041
1279.76,1.336054,645905,29793
1283.19,1.333792,648307,30060
1286.61,1.328356,650446,30539
1290.03,1.332793,652132,30307
1293.44,1.334647,653907,30260
1296.85,1.332565,655963,30501
1301.39,1.329894,657349,30754
1304.8,1.328158,657558,30887
1308.19,1.336350,658515,30354
1311.58,1.331519,658804,30707
1314.97,1.333896,659011,30549
1318.36,1.327829,658272,30944
1321.73,1.332193,658022,30623
1326.23,1.339776,657870,30086
1329.6,1.328588,656482,30806
1332.97,1.331565,654926,30523
1336.33,1.331609,653727,30464
1339.69,1.333165,652497,30298
1343.04,1.336140,649913,29972
1346.39,1.329854,647671,30304
1349.73,1.334421,645338,29879
1354.18,1.330913,641175,29927
1357.52,1.327565,638376,30027
1360.85,1.329166,635805,29796
1364.17,1.330029,633413,29625
1367.49,1.330770,631026,29463
1370.81,1.326864,628050,29589
1374.12,1.330893,625034,29175
1378.54,1.328033,620272,29144
1381.84,1.322468,616892,29359
1385.14,1.325347,613613,29010
1388.43,1.329412,611526,28642
1391.72,1.326967,610663,28763
1395.01,1.326313,610634,28805
1398.29,1.330081,611700,28606
1402.66,1.332097,614051,28583
1405.93,1.330166,616268,28814
1409.2,1.328626,617795,28988
1412.46,1.327902,618872,29087
1415.72,1.334185,619795,28712
1418.98,1.330520,620495,28988
1422.23,1.329558,621087,29080
1426.56,1.328939,621375,29135
1429.8,1.336519,621616,28642
1433.04,1.333930,622129,28837
1436.27,1.330567,621526,29033
1439.5,1.337048,621113,28584
1442.72,1.331043,620921,28973
1445.94,1.332872,620270,28821
1450.23,1.323836,618860,29360
1453.44,1.337304,617697,28410
1456.64,1.338241,616264,28283
1459.85,1.337165,614413,28268
1463.04,1.336951,612307,28185
1466.24,1.334888,610032,28214
1469.43,1.337691,607345,27909
1473.67,1.335297,603789,27899
1476.85,1.335425,601175,27770
1480.02,1.334705,597737,27657
1483.19,1.335737,594479,27441
1486.36,1.339912,591232,27030
1489.52,1.339759,587853,26885
1492.68,1.337634,583875,26834
1496.89,1.333095,578062,26846
1500.03,1.340019,574159,26243
1503.18,1.334044,570285,26427
1506.32,1.345458,565444,25523
1509.45,1.336742,560571,25816
1512.58,1.341128,555821,25340
1515.71,1.335544,550344,25415
1519.87,1.340871,543983,24815
1522.99,1.339441,538764,24658
1526.1,1.337823,533692,24517
1529.21,1.342813,527902,23974
1532.32,1.341236,521886,23787
1535.42,1.336143,515888,23791
1538.51,1.338028,509987,23417
1541.6,1.343984,503936,22824
1545.72,1.347241,494694,22238
1548.8,1.338780,488378,22386
1551.88,1.336367,481832,22209
1554.95,1.343841,474989,21520
1558.02,1.337154,467818,21524
1561.08,1.328631,460730,21618
1564.15,1.324195,454170,21529
1568.22,1.344105,444181,20112
1571.27,1.334068,436947,20247
1574.32,1.324114,429598,20368
1577.36,1.339975,422039,19292
1580.4,1.325825,414375,19569
1583.43,1.331938,406354,18922
1586.46,1.332526,398475,18530
1590.49,1.326578,388982,18338
1593.51,1.325923,380708,17975
1596.53,1.332242,372727,17344
1599.54,1.328607,365060,17130
1602.55,1.322701,357543,17007
1605.55,1.343412,349495,15850
1608.55,1.335422,341154,15759
1612.54,1.319994,330877,15837
1615.53,1.327630,322904,15186
1618.51,1.335458,315116,14555
1621.49,1.323896,307217,14573
1624.47,1.320275,299481,14325
1627.44,1.330608,292112,13644
1630.41,1.327302,284245,13378
1634.36,1.319942,274079,13120
1637.32,1.317100,266916,12861
1640.27,1.322939,259612,12342
1643.22,1.318744,251804,12087
1646.16,1.323102,244348,11612
1649.1,1.310795,236703,11572
1652.04,1.316789,228171,11002
1655.95,1.314811,215408,10434
1658.88,1.311316,204937,10007
1661.8,1.313733,193395,9391
1664.72,1.332461,179728,8359
1667.63,1.330574,163642,7644
1670.54,1.342785,146312,6645
1673.44,1.335244,128451,5936
1677.31,1.352482,105080,4667
1680.21,1.329003,88906,4168
1683.1,1.284522,75033,3897
1685.99,1.367385,63520,2726
1688.87,1.328859,53714,2519
1691.75,1.259104,45653,2514
1694.62,1.282745,39137,2041
1697.49,1.303299,33776,1680
1701.31,1.306849,28175,1390