File: samples/unknown/Column 1_078001_20241121_164039.csv
Method:,Column 1,,
Host Date-Time:,21/11/24 @ 16:40:39,,
Header Version:,1,,
System Temp (C):,29.05,,
Detector Temp (C):,26.96,,
Humidity (%):,7.83,,
Lamp PD:,3818,,
Shift Vector Coefficients:,-10.5391,0.0761263,-0.000134223,,
Pixel to Wavelength Coefficients:,1775.68,-0.916766,-0.000235065,,
Serial Number:,5510004,,
Scan Config Name:,Column 1,,
Scan Config Type:,Slew,,
Section 1,,
Start wavelength (nm):,900,,
End wavelength (nm):,1700,,
Pattern Pixel Width (nm):,   7.03,,,,
Exposure (ms):,  0.635,,,,
Digital Resolution:,228,,
Num Repeats:,6,,
PGA Gain:,64,,
Total Measurement Time in sec:,  2.706,,
Wavelength (nm),Absorbance (AU),Reference Signal (unitless),Sample Signal (unitless)
901.51,1.307178,108485,5348
905.376,1.319631,121306,5811
909.237,1.325090,131909,6240
913.095,1.313572,143299,6961
916.948,1.298608,156982,7893
922.079,1.298520,179937,9049
925.923,1.324034,200504,9508
929.762,1.307871,222660,10959
933.597,1.308243,244426,12020
937.427,1.302500,263972,13154
941.254,1.321256,281845,13451
945.076,1.311336,297271,14515
950.165,1.310637,315605,15435
953.978,1.307014,328029,16177
957.786,1.317182,340470,16402
961.59,1.313430,352317,17120
965.389,1.309432,363056,17805
969.185,1.306820,373162,18411
972.976,1.310545,382632,18717
976.763,1.309417,391202,19186
981.806,1.316686,400190,19301
985.583,1.303677,406088,20181
989.355,1.311687,410162,20011
993.124,1.306543,412868,20383
996.888,1.315248,414263,20046
1000.65,1.310558,415476,20323
1004.4,1.304935,415479,20588
1009.41,1.306682,414358,20450
1013.15,1.314470,412923,20017
1016.89,1.305726,411526,20355
1020.63,1.311785,409066,19953
1024.36,1.309305,406777,19955
1028.09,1.320878,404427,19318
1031.82,1.312850,401911,19556
1036.78,1.309450,398410,19538
1040.49,1.311575,396204,19335
1044.2,1.305210,394236,19523
1047.91,1.310756,392042,19168
1051.61,1.307340,389823,19210
1055.31,1.307106,388234,19142
1059,1.300894,387599,19386
1063.92,1.312995,386688,18809
1067.61,1.311350,386598,18876
1071.29,1.313768,387377,18809
1074.96,1.313222,388536,18889
1078.63,1.311647,389855,19022
1082.3,1.315839,391215,18905
1085.96,1.317227,393215,18941
1090.84,1.316140,396270,19136
1094.49,1.312686,398760,19410
1098.14,1.318091,400987,19277
1101.79,1.320960,403477,19269
1105.43,1.320133,406116,19432
1109.06,1.321110,407701,19464
1112.7,1.324721,409859,19405
1117.53,1.320070,412494,19740
1121.15,1.322650,414909,19738
1124.77,1.315639,416559,20139
1128.38,1.318727,418532,20091
1131.99,1.315558,419956,20307
1135.6,1.321327,421946,20134
1139.2,1.317933,423881,20385
1143.99,1.320069,426786,20424
1147.58,1.316729,428617,20670
1151.17,1.323254,431169,20483
1154.75,1.319130,433579,20794
1158.33,1.320810,436264,20842
1161.91,1.324469,439132,20803
1165.48,1.312821,442389,21527
1169.04,1.317864,446101,21457
1173.79,1.316773,451929,21792
1177.34,1.312226,456026,22221
1180.9,1.318439,461306,22159
1184.44,1.322012,467657,22280
1187.99,1.315119,473969,22942
1191.52,1.321978,479856,22863
1195.06,1.323422,487372,23144
1199.76,1.318698,497347,23876
1203.29,1.327877,504311,23704
1206.81,1.326402,511507,24124
1210.33,1.321903,519078,24736
1213.84,1.326619,527163,24850
1217.35,1.328972,534208,25046
1220.85,1.313478,540472,26260
1225.51,1.325550,549929,25987
1229.01,1.321834,556888,26542
1232.5,1.329590,562180,26320
1235.98,1.319968,567975,27187
1239.46,1.324528,574815,27227
1242.94,1.321805,582782,27778
1246.41,1.327752,591476,27809
1251.03,1.326814,604016,28460
1254.5,1.327413,612289,28810
1257.96,1.327527,619125,29124
1261.41,1.325422,624551,29522
1264.86,1.329936,629900,29467
1268.31,1.326219,634345,29930
1271.75,1.327656,638574,30030
1276.33,1.331693,642499,29935
1279.76,1.327938,645905,30355
1283.19,1.331659,648307,30208
1286.61,1.329410,650446,30465
1290.03,1.335048,652132,30150
1293.44,1.330079,653907,30580
1296.85,1.331271,655963,30592
1301.39,1.330361,657349,30721
1304.8,1.331206,657558,30671
1308.19,1.326266,658515,31067
1311.58,1.333177,658804,30590
1314.97,1.329440,659011,30864
1318.36,1.335975,658272,30369
1321.73,1.332902,658022,30573
1326.23,1.335095,657870,30412
1329.6,1.331913,656482,30571
1332.97,1.336056,654926,30209
1336.33,1.332494,653727,30402
1339.69,1.334155,652497,30229
1343.04,1.335705,649913,30002
1346.39,1.329239,647671,30347
1349.73,1.323158,645338,30664
1354.18,1.331393,641175,29894
1357.52,1.331444,638376,29760
1360.85,1.330831,635805,29682
1364.17,1.326655,633413,29856
1367.49,1.324856,631026,29867
1370.81,1.327422,628050,29551
1374.12,1.329555,625034,29265
1378.54,1.330349,620272,28989
1381.84,1.327362,616892,29030
1385.14,1.330724,613613,28653
1388.43,1.329806,611526,28616
1391.72,1.331231,610663,28482
1395.01,1.328459,610634,28663
1398.29,1.327644,611700,28767
1402.66,1.336341,614051,28305
1405.93,1.335352,616268,28472
1409.2,1.332660,617795,28720
1412.46,1.331907,618872,28820
1415.72,1.336414,619795,28565
1418.98,1.324938,620495,29363
1422.23,1.331024,621087,28982
1426.56,1.331165,621375,28986
1429.8,1.330885,621616,29016
1433.04,1.335666,622129,28722
1436.27,1.332111,621526,28930
1439.5,1.335228,621113,28704
1442.72,1.336124,620921,28636
1445.94,1.330033,620270,29010
1450.23,1.332456,618860,28783
1453.44,1.332924,617697,28698
1456.64,1.340751,616264,28120
1459.85,1.337857,614413,28223
1463.04,1.331272,612307,28556
1466.24,1.333582,610032,28299
1469.43,1.327647,607345,28562
1473.67,1.341742,603789,27488
1476.85,1.330434,601175,28091
1480.02,1.341478,597737,27229
1483.19,1.335594,594479,27450
1486.36,1.340394,591232,27000
1489.52,1.334141,587853,27235
1492.68,1.337052,583875,26870
1496.89,1.340502,578062,26392
1500.03,1.336016,574159,26486
1503.18,1.336054,570285,26305
1506.32,1.339006,565444,25905
1509.45,1.332390,560571,26076
1512.58,1.339572,555821,25431
1515.71,1.337737,550344,25287
1519.87,1.336864,543983,25045
1522.99,1.335531,538764,24881
1526.1,1.332017,533692,24847
1529.21,1.339654,527902,24149
1532.32,1.336063,521886,24072
1535.42,1.340970,515888,23528
1538.51,1.341716,509987,23219
1541.6,1.338444,503936,23117
1545.72,1.335679,494694,22838
1548.8,1.340685,488378,22288
1551.88,1.345197,481832,21762
1554.95,1.335209,474989,21952
1558.02,1.342493,467818,21261
1561.08,1.338280,460730,21143
1564.15,1.339072,454170,20804
1568.22,1.336124,444181,20485
1571.27,1.342931,436947,19838
1574.32,1.330580,429598,20067
1577.36,1.334406,422039,19541
1580.4,1.328474,414375,19450
1583.43,1.336042,406354,18744
1586.46,1.326266,398475,18799
1590.49,1.332443,388982,18092
1593.51,1.338299,380708,17470
1596.53,1.336090,372727,17191
1599.54,1.334375,365060,16904
1602.55,1.332567,357543,16625
1605.55,1.331227,349495,16301
1608.55,1.323382,341154,16202
1612.54,1.332964,330877,15371
1615.53,1.328002,322904,15173
1618.51,1.321396,315116,15034
1621.49,1.339367,307217,14063
1624.47,1.329435,299481,14026
1627.44,1.332170,292112,13595
1630.41,1.316275,284245,13722
1634.36,1.314482,274079,13286
1637.32,1.326763,266916,12578
1640.27,1.325480,259612,12270
1643.22,1.316272,251804,12156
1646.16,1.326971,244348,11509
1649.1,1.329899,236703,11074
1652.04,1.317579,228171,10982
1655.95,1.332828,215408,10010
1658.88,1.325476,204937,9686
1661.8,1.319553,193395,9266
1664.72,1.333919,179728,8331
1667.63,1.322469,163642,7788
1670.54,1.380235,146312,6096
1673.44,1.372899,128451,5443
1677.31,1.351274,105080,4680
1680.21,1.380964,88906,3698
1683.1,1.338441,75033,3442
1685.99,1.385273,63520,2616
1688.87,1.316285,53714,2593
1691.75,1.312725,45653,2222
1694.62,1.271611,39137,2094
1697.49,1.363364,33776,1463
1701.31,1.373588,28175,1192