File: samples/unknown/Column 1_078044_20241121_164244.csv
Method:,Column 1,,
Host Date-Time:,21/11/24 @ 16:42:44,,
Header Version:,1,,
System Temp (C):,30.63,,
Detector Temp (C):,25.4,,
Humidity (%):,5.51,,
Lamp PD:,3811,,
Shift Vector Coefficients:,-10.5391,0.0761263,-0.000134223,,
Pixel to Wavelength Coefficients:,1775.68,-0.916766,-0.000235065,,
Serial Number:,5510004,,
Scan Config Name:,Column 1,,
Scan Config Type:,Slew,,
Section 1,,
Start wavelength (nm):,900,,
End wavelength (nm):,1700,,
Pattern Pixel Width (nm):,   7.03,,,,
Exposure (ms):,  0.635,,,,
Digital Resolution:,228,,
Num Repeats:,6,,
PGA Gain:,64,,
Total Measurement Time in sec:,  2.732,,
Wavelength (nm),Absorbance (AU),Reference Signal (unitless),Sample Signal (unitless)
901.51,1.296431,108485,5482
905.376,1.317916,121306,5834
909.237,1.328654,131909,6189
913.095,1.301330,143299,7160
916.948,1.320152,156982,7511
922.079,1.311033,179937,8792
925.923,1.309658,200504,9828
929.762,1.328111,222660,10460
933.597,1.314466,244426,11849
937.427,1.307982,263972,12989
941.254,1.315833,281845,13620
945.076,1.304832,297271,14734
950.165,1.306437,315605,15585
953.978,1.311847,328029,15998
957.786,1.317738,340470,16381
961.59,1.307384,352317,17360
965.389,1.309944,363056,17784
969.185,1.311754,373162,18203
972.976,1.313852,382632,18575
976.763,1.319701,391202,18737
981.806,1.309678,400190,19615
985.583,1.311911,406088,19802
989.355,1.307153,410162,20221
993.124,1.310718,412868,20188
996.888,1.311409,414263,20224
1000.65,1.313732,415476,20175
1004.4,1.318693,415479,19946
1009.41,1.312282,414358,20188
1013.15,1.310453,412923,20203
1016.89,1.317842,411526,19795
1020.63,1.320536,409066,19555
1024.36,1.316768,406777,19615
1028.09,1.312220,404427,19707
1031.82,1.312317,401911,19580
1036.78,1.313559,398410,19354
1040.49,1.312497,396204,19294
1044.2,1.311935,394236,19223
1047.91,1.310507,392042,19179
1051.61,1.318515,389823,18722
1055.31,1.314312,388234,18827
1059,1.312657,387599,18868
1063.92,1.315891,386688,18684
1067.61,1.310338,386598,18920
1071.29,1.318925,387377,18587
1074.96,1.328121,388536,18252
1078.63,1.313821,389855,18927
1082.3,1.321760,391215,18649
1085.96,1.323532,393215,18668
1090.84,1.315097,396270,19182
1094.49,1.323790,398760,18920
1098.14,1.316046,400987,19368
1101.79,1.324104,403477,19130
1105.43,1.322261,406116,19337
1109.06,1.317643,407701,19620
1112.7,1.329854,409859,19177
1117.53,1.316586,412494,19899
1121.15,1.311549,414909,20249
1124.77,1.324065,416559,19752
1128.38,1.318360,418532,20108
1131.99,1.322391,419956,19990
1135.6,1.317461,421946,20314
1139.2,1.323141,423881,20142
1143.99,1.326366,426786,20130
1147.58,1.325130,428617,20274
1151.17,1.328201,431169,20251
1154.75,1.322464,433579,20635
1158.33,1.318814,436264,20938
1161.91,1.319260,439132,21054
1165.48,1.325160,442389,20924
1169.04,1.330827,446101,20826
1173.79,1.326793,451929,21295
1177.34,1.323953,456026,21629
1180.9,1.317538,461306,22205
1184.44,1.321759,467657,22293
1187.99,1.321641,473969,22600
1191.52,1.323481,479856,22784
1195.06,1.324474,487372,23088
1199.76,1.325629,497347,23498
1203.29,1.325520,504311,23833
1206.81,1.326096,511507,24141
1210.33,1.319959,519078,24847
1213.84,1.322773,527163,25071
1217.35,1.323065,534208,25389
1220.85,1.331562,540472,25189
1225.51,1.322835,549929,26150
1229.01,1.328396,556888,26144
1232.5,1.332802,562180,26126
1235.98,1.323255,567975,26982
1239.46,1.322444,574815,27358
1242.94,1.320852,582782,27839
1246.41,1.328267,591476,27776
1251.03,1.330553,604016,28216
1254.5,1.328273,612289,28753
1257.96,1.328363,619125,29068
1261.41,1.326291,624551,29463
1264.86,1.324968,629900,29806
1268.31,1.327047,634345,29873
1271.75,1.329482,638574,29904
1276.33,1.328614,642499,30148
1279.76,1.333888,645905,29942
1283.19,1.329021,648307,30392
1286.61,1.336872,650446,29946
1290.03,1.332778,652132,30308
1293.44,1.334260,653907,30287
1296.85,1.330690,655963,30633
1301.39,1.332799,657349,30549
1304.8,1.332596,657558,30573
1308.19,1.333654,658515,30543
1311.58,1.330417,658804,30785
1314.97,1.331443,659011,30722
1318.36,1.334390,658272,30480
1321.73,1.335253,658022,30408
1326.23,1.339934,657870,30075
1329.6,1.337662,656482,30169
1332.97,1.332947,654926,30426
1336.33,1.334571,653727,30257
1339.69,1.330151,652497,30509
1343.04,1.335879,649913,29990
1346.39,1.326941,647671,30508
1349.73,1.327686,645338,30346
1354.18,1.333767,641175,29731
1357.52,1.326077,638376,30130
1360.85,1.331065,635805,29666
1364.17,1.325305,633413,29949
1367.49,1.329607,631026,29542
1370.81,1.329750,628050,29393
1374.12,1.328947,625034,29306
1378.54,1.332768,620272,28828
1381.84,1.330847,616892,28798
1385.14,1.328562,613613,28796
1388.43,1.331722,611526,28490
1391.72,1.334092,610663,28295
1395.01,1.331516,610634,28462
1398.29,1.330735,611700,28563
1402.66,1.331474,614051,28624
1405.93,1.328361,616268,28934
1409.2,1.326832,617795,29108
1412.46,1.336497,618872,28517
1415.72,1.334412,619795,28697
1418.98,1.339282,620495,28409
1422.23,1.335286,621087,28699
1426.56,1.340357,621375,28379
1429.8,1.339379,621616,28454
1433.04,1.329883,622129,29107
1436.27,1.339667,621526,28431
1439.5,1.341906,621113,28266
1442.72,1.334127,620921,28768
1445.94,1.337249,620270,28532
1450.23,1.332079,618860,28808
1453.44,1.340865,617697,28178
1456.64,1.336418,616264,28402
1459.85,1.335815,614413,28356
1463.04,1.336951,612307,28185
1466.24,1.342497,610032,27724
1469.43,1.339156,607345,27815
1473.67,1.335670,603789,27875
1476.85,1.343874,601175,27235
1480.02,1.341431,597737,27232
1483.19,1.337243,594479,27346
1486.36,1.338564,591232,27114
1489.52,1.339791,587853,26883
1492.68,1.344634,583875,26405
1496.89,1.336424,578062,26641
1500.03,1.338235,574159,26351
1503.18,1.338272,570285,26171
1506.32,1.342862,565444,25676
1509.45,1.345150,560571,25321
1512.58,1.333939,555821,25763
1515.71,1.342451,550344,25014
1519.87,1.337576,543983,25004
1522.99,1.338737,538764,24698
1526.1,1.340881,533692,24345
1529.21,1.341709,527902,24035
1532.32,1.337509,521886,23992
1535.42,1.343934,515888,23368
1538.51,1.344624,509987,23064
1541.6,1.344745,503936,22784
1545.72,1.329823,494694,23148
1548.8,1.341543,488378,22244
1551.88,1.346356,481832,21704
1554.95,1.342391,474989,21592
1558.02,1.337255,467818,21519
1561.08,1.342470,460730,20940
1564.15,1.336076,454170,20948
1568.22,1.336039,444181,20489
1571.27,1.350416,436947,19499
1574.32,1.344522,429598,19433
1577.36,1.333318,422039,19590
1580.4,1.341783,414375,18863
1583.43,1.346596,406354,18294
1586.46,1.329885,398475,18643
1590.49,1.331436,388982,18134
1593.51,1.333995,380708,17644
1596.53,1.333897,372727,17278
1599.54,1.342021,365060,16609
1602.55,1.331393,357543,16670
1605.55,1.334677,349495,16172
1608.55,1.328722,341154,16004
1612.54,1.339569,330877,15139
1615.53,1.330557,322904,15084
1618.51,1.331094,315116,14702
1621.49,1.333874,307217,14242
1624.47,1.319760,299481,14342
1627.44,1.328164,292112,13721
1630.41,1.327237,284245,13380
1634.36,1.331515,274079,12775
1637.32,1.331380,266916,12445
1640.27,1.322974,259612,12341
1643.22,1.322352,251804,11987
1646.16,1.321497,244348,11655
1649.1,1.339375,236703,10835
1652.04,1.334432,228171,10564
1655.95,1.323981,215408,10216
1658.88,1.328852,204937,9611
1661.8,1.325072,193395,9149
1664.72,1.330647,179728,8394
1667.63,1.332738,163642,7606
1670.54,1.330160,146312,6841
1673.44,1.317819,128451,6179
1677.31,1.326389,105080,4956
1680.21,1.339871,88906,4065
1683.1,1.427939,75033,2801
1685.99,1.323191,63520,3018
1688.87,1.344481,53714,2430
1691.75,1.402031,45653,1809
1694.62,1.351041,39137,1744
1697.49,1.488402,33776,1097
1701.31,1.272039,28175,1506