File: samples/unknown/Column 1_078009_20241121_164102.csv
Method:,Column 1,,
Host Date-Time:,21/11/24 @ 16:41:2,,
Header Version:,1,,
System Temp (C):,29.25,,
Detector Temp (C):,24.92,,
Humidity (%):,7.44,,
Lamp PD:,3816,,
Shift Vector Coefficients:,-10.5391,0.0761263,-0.000134223,,
Pixel to Wavelength Coefficients:,1775.68,-0.916766,-0.000235065,,
Serial Number:,5510004,,
Scan Config Name:,Column 1,,
Scan Config Type:,Slew,,
Section 1,,
Start wavelength (nm):,900,,
End wavelength (nm):,1700,,
Pattern Pixel Width (nm):,   7.03,,,,
Exposure (ms):,  0.635,,,,
Digital Resolution:,228,,
Num Repeats:,6,,
PGA Gain:,64,,
Total Measurement Time in sec:,  2.721,,
Wavelength (nm),Absorbance (AU),Reference Signal (unitless),Sample Signal (unitless)
901.51,1.296193,108485,5485
905.376,1.311707,121306,5918
909.237,1.331329,131909,6151
913.095,1.308547,143299,7042
916.948,1.325856,156982,7413
922.079,1.323764,179937,8538
925.923,1.313742,200504,9736
929.762,1.307079,222660,10979
933.597,1.304179,244426,12133
937.427,1.324926,263972,12492
941.254,1.321708,281845,13437
945.076,1.311007,297271,14526
950.165,1.318932,315605,15143
953.978,1.318411,328029,15758
957.786,1.311840,340470,16605
961.59,1.311683,352317,17189
965.389,1.311510,363056,17720
969.185,1.309470,373162,18299
972.976,1.320378,382632,18298
976.763,1.301254,391202,19550
981.806,1.296958,400190,20198
985.583,1.304971,406088,20121
989.355,1.316993,410162,19768
993.124,1.315738,412868,19956
996.888,1.309267,414263,20324
1000.65,1.314228,415476,20152
1004.4,1.305885,415479,20543
1009.41,1.306640,414358,20452
1013.15,1.310303,412923,20210
1016.89,1.311698,411526,20077
1020.63,1.317746,409066,19681
1024.36,1.308153,406777,20008
1028.09,1.313765,404427,19637
1031.82,1.307114,401911,19816
1036.78,1.311165,398410,19461
1040.49,1.310184,396204,19397
1044.2,1.311258,394236,19253
1047.91,1.312481,392042,19092
1051.61,1.316640,389823,18803
1055.31,1.312770,388234,18894
1059,1.310476,387599,18963
1063.92,1.322071,386688,18420
1067.61,1.308552,386598,18998
1071.29,1.303207,387377,19272
1074.96,1.321696,388536,18524
1078.63,1.323262,389855,18520
1082.3,1.311564,391215,19092
1085.96,1.315214,393215,19029
1090.84,1.320565,396270,18942
1094.49,1.315965,398760,19264
1098.14,1.324743,400987,18984
1101.79,1.317056,403477,19443
1105.43,1.323093,406116,19300
1109.06,1.323257,407701,19368
1112.7,1.320024,409859,19616
1117.53,1.320621,412494,19715
1121.15,1.318773,414909,19915
1124.77,1.315401,416559,20150
1128.38,1.324537,418532,19824
1131.99,1.320094,419956,20096
1135.6,1.317953,421946,20291
1139.2,1.322581,423881,20168
1143.99,1.324236,426786,20229
1147.58,1.319384,428617,20544
1151.17,1.313256,431169,20960
1154.75,1.324172,433579,20554
1158.33,1.313291,436264,21206
1161.91,1.321722,439132,20935
1165.48,1.322408,442389,21057
1169.04,1.316874,446101,21506
1173.79,1.326018,451929,21333
1177.34,1.316054,456026,22026
1180.9,1.323307,461306,21912
1184.44,1.321778,467657,22292
1187.99,1.326531,473969,22347
1191.52,1.323119,479856,22803
1195.06,1.318366,487372,23415
1199.76,1.322076,497347,23691
1203.29,1.319476,504311,24167
1206.81,1.329202,511507,23969
1210.33,1.324174,519078,24607
1213.84,1.328177,527163,24761
1217.35,1.327345,534208,25140
1220.85,1.332823,540472,25116
1225.51,1.325116,549929,26013
1229.01,1.332602,556888,25892
1232.5,1.320285,562180,26890
1235.98,1.321648,567975,27082
1239.46,1.322253,574815,27370
1242.94,1.315766,582782,28167
1246.41,1.318359,591476,28417
1251.03,1.326859,604016,28457
1254.5,1.326931,612289,28842
1257.96,1.325474,619125,29262
1261.41,1.334745,624551,28895
1264.86,1.330658,629900,29418
1268.31,1.325914,634345,29951
1271.75,1.328018,638574,30005
1276.33,1.328758,642499,30138
1279.76,1.334381,645905,29908
1283.19,1.327737,648307,30482
1286.61,1.329624,650446,30450
1290.03,1.326688,652132,30736
1293.44,1.338120,653907,30019
1296.85,1.331527,655963,30574
1301.39,1.327950,657349,30892
1304.8,1.333449,657558,30513
1308.19,1.331512,658515,30694
1311.58,1.333035,658804,30600
1314.97,1.335348,659011,30447
1318.36,1.339248,658272,30141
1321.73,1.331668,658022,30660
1326.23,1.328857,657870,30852
1329.6,1.335179,656482,30342
1332.97,1.329309,654926,30682
1336.33,1.331510,653727,30471
1339.69,1.335925,652497,30106
1343.04,1.330797,649913,30343
1346.39,1.330600,647671,30252
1349.73,1.329752,645338,30202
1354.18,1.332673,641175,29806
1357.52,1.327131,638376,30057
1360.85,1.329355,635805,29783
1364.17,1.332587,633413,29451
1367.49,1.330888,631026,29455
1370.81,1.326380,628050,29622
1374.12,1.329169,625034,29291
1378.54,1.328376,620272,29121
1381.84,1.333039,616892,28653
1385.14,1.328955,613613,28770
1388.43,1.331875,611526,28480
1391.72,1.332988,610663,28367
1395.01,1.328581,610634,28655
1398.29,1.329960,611700,28614
1402.66,1.333832,614051,28469
1405.93,1.328752,616268,28908
1409.2,1.333084,617795,28692
1412.46,1.337396,618872,28458
1415.72,1.333988,619795,28725
1418.98,1.335356,620495,28667
1422.23,1.330769,621087,28999
1426.56,1.338814,621375,28480
1429.8,1.338160,621616,28534
1433.04,1.333840,622129,28843
1436.27,1.334973,621526,28740
1439.5,1.333447,621113,28822
1442.72,1.339183,620921,28435
1445.94,1.332646,620270,28836
1450.23,1.336489,618860,28517
1453.44,1.332652,617697,28716
1456.64,1.335059,616264,28491
1459.85,1.335096,614413,28403
1463.04,1.339966,612307,27990
1466.24,1.337575,610032,28040
1469.43,1.336572,607345,27981
1473.67,1.337231,603789,27775
1476.85,1.335253,601175,27781
1480.02,1.336657,597737,27533
1483.19,1.341873,594479,27056
1486.36,1.339414,591232,27061
1489.52,1.341507,587853,26777
1492.68,1.334345,583875,27038
1496.89,1.335903,578062,26673
1500.03,1.335442,574159,26521
1503.18,1.337874,570285,26195
1506.32,1.339761,565444,25860
1509.45,1.336674,560571,25820
1512.58,1.342330,555821,25270
1515.71,1.334213,550344,25493
1519.87,1.339595,543983,24888
1522.99,1.342516,538764,24484
1526.1,1.342669,533692,24245
1529.21,1.345575,527902,23822
1532.32,1.341108,521886,23794
1535.42,1.337569,515888,23713
1538.51,1.342708,509987,23166
1541.6,1.336813,503936,23204
1545.72,1.341229,494694,22548
1548.8,1.334187,488378,22624
1551.88,1.334708,481832,22294
1554.95,1.347143,474989,21357
1558.02,1.339075,467818,21429
1561.08,1.352562,460730,20459
1564.15,1.338404,454170,20836
1568.22,1.334664,444181,20554
1571.27,1.335787,436947,20167
1574.32,1.333729,429598,19922
1577.36,1.334184,422039,19551
1580.4,1.337635,414375,19044
1583.43,1.333432,406354,18857
1586.46,1.330025,398475,18637
1590.49,1.339827,388982,17787
1593.51,1.333380,380708,17669
1596.53,1.331766,372727,17363
1599.54,1.334863,365060,16885
1602.55,1.339094,357543,16377
1605.55,1.337777,349495,16057
1608.55,1.344219,341154,15443
1612.54,1.332146,330877,15400
1615.53,1.327458,322904,15192
1618.51,1.323771,315116,14952
1621.49,1.332595,307217,14284
1624.47,1.318007,299481,14400
1627.44,1.331979,292112,13601
1630.41,1.335230,284245,13136
1634.36,1.324601,274079,12980
1637.32,1.332568,266916,12411
1640.27,1.316200,259612,12535
1643.22,1.330397,251804,11767
1646.16,1.319304,244348,11714
1649.1,1.322858,236703,11255
1652.04,1.330300,228171,10665
1655.95,1.327910,215408,10124
1658.88,1.335133,204937,9473
1661.8,1.316843,193395,9324
1664.72,1.336166,179728,8288
1667.63,1.340749,163642,7467
1670.54,1.349968,146312,6536
1673.44,1.353625,128451,5690
1677.31,1.344187,105080,4757
1680.21,1.339230,88906,4071
1683.1,1.360306,75033,3273
1685.99,1.328840,63520,2979
1688.87,1.315783,53714,2596
1691.75,1.332929,45653,2121
1694.62,1.236370,39137,2271
1697.49,1.439410,33776,1228
1701.31,1.342993,28175,1279