File: samples/unknown/Column 1_078054_20241121_164313.csv
Method:,Column 1,,
Host Date-Time:,21/11/24 @ 16:43:13,,
Header Version:,1,,
System Temp (C):,31.01,,
Detector Temp (C):,25.79,,
Humidity (%):,5.37,,
Lamp PD:,3809,,
Shift Vector Coefficients:,-10.5391,0.0761263,-0.000134223,,
Pixel to Wavelength Coefficients:,1775.68,-0.916766,-0.000235065,,
Serial Number:,5510004,,
Scan Config Name:,Column 1,,
Scan Config Type:,Slew,,
Section 1,,
Start wavelength (nm):,900,,
End wavelength (nm):,1700,,
Pattern Pixel Width (nm):,   7.03,,,,
Exposure (ms):,  0.635,,,,
Digital Resolution:,228,,
Num Repeats:,6,,
PGA Gain:,64,,
Total Measurement Time in sec:,  2.721,,
Wavelength (nm),Absorbance (AU),Reference Signal (unitless),Sample Signal (unitless)
901.51,1.297065,108485,5474
905.376,1.353908,121306,5370
909.237,1.299810,131909,6614
913.095,1.317205,143299,6903
916.948,1.346553,156982,7068
922.079,1.313808,179937,8736
925.923,1.313832,200504,9734
929.762,1.318786,222660,10687
933.597,1.303107,244426,12163
937.427,1.316934,263972,12724
941.254,1.319194,281845,13515
945.076,1.324889,297271,14069
950.165,1.304352,315605,15660
953.978,1.314351,328029,15906
957.786,1.321600,340470,16236
961.59,1.311102,352317,17212
965.389,1.300595,363056,18171
969.185,1.297324,373162,18818
972.976,1.311311,382632,18684
976.763,1.312848,391202,19035
981.806,1.310498,400190,19578
985.583,1.308982,406088,19936
989.355,1.299447,410162,20583
993.124,1.315346,412868,19974
996.888,1.312872,414263,20156
1000.65,1.315847,415476,20077
1004.4,1.308196,415479,20434
1009.41,1.306491,414358,20459
1013.15,1.308972,412923,20272
1016.89,1.306816,411526,20304
1020.63,1.315589,409066,19779
1024.36,1.304952,406777,20156
1028.09,1.316872,404427,19497
1031.82,1.314563,401911,19479
1036.78,1.308340,398410,19588
1040.49,1.311889,396204,19321
1044.2,1.316477,394236,19023
1047.91,1.308654,392042,19261
1051.61,1.311223,389823,19039
1055.31,1.321969,388234,18498
1059,1.309949,387599,18986
1063.92,1.323606,386688,18355
1067.61,1.308895,386598,18983
1071.29,1.322868,387377,18419
1074.96,1.313613,388536,18872
1078.63,1.319317,389855,18689
1082.3,1.317173,391215,18847
1085.96,1.312938,393215,19129
1090.84,1.315709,396270,19155
1094.49,1.320042,398760,19084
1098.14,1.312473,400987,19528
1101.79,1.314672,403477,19550
1105.43,1.320759,406116,19404
1109.06,1.314489,407701,19763
1112.7,1.321199,409859,19563
1117.53,1.321238,412494,19687
1121.15,1.317531,414909,19972
1124.77,1.323934,416559,19758
1128.38,1.321873,418532,19946
1131.99,1.316500,419956,20263
1135.6,1.324988,421946,19965
1139.2,1.319791,423881,20298
1143.99,1.328161,426786,20047
1147.58,1.325473,428617,20258
1151.17,1.324911,431169,20405
1154.75,1.318462,433579,20826
1158.33,1.322417,436264,20765
1161.91,1.331859,439132,20452
1165.48,1.317262,442389,21308
1169.04,1.321258,446101,21290
1173.79,1.318090,451929,21726
1177.34,1.321051,456026,21774
1180.9,1.326550,461306,21749
1184.44,1.321700,467657,22296
1187.99,1.319724,473969,22700
1191.52,1.322187,479856,22852
1195.06,1.327002,487372,22954
1199.76,1.323416,497347,23618
1203.29,1.327895,504311,23703
1206.81,1.328007,511507,24035
1210.33,1.326616,519078,24469
1213.84,1.324874,527163,24950
1217.35,1.332909,534208,24820
1220.85,1.324008,540472,25631
1225.51,1.328300,549929,25823
1229.01,1.321425,556888,26567
1232.5,1.327795,562180,26429
1235.98,1.322821,567975,27009
1239.46,1.318761,574815,27591
1242.94,1.326063,582782,27507
1246.41,1.324066,591476,28046
1251.03,1.328021,604016,28381
1254.5,1.326675,612289,28859
1257.96,1.322811,619125,29442
1261.41,1.324159,624551,29608
1264.86,1.324487,629900,29839
1268.31,1.332445,634345,29504
1271.75,1.331053,638574,29796
1276.33,1.328758,642499,30138
1279.76,1.323681,645905,30654
1283.19,1.332810,648307,30128
1286.61,1.331239,650446,30337
1290.03,1.330848,652132,30443
1293.44,1.327883,653907,30735
1296.85,1.330973,655963,30613
1301.39,1.329513,657349,30781
1304.8,1.331716,657558,30635
1308.19,1.338789,658515,30184
1311.58,1.331434,658804,30713
1314.97,1.331344,659011,30729
1318.36,1.334462,658272,30475
1321.73,1.333556,658022,30527
1326.23,1.334082,657870,30483
1329.6,1.329053,656482,30773
1332.97,1.328997,654926,30704
1336.33,1.327029,653727,30787
1339.69,1.340464,652497,29793
1343.04,1.327588,649913,30568
1346.39,1.332600,647671,30113
1349.73,1.333231,645338,29961
1354.18,1.333738,641175,29733
1357.52,1.329420,638376,29899
1360.85,1.327958,635805,29879
1364.17,1.330938,633413,29563
1367.49,1.329799,631026,29529
1370.81,1.333281,628050,29155
1374.12,1.327350,625034,29414
1378.54,1.328316,620272,29125
1381.84,1.329236,616892,28905
1385.14,1.327689,613613,28854
1388.43,1.331707,611526,28491
1391.72,1.334768,610663,28251
1395.01,1.329719,610634,28580
1398.29,1.334139,611700,28340
1402.66,1.331156,614051,28645
1405.93,1.331857,616268,28702
1409.2,1.336182,617795,28488
1412.46,1.333144,618872,28738
1415.72,1.328908,619795,29063
1418.98,1.333436,620495,28794
1422.23,1.333338,621087,28828
1426.56,1.335502,621375,28698
1429.8,1.334945,621616,28746
1433.04,1.337089,622129,28628
1436.27,1.337184,621526,28594
1439.5,1.333854,621113,28795
1442.72,1.331478,620921,28944
1445.94,1.341040,620270,28284
1450.23,1.337739,618860,28435
1453.44,1.334561,617697,28590
1456.64,1.333826,616264,28572
1459.85,1.341970,614413,27957
1463.04,1.337661,612307,28139
1466.24,1.330097,610032,28527
1469.43,1.336572,607345,27981
1473.67,1.337826,603789,27737
1476.85,1.334862,601175,27806
1480.02,1.336152,597737,27565
1483.19,1.336655,594479,27383
1486.36,1.338757,591232,27102
1489.52,1.334876,587853,27189
1492.68,1.337667,583875,26832
1496.89,1.341491,578062,26332
1500.03,1.338383,574159,26342
1503.18,1.337443,570285,26221
1506.32,1.341140,565444,25778
1509.45,1.336506,560571,25830
1512.58,1.337799,555821,25535
1515.71,1.341203,550344,25086
1519.87,1.343011,543983,24693
1522.99,1.351912,538764,23960
1526.1,1.335544,533692,24646
1529.21,1.341438,527902,24050
1532.32,1.339723,521886,23870
1535.42,1.334903,515888,23859
1538.51,1.336122,509987,23520
1541.6,1.338895,503936,23093
1545.72,1.329448,494694,23168
1548.8,1.338043,488378,22424
1551.88,1.334747,481832,22292
1554.95,1.342833,474989,21570
1558.02,1.344171,467818,21179
1561.08,1.338033,460730,21155
1564.15,1.336304,454170,20937
1568.22,1.333482,444181,20610
1571.27,1.343413,436947,19816
1574.32,1.340186,429598,19628
1577.36,1.330666,422039,19710
1580.4,1.339716,414375,18953
1583.43,1.340748,406354,18542
1586.46,1.327585,398475,18742
1590.49,1.332491,388982,18090
1593.51,1.332349,380708,17711
1596.53,1.332166,372727,17347
1599.54,1.324193,365060,17305
1602.55,1.342849,357543,16236
1605.55,1.329313,349495,16373
1608.55,1.327502,341154,16049
1612.54,1.334039,330877,15333
1615.53,1.317734,322904,15536
1618.51,1.324702,315116,14920
1621.49,1.332960,307217,14272
1624.47,1.329219,299481,14033
1627.44,1.330926,292112,13634
1630.41,1.319611,284245,13617
1634.36,1.329412,274079,12837
1637.32,1.323838,266916,12663
1640.27,1.329141,259612,12167
1643.22,1.327271,251804,11852
1646.16,1.309915,244348,11970
1649.1,1.329899,236703,11074
1652.04,1.319402,228171,10936
1655.95,1.330189,215408,10071
1658.88,1.329304,204937,9601
1661.8,1.321338,193395,9228
1664.72,1.311517,179728,8772
1667.63,1.320688,163642,7820
1670.54,1.328703,146312,6864
1673.44,1.358075,128451,5632
1677.31,1.330439,105080,4910
1680.21,1.344597,88906,4021
1683.1,1.325514,75033,3546
1685.99,1.380321,63520,2646
1688.87,1.350419,53714,2397
1691.75,1.238359,45653,2637
1694.62,1.276617,39137,2070
1697.49,1.517461,33776,1026
1701.31,1.211567,28175,1731