File: samples/unknown/Column 1_078105_20241121_164542.csv
Method:,Column 1,,
Host Date-Time:,21/11/24 @ 16:45:42,,
Header Version:,1,,
System Temp (C):,32.46,,
Detector Temp (C):,27.64,,
Humidity (%):,4.01,,
Lamp PD:,3807,,
Shift Vector Coefficients:,-10.5391,0.0761263,-0.000134223,,
Pixel to Wavelength Coefficients:,1775.68,-0.916766,-0.000235065,,
Serial Number:,5510004,,
Scan Config Name:,Column 1,,
Scan Config Type:,Slew,,
Section 1,,
Start wavelength (nm):,900,,
End wavelength (nm):,1700,,
Pattern Pixel Width (nm):,   7.03,,,,
Exposure (ms):,  0.635,,,,
Digital Resolution:,228,,
Num Repeats:,6,,
PGA Gain:,64,,
Total Measurement Time in sec:,  2.681,,
Wavelength (nm),Absorbance (AU),Reference Signal (unitless),Sample Signal (unitless)
901.51,1.304184,108485,5385
905.376,1.316504,121306,5853
909.237,1.319145,131909,6326
913.095,1.341131,143299,6533
916.948,1.346185,156982,7074
922.079,1.321937,179937,8574
925.923,1.308819,200504,9847
929.762,1.313014,222660,10830
933.597,1.293956,244426,12422
937.427,1.317549,263972,12706
941.254,1.304131,281845,13992
945.076,1.328516,297271,13952
950.165,1.314140,315605,15311
953.978,1.316871,328029,15814
957.786,1.308817,340470,16721
961.59,1.311910,352317,17180
965.389,1.318153,363056,17451
969.185,1.313117,373162,18146
972.976,1.312009,382632,18654
976.763,1.311277,391202,19104
981.806,1.312833,400190,19473
985.583,1.308830,406088,19943
989.355,1.304604,410162,20340
993.124,1.311515,412868,20151
996.888,1.311474,414263,20221
1000.65,1.310216,415476,20339
1004.4,1.313563,415479,20183
1009.41,1.313683,414358,20123
1013.15,1.314253,412923,20027
1016.89,1.308230,411526,20238
1020.63,1.304319,409066,20299
1024.36,1.307177,406777,20053
1028.09,1.308795,404427,19863
1031.82,1.308695,401911,19744
1036.78,1.315021,398410,19289
1040.49,1.314346,396204,19212
1044.2,1.307418,394236,19424
1047.91,1.313597,392042,19043
1051.61,1.312228,389823,18995
1055.31,1.307469,388234,19126
1059,1.310384,387599,18967
1063.92,1.314985,386688,18723
1067.61,1.308300,386598,19009
1071.29,1.322302,387377,18443
1074.96,1.312143,388536,18936
1078.63,1.316999,389855,18789
1082.3,1.314096,391215,18981
1085.96,1.323137,393215,18685
1090.84,1.314622,396270,19203
1094.49,1.315740,398760,19274
1098.14,1.315060,400987,19412
1101.79,1.309790,403477,19771
1105.43,1.316660,406116,19588
1109.06,1.321177,407701,19461
1112.7,1.327978,409859,19260
1117.53,1.313563,412494,20038
1121.15,1.311378,414909,20257
1124.77,1.312951,416559,20264
1128.38,1.319528,418532,20054
1131.99,1.316907,419956,20244
1135.6,1.324205,421946,20001
1139.2,1.319791,423881,20298
1143.99,1.321347,426786,20364
1147.58,1.315575,428617,20725
1151.17,1.314647,431169,20893
1154.75,1.330000,433579,20280
1158.33,1.314829,436264,21131
1161.91,1.317120,439132,21158
1165.48,1.321584,442389,21097
1169.04,1.321319,446101,21287
1173.79,1.314507,451929,21906
1177.34,1.319220,456026,21866
1180.9,1.324438,461306,21855
1184.44,1.313538,467657,22719
1187.99,1.319915,473969,22690
1191.52,1.317142,479856,23119
1195.06,1.320990,487372,23274
1199.76,1.321563,497347,23719
1203.29,1.318973,504311,24195
1206.81,1.322156,511507,24361
1210.33,1.334497,519078,24029
1213.84,1.326688,527163,24846
1217.35,1.322040,534208,25449
1220.85,1.319038,540472,25926
1225.51,1.328182,549929,25830
1229.01,1.320446,556888,26627
1232.5,1.330234,562180,26281
1235.98,1.322837,567975,27008
1239.46,1.321081,574815,27444
1242.94,1.321633,582782,27789
1246.41,1.322289,591476,28161
1251.03,1.324348,604016,28622
1254.5,1.320727,612289,29257
1257.96,1.322959,619125,29432
1261.41,1.329576,624551,29241
1264.86,1.333161,629900,29249
1268.31,1.327294,634345,29856
1271.75,1.329003,638574,29937
1276.33,1.327937,642499,30195
1279.76,1.330953,645905,30145
1283.19,1.329608,648307,30351
1286.61,1.330195,650446,30410
1290.03,1.336722,652132,30034
1293.44,1.331900,653907,30452
1296.85,1.331627,655963,30567
1301.39,1.329231,657349,30801
1304.8,1.331815,657558,30628
1308.19,1.334294,658515,30498
1311.58,1.335240,658804,30445
1314.97,1.334450,659011,30510
1318.36,1.335275,658272,30418
1321.73,1.328732,658022,30868
1326.23,1.336640,657870,30304
1329.6,1.336928,656482,30220
1332.97,1.336243,654926,30196
1336.33,1.335490,653727,30193
1339.69,1.332119,652497,30371
1343.04,1.335401,649913,30023
1346.39,1.328810,647671,30377
1349.73,1.332724,645338,29996
1354.18,1.330986,641175,29922
1357.52,1.326856,638376,30076
1360.85,1.333119,635805,29526
1364.17,1.329472,633413,29663
1367.49,1.323665,631026,29949
1370.81,1.322730,628050,29872
1374.12,1.325670,625034,29528
1378.54,1.334927,620272,28685
1381.84,1.338760,616892,28278
1385.14,1.328351,613613,28810
1388.43,1.332150,611526,28462
1391.72,1.330028,610663,28561
1395.01,1.334071,610634,28295
1398.29,1.331877,611700,28488
1402.66,1.331398,614051,28629
1405.93,1.330468,616268,28794
1409.2,1.330714,617795,28849
1412.46,1.334219,618872,28667
1415.72,1.334669,619795,28680
1418.98,1.332457,620495,28859
1422.23,1.330799,621087,28997
1426.56,1.333268,621375,28846
1429.8,1.334326,621616,28787
1433.04,1.336029,622129,28698
1436.27,1.337579,621526,28568
1439.5,1.332980,621113,28853
1442.72,1.327996,620921,29177
1445.94,1.334896,620270,28687
1450.23,1.327953,618860,29083
1453.44,1.329787,617697,28906
1456.64,1.335318,616264,28474
1459.85,1.331124,614413,28664
1463.04,1.336443,612307,28218
1466.24,1.342043,610032,27753
1469.43,1.341992,607345,27634
1473.67,1.335920,603789,27859
1476.85,1.336020,601175,27732
1480.02,1.333607,597737,27727
1483.19,1.339871,594479,27181
1486.36,1.330692,591232,27610
1489.52,1.344812,587853,26574
1492.68,1.339597,583875,26713
1496.89,1.336065,578062,26663
1500.03,1.337807,574159,26377
1503.18,1.336764,570285,26262
1506.32,1.344608,565444,25573
1509.45,1.344190,560571,25377
1512.58,1.338088,555821,25518
1515.71,1.341463,550344,25071
1519.87,1.337645,543983,25000
1522.99,1.345203,538764,24333
1526.1,1.340328,533692,24376
1529.21,1.332077,527902,24574
1532.32,1.340597,521886,23822
1535.42,1.348042,515888,23148
1538.51,1.337009,509987,23472
1541.6,1.338050,503936,23138
1545.72,1.334444,494694,22903
1548.8,1.331221,488378,22779
1551.88,1.341046,481832,21971
1554.95,1.332940,474989,22067
1558.02,1.333617,467818,21700
1561.08,1.336415,460730,21234
1564.15,1.329676,454170,21259
1568.22,1.340192,444181,20294
1571.27,1.339138,436947,20012
1574.32,1.338310,429598,19713
1577.36,1.328841,422039,19793
1580.4,1.340449,414375,18921
1583.43,1.335070,406354,18786
1586.46,1.337808,398475,18306
1590.49,1.329715,388982,18206
1593.51,1.331883,380708,17730
1596.53,1.341095,372727,16994
1599.54,1.340090,365060,16683
1602.55,1.325982,357543,16879
1605.55,1.338155,349495,16043
1608.55,1.321883,341154,16258
1612.54,1.324708,330877,15666
1615.53,1.331883,322904,15038
1618.51,1.337372,315116,14491
1621.49,1.331290,307217,14327
1624.47,1.334637,299481,13859
1627.44,1.317873,292112,14050
1630.41,1.318465,284245,13653
1634.36,1.317960,274079,13180
1637.32,1.327939,266916,12544
1640.27,1.304308,259612,12883
1643.22,1.330471,251804,11765
1646.16,1.323513,244348,11601
1649.1,1.317489,236703,11395
1652.04,1.337609,228171,10487
1655.95,1.310421,215408,10540
1658.88,1.318934,204937,9833
1661.8,1.309820,193395,9476
1664.72,1.306839,179728,8867
1667.63,1.299763,163642,8206
1670.54,1.299052,146312,7349
1673.44,1.301405,128451,6417
1677.31,1.315400,105080,5083
1680.21,1.268686,88906,4789
1683.1,1.325636,75033,3545
1685.99,1.230387,63520,3737
1688.87,1.275243,53714,2850
1691.75,1.277272,45653,2411
1694.62,1.308608,39137,1923
1697.49,1.479003,33776,1121
1701.31,1.287001,28175,1455