File: samples/unknown/Column 1_078030_20241121_164203.csv
Method:,Column 1,,
Host Date-Time:,21/11/24 @ 16:42:3,,
Header Version:,1,,
System Temp (C):,30.17,,
Detector Temp (C):,25.06,,
Humidity (%):,6.24,,
Lamp PD:,3812,,
Shift Vector Coefficients:,-10.5391,0.0761263,-0.000134223,,
Pixel to Wavelength Coefficients:,1775.68,-0.916766,-0.000235065,,
Serial Number:,5510004,,
Scan Config Name:,Column 1,,
Scan Config Type:,Slew,,
Section 1,,
Start wavelength (nm):,900,,
End wavelength (nm):,1700,,
Pattern Pixel Width (nm):,   7.03,,,,
Exposure (ms):,  0.635,,,,
Digital Resolution:,228,,
Num Repeats:,6,,
PGA Gain:,64,,
Total Measurement Time in sec:,  2.733,,
Wavelength (nm),Absorbance (AU),Reference Signal (unitless),Sample Signal (unitless)
901.51,1.324407,108485,5140
905.376,1.304286,121306,6020
909.237,1.334802,131909,6102
913.095,1.316263,143299,6918
916.948,1.304312,156982,7790
922.079,1.296796,179937,9085
925.923,1.306269,200504,9905
929.762,1.332450,222660,10356
933.597,1.323278,244426,11611
937.427,1.324439,263972,12506
941.254,1.318328,281845,13542
945.076,1.314790,297271,14400
950.165,1.312498,315605,15369
953.978,1.309032,328029,16102
957.786,1.313255,340470,16551
961.59,1.312391,352317,17161
965.389,1.312934,363056,17662
969.185,1.313428,373162,18133
972.976,1.303845,382632,19008
976.763,1.308196,391202,19240
981.806,1.314688,400190,19390
985.583,1.312613,406088,19770
989.355,1.320633,410162,19603
993.124,1.319431,412868,19787
996.888,1.312420,414263,20177
1000.65,1.309193,415476,20387
1004.4,1.317085,415479,20020
1009.41,1.306428,414358,20462
1013.15,1.308287,412923,20304
1016.89,1.313237,411526,20006
1020.63,1.313421,409066,19878
1024.36,1.304392,406777,20182
1028.09,1.309342,404427,19838
1031.82,1.309906,401911,19689
1036.78,1.319797,398410,19078
1040.49,1.310184,396204,19397
1044.2,1.310266,394236,19297
1047.91,1.319660,392042,18779
1051.61,1.315648,389823,18846
1055.31,1.304573,388234,19254
1059,1.316262,387599,18712
1063.92,1.308470,386688,19006
1067.61,1.317910,386598,18593
1071.29,1.306828,387377,19112
1074.96,1.318566,388536,18658
1078.63,1.306247,389855,19260
1082.3,1.311951,391215,19075
1085.96,1.307927,393215,19351
1090.84,1.319672,396270,18981
1094.49,1.314704,398760,19320
1098.14,1.320553,400987,19168
1101.79,1.324127,403477,19129
1105.43,1.319641,406116,19454
1109.06,1.313457,407701,19810
1112.7,1.323782,409859,19447
1117.53,1.318270,412494,19822
1121.15,1.322276,414909,19755
1124.77,1.305577,416559,20611
1128.38,1.316571,418532,20191
1131.99,1.323500,419956,19939
1135.6,1.329075,421946,19778
1139.2,1.323832,423881,20110
1143.99,1.320942,426786,20383
1147.58,1.319279,428617,20549
1151.17,1.310509,431169,21093
1154.75,1.318713,433579,20814
1158.33,1.320019,436264,20880
1161.91,1.322927,439132,20877
1165.48,1.312035,442389,21566
1169.04,1.315986,446101,21550
1173.79,1.321140,451929,21574
1177.34,1.320553,456026,21799
1180.9,1.322812,461306,21937
1184.44,1.328493,467657,21950
1187.99,1.320567,473969,22656
1191.52,1.322073,479856,22858
1195.06,1.318404,487372,23413
1199.76,1.322920,497347,23645
1203.29,1.325593,504311,23829
1206.81,1.322228,511507,24357
1210.33,1.321780,519078,24743
1213.84,1.324579,527163,24967
1217.35,1.324401,534208,25311
1220.85,1.321490,540472,25780
1225.51,1.324949,549929,26023
1229.01,1.329211,556888,26095
1232.5,1.322389,562180,26760
1235.98,1.322098,567975,27054
1239.46,1.324369,574815,27237
1242.94,1.326474,582782,27481
1246.41,1.324655,591476,28008
1251.03,1.332079,604016,28117
1254.5,1.323452,612289,29074
1257.96,1.324037,619125,29359
1261.41,1.325025,624551,29549
1264.86,1.330009,629900,29462
1268.31,1.332607,634345,29493
1271.75,1.333406,638574,29635
1276.33,1.330505,642499,30017
1279.76,1.328096,645905,30344
1283.19,1.330094,648307,30317
1286.61,1.325903,650446,30712
1290.03,1.331648,652132,30387
1293.44,1.329695,653907,30607
1296.85,1.330236,655963,30665
1301.39,1.332117,657349,30597
1304.8,1.331645,657558,30640
1308.19,1.334394,658515,30491
1311.58,1.330855,658804,30754
1314.97,1.337393,659011,30304
1318.36,1.333494,658272,30543
1321.73,1.332789,658022,30581
1326.23,1.338450,657870,30178
1329.6,1.331047,656482,30632
1332.97,1.335252,654926,30265
1336.33,1.334341,653727,30273
1339.69,1.330863,652497,30459
1343.04,1.333337,649913,30166
1346.39,1.333192,647671,30072
1349.73,1.330976,645338,30117
1354.18,1.330841,641175,29932
1357.52,1.325501,638376,30170
1360.85,1.325971,635805,30016
1364.17,1.329443,633413,29665
1367.49,1.331567,631026,29409
1370.81,1.331038,628050,29306
1374.12,1.333087,625034,29028
1378.54,1.326323,620272,29259
1381.84,1.335242,616892,28508
1385.14,1.331210,613613,28621
1388.43,1.331555,611526,28501
1391.72,1.329496,610663,28596
1395.01,1.331226,610634,28481
1398.29,1.328445,611700,28714
1402.66,1.331459,614051,28625
1405.93,1.335199,616268,28482
1409.2,1.329451,617795,28933
1412.46,1.332480,618872,28782
1415.72,1.333671,619795,28746
1418.98,1.339925,620495,28367
1422.23,1.336301,621087,28632
1426.56,1.337687,621375,28554
1429.8,1.343828,621616,28164
1433.04,1.337894,622129,28575
1436.27,1.332171,621526,28926
1439.5,1.336091,621113,28647
1442.72,1.338862,620921,28456
1445.94,1.333249,620270,28796
1450.23,1.340697,618860,28242
1453.44,1.337228,617697,28415
1456.64,1.337015,616264,28363
1459.85,1.335035,614413,28407
1463.04,1.339083,612307,28047
1466.24,1.339577,610032,27911
1469.43,1.337785,607345,27903
1473.67,1.338296,603789,27707
1476.85,1.338722,601175,27560
1480.02,1.339283,597737,27367
1483.19,1.341873,594479,27056
1486.36,1.337381,591232,27188
1489.52,1.340438,587853,26843
1492.68,1.339760,583875,26703
1496.89,1.338794,578062,26496
1500.03,1.342042,574159,26121
1503.18,1.341921,570285,25952
1506.32,1.340938,565444,25790
1509.45,1.341614,560571,25528
1512.58,1.332895,555821,25825
1515.71,1.336862,550344,25338
1519.87,1.342467,543983,24724
1522.99,1.338983,538764,24684
1526.1,1.332069,533692,24844
1529.21,1.342595,527902,23986
1532.32,1.348341,521886,23401
1535.42,1.341709,515888,23488
1538.51,1.358243,509987,22352
1541.6,1.340553,503936,23005
1545.72,1.334406,494694,22905
1548.8,1.338566,488378,22397
1551.88,1.331022,481832,22484
1554.95,1.339544,474989,21734
1558.02,1.336408,467818,21561
1561.08,1.334598,460730,21323
1564.15,1.340096,454170,20755
1568.22,1.336994,444181,20444
1571.27,1.334691,436947,20218
1574.32,1.333402,429598,19937
1577.36,1.337842,422039,19387
1580.4,1.327092,414375,19512
1583.43,1.336065,406354,18743
1586.46,1.334781,398475,18434
1590.49,1.332779,388982,18078
1593.51,1.332030,380708,17724
1596.53,1.328353,372727,17500
1599.54,1.330895,365060,17040
1602.55,1.339094,357543,16377
1605.55,1.333417,349495,16219
1608.55,1.321963,341154,16255
1612.54,1.336910,330877,15232
1615.53,1.336704,322904,14872
1618.51,1.330681,315116,14716
1621.49,1.332595,307217,14284
1624.47,1.309288,299481,14692
1627.44,1.327752,292112,13734
1630.41,1.331870,284245,13238
1634.36,1.315955,274079,13241
1637.32,1.319980,266916,12776
1640.27,1.324384,259612,12301
1643.22,1.312749,251804,12255
1646.16,1.339450,244348,11183
1649.1,1.325335,236703,11191
1652.04,1.328228,228171,10716
1655.95,1.319961,215408,10311
1658.88,1.317523,204937,9865
1661.8,1.334671,193395,8949
1664.72,1.339374,179728,8227
1667.63,1.324145,163642,7758
1670.54,1.318263,146312,7031
1673.44,1.342622,128451,5836
1677.31,1.327793,105080,4940
1680.21,1.391304,88906,3611
1683.1,1.336804,75033,3455
1685.99,1.380157,63520,2647
1688.87,1.384714,53714,2215
1691.75,1.363682,45653,1976
1694.62,1.370652,39137,1667
1697.49,1.347909,33776,1516
1701.31,1.472140,28175,950