File: samples/unknown/Column 1_078041_20241121_164235.csv
Method:,Column 1,,
Host Date-Time:,21/11/24 @ 16:42:35,,
Header Version:,1,,
System Temp (C):,30.6,,
Detector Temp (C):,25.35,,
Humidity (%):,5.75,,
Lamp PD:,3811,,
Shift Vector Coefficients:,-10.5391,0.0761263,-0.000134223,,
Pixel to Wavelength Coefficients:,1775.68,-0.916766,-0.000235065,,
Serial Number:,5510004,,
Scan Config Name:,Column 1,,
Scan Config Type:,Slew,,
Section 1,,
Start wavelength (nm):,900,,
End wavelength (nm):,1700,,
Pattern Pixel Width (nm):,   7.03,,,,
Exposure (ms):,  0.635,,,,
Digital Resolution:,228,,
Num Repeats:,6,,
PGA Gain:,64,,
Total Measurement Time in sec:,  2.706,,
Wavelength (nm),Absorbance (AU),Reference Signal (unitless),Sample Signal (unitless)
901.51,1.297859,108485,5464
905.376,1.309073,121306,5954
909.237,1.330200,131909,6167
913.095,1.300785,143299,7169
916.948,1.294119,156982,7975
922.079,1.316701,179937,8678
925.923,1.303689,200504,9964
929.762,1.300835,222660,11138
933.597,1.308749,244426,12006
937.427,1.292577,263972,13458
941.254,1.326910,281845,13277
945.076,1.307700,297271,14637
950.165,1.311539,315605,15403
953.978,1.307793,328029,16148
957.786,1.303550,340470,16925
961.59,1.315235,352317,17049
965.389,1.311289,363056,17729
969.185,1.304092,373162,18527
972.976,1.316526,382632,18461
976.763,1.309802,391202,19169
981.806,1.301953,400190,19967
985.583,1.310641,406088,19860
989.355,1.306595,410162,20247
993.124,1.303317,412868,20535
996.888,1.311645,414263,20213
1000.65,1.316692,415476,20038
1004.4,1.314360,415479,20146
1009.41,1.301175,414358,20711
1013.15,1.309358,412923,20254
1016.89,1.316571,411526,19853
1020.63,1.309614,409066,20053
1024.36,1.304887,406777,20159
1028.09,1.312396,404427,19699
1031.82,1.301193,401911,20088
1036.78,1.311813,398410,19432
1040.49,1.316795,396204,19104
1044.2,1.310807,394236,19273
1047.91,1.310484,392042,19180
1051.61,1.310221,389823,19083
1055.31,1.310180,388234,19007
1059,1.313048,387599,18851
1063.92,1.320001,386688,18508
1067.61,1.312248,386598,18837
1071.29,1.307078,387377,19101
1074.96,1.313936,388536,18858
1078.63,1.316653,389855,18804
1082.3,1.308346,391215,19234
1085.96,1.315191,393215,19030
1090.84,1.316163,396270,19135
1094.49,1.316552,398760,19238
1098.14,1.309238,400987,19674
1101.79,1.309768,403477,19772
1105.43,1.314338,406116,19693
1109.06,1.319862,407701,19520
1112.7,1.312409,409859,19963
1117.53,1.327280,412494,19415
1121.15,1.314908,414909,20093
1124.77,1.317519,416559,20052
1128.38,1.313890,418532,20316
1131.99,1.319792,419956,20110
1135.6,1.320659,421946,20165
1139.2,1.314031,423881,20569
1143.99,1.317166,426786,20561
1147.58,1.317233,428617,20646
1151.17,1.318950,431169,20687
1154.75,1.317421,433579,20876
1158.33,1.317861,436264,20984
1161.91,1.318230,439132,21104
1165.48,1.321707,442389,21091
1169.04,1.322933,446101,21208
1173.79,1.309011,451929,22185
1177.34,1.313302,456026,22166
1180.9,1.322535,461306,21951
1184.44,1.320320,467657,22367
1187.99,1.325832,473969,22383
1191.52,1.318402,479856,23052
1195.06,1.317273,487372,23474
1199.76,1.320302,497347,23788
1203.29,1.325301,504311,23845
1206.81,1.320306,511507,24465
1210.33,1.317571,519078,24984
1213.84,1.328510,527163,24742
1217.35,1.317710,534208,25704
1220.85,1.329395,540472,25315
1225.51,1.325801,549929,25972
1229.01,1.323967,556888,26412
1232.5,1.326007,562180,26538
1235.98,1.321616,567975,27084
1239.46,1.322936,574815,27327
1242.94,1.317635,582782,28046
1246.41,1.329771,591476,27680
1251.03,1.323863,604016,28654
1254.5,1.316928,612289,29514
1257.96,1.325697,619125,29247
1261.41,1.326586,624551,29443
1264.86,1.324997,629900,29804
1268.31,1.329277,634345,29720
1271.75,1.329438,638574,29907
1276.33,1.328844,642499,30132
1279.76,1.326068,645905,30486
1283.19,1.330037,648307,30321
1286.61,1.329652,650446,30448
1290.03,1.327707,652132,30664
1293.44,1.329837,653907,30597
1296.85,1.327061,655963,30890
1301.39,1.327571,657349,30919
1304.8,1.330047,657558,30753
1308.19,1.335549,658515,30410
1311.58,1.332425,658804,30643
1314.97,1.331669,659011,30706
1318.36,1.334576,658272,30467
1321.73,1.331074,658022,30702
1326.23,1.331370,657870,30674
1329.6,1.332396,656482,30537
1332.97,1.331380,654926,30536
1336.33,1.330712,653727,30527
1339.69,1.327936,652497,30665
1343.04,1.334765,649913,30067
1346.39,1.327967,647671,30436
1349.73,1.332362,645338,30021
1354.18,1.329754,641175,30007
1357.52,1.329362,638376,29903
1360.85,1.327827,635805,29888
1364.17,1.323149,633413,30098
1367.49,1.326312,631026,29767
1370.81,1.333371,628050,29149
1374.12,1.326008,625034,29505
1378.54,1.325922,620272,29286
1381.84,1.331133,616892,28779
1385.14,1.333355,613613,28480
1388.43,1.326329,611526,28846
1391.72,1.329679,610663,28584
1395.01,1.334839,610634,28245
1398.29,1.326408,611700,28849
1402.66,1.329355,614051,28764
1405.93,1.328646,616268,28915
1409.2,1.323740,617795,29316
1412.46,1.331199,618872,28867
1415.72,1.335958,619795,28595
1418.98,1.326583,620495,29252
1422.23,1.327234,621087,29236
1426.56,1.333630,621375,28822
1429.8,1.327114,621616,29269
1433.04,1.331962,622129,28968
1436.27,1.331271,621526,28986
1439.5,1.331822,621113,28930
1442.72,1.334202,620921,28763
1445.94,1.336610,620270,28574
1450.23,1.336047,618860,28546
1453.44,1.340835,617697,28180
1456.64,1.334389,616264,28535
1459.85,1.330609,614413,28698
1463.04,1.334523,612307,28343
1466.24,1.332999,610032,28337
1469.43,1.331496,607345,28310
1473.67,1.336794,603789,27803
1476.85,1.334285,601175,27843
1480.02,1.338268,597737,27431
1483.19,1.334551,594479,27516
1486.36,1.338692,591232,27106
1489.52,1.337696,587853,27013
1492.68,1.340737,583875,26643
1496.89,1.344951,578062,26123
1500.03,1.343742,574159,26019
1503.18,1.348039,570285,25589
1506.32,1.335350,565444,26124
1509.45,1.337837,560571,25751
1512.58,1.338889,555821,25471
1515.71,1.336006,550344,25388
1519.87,1.334996,543983,25153
1522.99,1.338842,538764,24692
1526.1,1.337133,533692,24556
1529.21,1.338935,527902,24189
1532.32,1.336858,521886,24028
1535.42,1.336197,515888,23788
1538.51,1.338938,509987,23368
1541.6,1.331955,503936,23465
1545.72,1.332307,494694,23016
1548.8,1.338644,488378,22393
1551.88,1.334727,481832,22293
1554.95,1.340484,474989,21687
1558.02,1.326590,467818,22054
1561.08,1.327989,460730,21650
1564.15,1.330862,454170,21201
1568.22,1.329601,444181,20795
1571.27,1.340595,436947,19945
1574.32,1.337275,429598,19760
1577.36,1.341057,422039,19244
1580.4,1.328541,414375,19447
1583.43,1.339532,406354,18594
1586.46,1.331730,398475,18564
1590.49,1.333789,388982,18036
1593.51,1.335203,380708,17595
1596.53,1.323197,372727,17709
1599.54,1.331890,365060,17001
1602.55,1.334137,357543,16565
1605.55,1.335000,349495,16160
1608.55,1.330163,341154,15951
1612.54,1.321670,330877,15776
1615.53,1.337025,322904,14861
1618.51,1.316084,315116,15219
1621.49,1.330261,307217,14361
1624.47,1.333730,299481,13888
1627.44,1.322535,292112,13900
1630.41,1.320250,284245,13597
1634.36,1.316021,274079,13239
1637.32,1.319776,266916,12782
1640.27,1.310384,259612,12704
1643.22,1.319715,251804,12060
1646.16,1.319971,244348,11696
1649.1,1.317871,236703,11385
1652.04,1.309935,228171,11177
1655.95,1.333827,215408,9987
1658.88,1.326598,204937,9661
1661.8,1.334962,193395,8943
1664.72,1.329407,179728,8418
1667.63,1.337157,163642,7529
1670.54,1.329209,146312,6856
1673.44,1.310709,128451,6281
1677.31,1.325338,105080,4968
1680.21,1.362456,88906,3859
1683.1,1.292394,75033,3827
1685.99,1.277218,63520,3355
1688.87,1.347530,53714,2413
1691.75,1.262573,45653,2494
1694.62,1.446149,39137,1401
1697.49,1.251917,33776,1891
1701.31,1.268306,28175,1519