File: samples/unknown/Column 1_078051_20241121_164304.csv
Method:,Column 1,,
Host Date-Time:,21/11/24 @ 16:43:4,,
Header Version:,1,,
System Temp (C):,30.89,,
Detector Temp (C):,25.64,,
Humidity (%):,5.37,,
Lamp PD:,3810,,
Shift Vector Coefficients:,-10.5391,0.0761263,-0.000134223,,
Pixel to Wavelength Coefficients:,1775.68,-0.916766,-0.000235065,,
Serial Number:,5510004,,
Scan Config Name:,Column 1,,
Scan Config Type:,Slew,,
Section 1,,
Start wavelength (nm):,900,,
End wavelength (nm):,1700,,
Pattern Pixel Width (nm):,   7.03,,,,
Exposure (ms):,  0.635,,,,
Digital Resolution:,228,,
Num Repeats:,6,,
PGA Gain:,64,,
Total Measurement Time in sec:,  2.722,,
Wavelength (nm),Absorbance (AU),Reference Signal (unitless),Sample Signal (unitless)
901.51,1.311340,108485,5297
905.376,1.326031,121306,5726
909.237,1.323978,131909,6256
913.095,1.322841,143299,6814
916.948,1.310658,156982,7677
922.079,1.312319,179937,8766
925.923,1.322893,200504,9533
929.762,1.326039,222660,10510
933.597,1.307557,244426,12039
937.427,1.305083,263972,13076
941.254,1.307308,281845,13890
945.076,1.318303,297271,14284
950.165,1.310834,315605,15428
953.978,1.325412,328029,15506
957.786,1.306072,340470,16827
961.59,1.311329,352317,17203
965.389,1.303689,363056,18042
969.185,1.312901,373162,18155
972.976,1.302750,382632,19056
976.763,1.310368,391202,19144
981.806,1.313704,400190,19434
985.583,1.314176,406088,19699
989.355,1.303986,410162,20369
993.124,1.310073,412868,20218
996.888,1.314123,414263,20098
1000.65,1.312507,415476,20232
1004.4,1.304576,415479,20605
1009.41,1.312067,414358,20198
1013.15,1.315426,412923,19973
1016.89,1.300931,411526,20581
1020.63,1.309224,409066,20071
1024.36,1.305448,406777,20133
1028.09,1.310943,404427,19765
1031.82,1.312251,401911,19583
1036.78,1.313380,398410,19362
1040.49,1.316749,396204,19106
1044.2,1.313474,394236,19155
1047.91,1.314145,392042,19019
1051.61,1.317033,389823,18786
1055.31,1.319604,388234,18599
1059,1.310521,387599,18961
1063.92,1.322897,386688,18385
1067.61,1.317117,386598,18627
1071.29,1.306464,387377,19128
1074.96,1.309172,388536,19066
1078.63,1.316122,389855,18827
1082.3,1.310451,391215,19141
1085.96,1.327552,393215,18496
1090.84,1.312254,396270,19308
1094.49,1.317772,398760,19184
1098.14,1.321370,400987,19132
1101.79,1.321027,403477,19266
1105.43,1.327344,406116,19112
1109.06,1.315787,407701,19704
1112.7,1.318874,409859,19668
1117.53,1.326610,412494,19445
1121.15,1.317749,414909,19962
1124.77,1.325254,416559,19698
1128.38,1.326866,418532,19718
1131.99,1.322521,419956,19984
1135.6,1.326535,421946,19894
1139.2,1.326757,423881,19975
1143.99,1.321176,426786,20372
1147.58,1.322865,428617,20380
1151.17,1.323445,431169,20474
1154.75,1.323032,433579,20608
1158.33,1.318856,436264,20936
1161.91,1.313828,439132,21319
1165.48,1.316305,442389,21355
1169.04,1.315503,446101,21574
1173.79,1.316315,451929,21815
1177.34,1.319339,456026,21860
1180.9,1.322337,461306,21961
1184.44,1.327288,467657,22011
1187.99,1.322334,473969,22564
1191.52,1.324149,479856,22749
1195.06,1.331548,487372,22715
1199.76,1.320484,497347,23778
1203.29,1.320681,504311,24100
1206.81,1.327971,511507,24037
1210.33,1.324209,519078,24605
1213.84,1.318498,527163,25319
1217.35,1.324350,534208,25314
1220.85,1.329087,540472,25333
1225.51,1.323633,549929,26102
1229.01,1.316242,556888,26886
1232.5,1.322811,562180,26734
1235.98,1.323529,567975,26965
1239.46,1.330454,574815,26858
1242.94,1.324629,582782,27598
1246.41,1.320442,591476,28281
1251.03,1.322834,604016,28722
1254.5,1.324963,612289,28973
1257.96,1.329350,619125,29002
1261.41,1.323602,624551,29646
1264.86,1.331900,629900,29334
1268.31,1.327672,634345,29830
1271.75,1.326760,638574,30092
1276.33,1.332535,642499,29877
1279.76,1.330651,645905,30166
1283.19,1.330023,648307,30322
1286.61,1.328129,650446,30555
1290.03,1.330634,652132,30458
1293.44,1.326782,653907,30813
1296.85,1.335021,655963,30329
1301.39,1.331961,657349,30608
1304.8,1.338114,657558,30187
1308.19,1.334437,658515,30488
1311.58,1.328096,658804,30950
1314.97,1.332689,659011,30634
1318.36,1.331649,658272,30673
1321.73,1.336884,658022,30294
1326.23,1.337128,657870,30270
1329.6,1.329109,656482,30769
1332.97,1.334177,654926,30340
1336.33,1.330129,653727,30568
1339.69,1.329567,652497,30550
1343.04,1.331241,649913,30312
1346.39,1.333293,647671,30065
1349.73,1.333564,645338,29938
1354.18,1.331960,641175,29855
1357.52,1.332189,638376,29709
1360.85,1.334991,635805,29399
1364.17,1.336587,633413,29181
1367.49,1.333639,631026,29269
1370.81,1.329765,628050,29392
1374.12,1.325464,625034,29542
1378.54,1.324471,620272,29384
1381.84,1.323119,616892,29315
1385.14,1.325736,613613,28984
1388.43,1.328412,611526,28708
1391.72,1.335260,610663,28219
1395.01,1.333044,610634,28362
1398.29,1.329065,611700,28673
1402.66,1.328963,614051,28790
1405.93,1.331555,616268,28722
1409.2,1.332811,617795,28710
1412.46,1.330162,618872,28936
1415.72,1.329506,619795,29023
1418.98,1.337223,620495,28544
1422.23,1.335271,621087,28700
1426.56,1.328194,621375,29185
1429.8,1.337992,621616,28545
1433.04,1.334081,622129,28827
1436.27,1.334806,621526,28751
1439.5,1.333266,621113,28834
1442.72,1.330489,620921,29010
1445.94,1.337340,620270,28526
1450.23,1.340267,618860,28270
1453.44,1.337197,617697,28417
1456.64,1.339348,616264,28211
1459.85,1.337980,614413,28215
1463.04,1.334692,612307,28332
1466.24,1.335720,610032,28160
1469.43,1.331864,607345,28286
1473.67,1.337560,603789,27754
1476.85,1.341250,601175,27400
1480.02,1.332309,597737,27810
1483.19,1.333212,594479,27601
1486.36,1.336854,591232,27221
1489.52,1.334205,587853,27231
1492.68,1.341389,583875,26603
1496.89,1.340996,578062,26362
1500.03,1.342858,574159,26072
1503.18,1.338039,570285,26185
1506.32,1.340635,565444,25808
1509.45,1.340594,560571,25588
1512.58,1.337204,555821,25570
1515.71,1.341774,550344,25053
1519.87,1.341782,543983,24763
1522.99,1.345328,538764,24326
1526.1,1.335333,533692,24658
1529.21,1.336518,527902,24324
1532.32,1.336406,521886,24053
1535.42,1.345591,515888,23279
1538.51,1.335476,509987,23555
1541.6,1.337562,503936,23164
1545.72,1.339998,494694,22612
1548.8,1.342051,488378,22218
1551.88,1.341244,481832,21961
1554.95,1.336696,474989,21877
1558.02,1.346660,467818,21058
1561.08,1.338485,460730,21133
1564.15,1.337031,454170,20902
1568.22,1.335361,444181,20521
1571.27,1.334326,436947,20235
1574.32,1.336551,429598,19793
1577.36,1.335229,422039,19504
1580.4,1.331544,414375,19313
1583.43,1.332926,406354,18879
1586.46,1.331496,398475,18574
1590.49,1.330646,388982,18167
1593.51,1.339644,380708,17416
1596.53,1.336646,372727,17169
1599.54,1.327645,365060,17168
1602.55,1.325827,357543,16885
1605.55,1.323228,349495,16604
1608.55,1.323194,341154,16209
1612.54,1.326960,330877,15585
1615.53,1.325547,322904,15259
1618.51,1.323249,315116,14970
1621.49,1.328842,307217,14408
1624.47,1.320699,299481,14311
1627.44,1.317533,292112,14061
1630.41,1.333349,284245,13193
1634.36,1.313404,274079,13319
1637.32,1.321956,266916,12718
1640.27,1.320553,259612,12410
1643.22,1.328666,251804,11814
1646.16,1.322578,244348,11626
1649.1,1.319629,236703,11339
1652.04,1.324595,228171,10806
1655.95,1.320551,215408,10297
1658.88,1.308031,204937,10083
1661.8,1.324455,193395,9162
1664.72,1.302938,179728,8947
1667.63,1.341739,163642,7450
1670.54,1.340308,146312,6683
1673.44,1.320428,128451,6142
1677.31,1.348038,105080,4715
1680.21,1.292354,88906,4535
1683.1,1.306816,75033,3702
1685.99,1.387103,63520,2605
1688.87,1.353146,53714,2382
1691.75,1.328853,45653,2141
1694.62,1.443985,39137,1408
1697.49,1.491182,33776,1090
1701.31,1.309985,28175,1380