File: samples/unknown/Column 1_078058_20241121_164325.csv
Method:,Column 1,,
Host Date-Time:,21/11/24 @ 16:43:25,,
Header Version:,1,,
System Temp (C):,31.1,,
Detector Temp (C):,25.86,,
Humidity (%):,5.37,,
Lamp PD:,3810,,
Shift Vector Coefficients:,-10.5391,0.0761263,-0.000134223,,
Pixel to Wavelength Coefficients:,1775.68,-0.916766,-0.000235065,,
Serial Number:,5510004,,
Scan Config Name:,Column 1,,
Scan Config Type:,Slew,,
Section 1,,
Start wavelength (nm):,900,,
End wavelength (nm):,1700,,
Pattern Pixel Width (nm):,   7.03,,,,
Exposure (ms):,  0.635,,,,
Digital Resolution:,228,,
Num Repeats:,6,,
PGA Gain:,64,,
Total Measurement Time in sec:,  2.707,,
Wavelength (nm),Absorbance (AU),Reference Signal (unitless),Sample Signal (unitless)
901.51,1.296827,108485,5477
905.376,1.310608,121306,5933
909.237,1.296409,131909,6666
913.095,1.315698,143299,6927
916.948,1.290432,156982,8043
922.079,1.294935,179937,9124
925.923,1.300865,200504,10029
929.762,1.321027,222660,10632
933.597,1.318442,244426,11741
937.427,1.305914,263972,13051
941.254,1.308968,281845,13837
945.076,1.326064,297271,14031
950.165,1.311595,315605,15401
953.978,1.298165,328029,16510
957.786,1.319971,340470,16297
961.59,1.314369,352317,17083
965.389,1.317383,363056,17482
969.185,1.304374,373162,18515
972.976,1.304531,382632,18978
976.763,1.313556,391202,19004
981.806,1.308506,400190,19668
985.583,1.305467,406088,20098
989.355,1.315479,410162,19837
993.124,1.310374,412868,20204
996.888,1.309951,414263,20292
1000.65,1.306623,415476,20508
1004.4,1.311802,415479,20265
1009.41,1.315413,414358,20043
1013.15,1.314080,412923,20035
1016.89,1.306901,411526,20300
1020.63,1.320513,409066,19556
1024.36,1.311137,406777,19871
1028.09,1.314495,404427,19604
1031.82,1.313250,401911,19538
1036.78,1.316690,398410,19215
1040.49,1.310140,396204,19399
1044.2,1.315588,394236,19062
1047.91,1.308428,392042,19271
1051.61,1.311840,389823,19012
1055.31,1.320726,388234,18551
1059,1.313140,387599,18847
1063.92,1.313943,386688,18768
1067.61,1.315139,386598,18712
1071.29,1.314693,387377,18769
1074.96,1.314627,388536,18828
1078.63,1.309461,389855,19118
1082.3,1.316805,391215,18863
1085.96,1.317181,393215,18943
1090.84,1.321621,396270,18896
1094.49,1.322278,398760,18986
1098.14,1.312117,400987,19544
1101.79,1.317681,403477,19415
1105.43,1.317459,406116,19552
1109.06,1.320731,407701,19481
1112.7,1.315246,409859,19833
1117.53,1.319125,412494,19783
1121.15,1.320280,414909,19846
1124.77,1.322463,416559,19825
1128.38,1.320438,418532,20012
1131.99,1.325028,419956,19869
1135.6,1.323641,421946,20027
1139.2,1.308200,423881,20847
1143.99,1.313422,426786,20739
1147.58,1.318793,428617,20572
1151.17,1.319013,431169,20684
1154.75,1.317421,433579,20876
1158.33,1.325229,436264,20631
1161.91,1.325033,439132,20776
1165.48,1.327929,442389,20791
1169.04,1.313394,446101,21679
1173.79,1.313933,451929,21935
1177.34,1.318149,456026,21920
1180.9,1.319872,461306,22086
1184.44,1.318131,467657,22480
1187.99,1.315649,473969,22914
1191.52,1.317913,479856,23078
1195.06,1.320430,487372,23304
1199.76,1.323435,497347,23617
1203.29,1.325556,504311,23831
1206.81,1.326078,511507,24142
1210.33,1.323099,519078,24668
1213.84,1.332106,527163,24538
1217.35,1.320285,534208,25552
1220.85,1.325893,540472,25520
1225.51,1.322702,549929,26158
1229.01,1.324987,556888,26350
1232.5,1.324863,562180,26608
1235.98,1.319361,567975,27225
1239.46,1.330826,574815,26835
1242.94,1.326695,582782,27467
1246.41,1.322582,591476,28142
1251.03,1.325899,604016,28520
1254.5,1.320563,612289,29268
1257.96,1.323372,619125,29404
1261.41,1.326114,624551,29475
1264.86,1.324400,629900,29845
1268.31,1.324611,634345,30041
1271.75,1.328858,638574,29947
1276.33,1.327161,642499,30249
1279.76,1.326396,645905,30463
1283.19,1.330969,648307,30256
1286.61,1.334630,650446,30101
1290.03,1.329481,652132,30539
1293.44,1.326712,653907,30818
1296.85,1.334964,655963,30333
1301.39,1.335251,657349,30377
1304.8,1.337180,657558,30252
1308.19,1.331994,658515,30660
1311.58,1.329501,658804,30850
1314.97,1.334465,659011,30509
1318.36,1.328658,658272,30885
1321.73,1.327973,658022,30922
1326.23,1.333612,657870,30516
1329.6,1.337676,656482,30168
1332.97,1.334549,654926,30314
1336.33,1.331324,653727,30484
1339.69,1.334270,652497,30221
1343.04,1.331929,649913,30264
1346.39,1.326173,647671,30562
1349.73,1.330875,645338,30124
1354.18,1.327646,641175,30153
1357.52,1.333609,638376,29612
1360.85,1.331666,635805,29625
1364.17,1.332425,633413,29462
1367.49,1.334575,631026,29206
1370.81,1.329603,628050,29403
1374.12,1.332877,625034,29042
1378.54,1.319548,620272,29719
1381.84,1.325943,616892,29125
1385.14,1.328020,613613,28832
1388.43,1.331966,611526,28474
1391.72,1.329238,610663,28613
1395.01,1.328202,610634,28680
1398.29,1.332869,611700,28423
1402.66,1.326286,614051,28968
1405.93,1.330121,616268,28817
1409.2,1.333280,617795,28679
1412.46,1.329562,618872,28976
1415.72,1.328639,619795,29081
1418.98,1.334191,620495,28744
1422.23,1.335967,621087,28654
1426.56,1.336396,621375,28639
1429.8,1.339547,621616,28443
1433.04,1.331917,622129,28971
1436.27,1.334837,621526,28749
1439.5,1.335667,621113,28675
1442.72,1.340514,620921,28348
1445.94,1.335714,620270,28633
1450.23,1.335697,618860,28569
1453.44,1.332092,617697,28753
1456.64,1.335623,616264,28454
1459.85,1.340450,614413,28055
1463.04,1.335613,612307,28272
1466.24,1.339655,610032,27906
1469.43,1.341505,607345,27665
1473.67,1.334643,603789,27941
1476.85,1.338501,601175,27574
1480.02,1.334046,597737,27699
1483.19,1.347073,594479,26734
1486.36,1.339832,591232,27035
1489.52,1.337905,587853,27000
1492.68,1.337327,583875,26853
1496.89,1.337681,578062,26564
1500.03,1.337330,574159,26406
1503.18,1.344085,570285,25823
1506.32,1.342355,565444,25706
1509.45,1.335918,560571,25865
1512.58,1.336983,555821,25583
1515.71,1.342121,550344,25033
1519.87,1.337177,543983,25027
1522.99,1.342942,538764,24460
1526.1,1.336762,533692,24577
1529.21,1.342758,527902,23977
1532.32,1.346933,521886,23477
1535.42,1.334685,515888,23871
1538.51,1.336861,509987,23480
1541.6,1.333605,503936,23376
1545.72,1.341691,494694,22524
1548.8,1.343128,488378,22163
1551.88,1.333774,481832,22342
1554.95,1.332114,474989,22109
1558.02,1.338994,467818,21433
1561.08,1.329294,460730,21585
1564.15,1.343646,454170,20586
1568.22,1.337760,444181,20408
1571.27,1.337384,436947,20093
1574.32,1.338310,429598,19713
1577.36,1.335162,422039,19507
1580.4,1.336315,414375,19102
1583.43,1.337574,406354,18678
1586.46,1.338377,398475,18282
1590.49,1.333188,388982,18061
1593.51,1.334414,380708,17627
1596.53,1.336772,372727,17164
1599.54,1.335352,365060,16866
1602.55,1.329651,357543,16737
1605.55,1.325589,349495,16514
1608.55,1.325666,341154,16117
1612.54,1.335231,330877,15291
1615.53,1.318406,322904,15512
1618.51,1.317056,315116,15185
1621.49,1.333143,307217,14266
1624.47,1.333323,299481,13901
1627.44,1.334316,292112,13528
1630.41,1.320601,284245,13586
1634.36,1.325673,274079,12948
1637.32,1.321205,266916,12740
1640.27,1.323010,259612,12340
1643.22,1.319355,251804,12070
1646.16,1.307418,244348,12039
1649.1,1.326384,236703,11164
1652.04,1.326448,228171,10760
1655.95,1.314270,215408,10447
1658.88,1.319465,204937,9821
1661.8,1.313225,193395,9402
1664.72,1.328943,179728,8427
1667.63,1.319136,163642,7848
1670.54,1.322983,146312,6955
1673.44,1.338622,128451,5890
1677.31,1.344004,105080,4759
1680.21,1.296491,88906,4492
1683.1,1.318588,75033,3603
1685.99,1.341112,63520,2896
1688.87,1.304553,53714,2664
1691.75,1.328447,45653,2143
1694.62,1.222445,39137,2345
1697.49,1.485639,33776,1104
1701.31,1.326666,28175,1328