File: samples/unknown/Column 1_078063_20241121_164339.csv
Method:,Column 1,,
Host Date-Time:,21/11/24 @ 16:43:39,,
Header Version:,1,,
System Temp (C):,31.28,,
Detector Temp (C):,26.09,,
Humidity (%):,5.37,,
Lamp PD:,3809,,
Shift Vector Coefficients:,-10.5391,0.0761263,-0.000134223,,
Pixel to Wavelength Coefficients:,1775.68,-0.916766,-0.000235065,,
Serial Number:,5510004,,
Scan Config Name:,Column 1,,
Scan Config Type:,Slew,,
Section 1,,
Start wavelength (nm):,900,,
End wavelength (nm):,1700,,
Pattern Pixel Width (nm):,   7.03,,,,
Exposure (ms):,  0.635,,,,
Digital Resolution:,228,,
Num Repeats:,6,,
PGA Gain:,64,,
Total Measurement Time in sec:,  2.719,,
Wavelength (nm),Absorbance (AU),Reference Signal (unitless),Sample Signal (unitless)
901.51,1.285711,108485,5619
905.376,1.298766,121306,6097
909.237,1.307294,131909,6501
913.095,1.309535,143299,7026
916.948,1.308233,156982,7720
922.079,1.300299,179937,9012
925.923,1.299784,200504,10054
929.762,1.313295,222660,10823
933.597,1.317999,244426,11753
937.427,1.292416,263972,13463
941.254,1.302458,281845,14046
945.076,1.307522,297271,14643
950.165,1.306855,315605,15570
953.978,1.318687,328029,15748
957.786,1.299591,340470,17080
961.59,1.309113,352317,17291
965.389,1.296006,363056,18364
969.185,1.311468,373162,18215
972.976,1.303845,382632,19008
976.763,1.312005,391202,19072
981.806,1.309346,400190,19630
985.583,1.301916,406088,20263
989.355,1.305160,410162,20314
993.124,1.304418,412868,20483
996.888,1.308072,414263,20380
1000.65,1.303984,415476,20633
1004.4,1.306393,415479,20519
1009.41,1.310244,414358,20283
1013.15,1.303121,412923,20547
1016.89,1.304448,411526,20415
1020.63,1.308662,409066,20097
1024.36,1.305923,406777,20111
1028.09,1.308599,404427,19872
1031.82,1.300221,401911,20133
1036.78,1.313425,398410,19360
1040.49,1.302572,396204,19740
1044.2,1.313678,394236,19146
1047.91,1.299793,392042,19658
1051.61,1.298589,389823,19601
1055.31,1.305611,388234,19208
1059,1.313532,387599,18830
1063.92,1.310164,386688,18932
1067.61,1.308026,386598,19021
1071.29,1.302554,387377,19301
1074.96,1.313751,388536,18866
1078.63,1.317948,389855,18748
1082.3,1.309952,391215,19163
1085.96,1.312892,393215,19131
1090.84,1.312052,396270,19317
1094.49,1.320384,398760,19069
1098.14,1.306180,400987,19813
1101.79,1.319026,403477,19355
1105.43,1.310583,406116,19864
1109.06,1.317112,407701,19644
1112.7,1.312692,409859,19950
1117.53,1.316477,412494,19904
1121.15,1.314714,414909,20102
1124.77,1.321501,416559,19869
1128.38,1.313378,418532,20340
1131.99,1.309737,419956,20581
1135.6,1.308113,421946,20756
1139.2,1.317124,423881,20423
1143.99,1.310958,426786,20857
1147.58,1.321249,428617,20456
1151.17,1.322343,431169,20526
1154.75,1.313981,433579,21042
1158.33,1.323150,436264,20730
1161.91,1.323031,439132,20872
1165.48,1.314073,442389,21465
1169.04,1.311994,446101,21749
1173.79,1.313082,451929,21978
1177.34,1.318664,456026,21894
1180.9,1.315061,461306,22332
1184.44,1.312278,467657,22785
1187.99,1.316389,473969,22875
1191.52,1.314613,479856,23254
1195.06,1.319518,487372,23353
1199.76,1.318625,497347,23880
1203.29,1.317826,504311,24259
1206.81,1.315786,511507,24721
1210.33,1.324227,519078,24604
1213.84,1.320803,527163,25185
1217.35,1.320438,534208,25543
1220.85,1.321676,540472,25769
1225.51,1.321674,549929,26220
1229.01,1.321360,556888,26571
1232.5,1.314047,562180,27279
1235.98,1.320799,567975,27135
1239.46,1.320717,574815,27467
1242.94,1.316290,582782,28133
1246.41,1.320043,591476,28307
1251.03,1.322033,604016,28775
1254.5,1.321068,612289,29234
1257.96,1.320179,619125,29621
1261.41,1.323822,624551,29631
1264.86,1.329170,629900,29519
1268.31,1.325291,634345,29994
1271.75,1.325348,638574,30190
1276.33,1.324756,642499,30417
1279.76,1.329343,645905,30257
1283.19,1.324543,648307,30707
1286.61,1.326880,650446,30643
1290.03,1.326815,652132,30727
1293.44,1.323622,653907,31038
1296.85,1.323756,655963,31126
1301.39,1.330743,657349,30694
1304.8,1.327021,657558,30968
1308.19,1.330721,658515,30750
1311.58,1.332099,658804,30666
1314.97,1.334408,659011,30513
1318.36,1.327352,658272,30978
1321.73,1.325592,658022,31092
1326.23,1.333314,657870,30537
1329.6,1.332098,656482,30558
1332.97,1.330286,654926,30613
1336.33,1.328187,653727,30705
1339.69,1.330849,652497,30460
1343.04,1.333366,649913,30164
1346.39,1.331894,647671,30162
1349.73,1.331091,645338,30109
1354.18,1.329465,641175,30027
1357.52,1.327565,638376,30027
1360.85,1.328176,635805,29864
1364.17,1.328697,633413,29716
1367.49,1.327788,631026,29666
1370.81,1.328246,628050,29495
1374.12,1.325743,625034,29523
1378.54,1.326501,620272,29247
1381.84,1.330169,616892,28843
1385.14,1.330952,613613,28638
1388.43,1.322850,611526,29078
1391.72,1.319423,610663,29267
1395.01,1.329218,610634,28613
1398.29,1.321245,611700,29194
1402.66,1.330277,614051,28703
1405.93,1.330226,616268,28810
1409.2,1.326489,617795,29131
1412.46,1.331154,618872,28870
1415.72,1.329117,619795,29049
1418.98,1.328577,620495,29118
1422.23,1.327695,621087,29205
1426.56,1.331825,621375,28942
1429.8,1.331244,621616,28992
1433.04,1.333855,622129,28842
1436.27,1.331691,621526,28958
1439.5,1.333431,621113,28823
1442.72,1.326169,620921,29300
1445.94,1.330482,620270,28980
1450.23,1.329809,618860,28959
1453.44,1.337488,617697,28398
1456.64,1.334648,616264,28518
1459.85,1.333844,614413,28485
1463.04,1.331105,612307,28567
1466.24,1.332524,610032,28368
1469.43,1.337178,607345,27942
1473.67,1.337090,603789,27784
1476.85,1.333101,601175,27919
1480.02,1.335601,597737,27600
1483.19,1.334551,594479,27516
1486.36,1.334451,591232,27372
1489.52,1.336251,587853,27103
1492.68,1.341177,583875,26616
1496.89,1.342349,578062,26280
1500.03,1.335835,574159,26497
1503.18,1.339701,570285,26085
1506.32,1.336299,565444,26067
1509.45,1.335885,560571,25867
1512.58,1.335306,555821,25682
1515.71,1.335271,550344,25431
1519.87,1.331727,543983,25343
1522.99,1.333372,538764,25005
1526.1,1.334699,533692,24694
1529.21,1.332290,527902,24562
1532.32,1.331969,521886,24300
1535.42,1.338284,515888,23674
1538.51,1.329397,509987,23887
1541.6,1.328820,503936,23635
1545.72,1.331911,494694,23037
1548.8,1.330479,488378,22818
1551.88,1.335702,481832,22243
1554.95,1.332075,474989,22111
1558.02,1.339379,467818,21414
1561.08,1.326527,460730,21723
1564.15,1.341122,454170,20706
1568.22,1.334812,444181,20547
1571.27,1.337427,436947,20091
1574.32,1.325032,429598,20325
1577.36,1.338313,422039,19366
1580.4,1.334205,414375,19195
1583.43,1.323145,406354,19309
1586.46,1.336978,398475,18341
1590.49,1.333092,388982,18065
1593.51,1.329684,380708,17820
1596.53,1.328700,372727,17486
1599.54,1.332810,365060,16965
1602.55,1.342769,357543,16239
1605.55,1.334301,349495,16186
1608.55,1.324563,341154,16158
1612.54,1.330766,330877,15449
1615.53,1.327659,322904,15185
1618.51,1.332188,315116,14665
1621.49,1.318065,307217,14770
1624.47,1.320002,299481,14334
1627.44,1.325828,292112,13795
1630.41,1.326361,284245,13407
1634.36,1.321633,274079,13069
1637.32,1.307020,266916,13163
1640.27,1.315716,259612,12549
1643.22,1.316522,251804,12149
1646.16,1.313229,244348,11879
1649.1,1.317070,236703,11406
1652.04,1.314662,228171,11056
1655.95,1.307424,215408,10613
1658.88,1.295507,204937,10378
1661.8,1.306396,193395,9551
1664.72,1.292341,179728,9168
1667.63,1.297493,163642,8249
1670.54,1.333090,146312,6795
1673.44,1.281239,128451,6722
1677.31,1.303683,105080,5222
1680.21,1.322283,88906,4233
1683.1,1.293530,75033,3817
1685.99,1.326079,63520,2998
1688.87,1.255726,53714,2981
1691.75,1.366549,45653,1963
1694.62,1.353789,39137,1733
1697.49,1.293838,33776,1717
1701.31,1.284323,28175,1464