File: samples/unknown/Column 1_078048_20241121_164256.csv
Method:,Column 1,,
Host Date-Time:,21/11/24 @ 16:42:56,,
Header Version:,1,,
System Temp (C):,30.77,,
Detector Temp (C):,25.58,,
Humidity (%):,5.36,,
Lamp PD:,3810,,
Shift Vector Coefficients:,-10.5391,0.0761263,-0.000134223,,
Pixel to Wavelength Coefficients:,1775.68,-0.916766,-0.000235065,,
Serial Number:,5510004,,
Scan Config Name:,Column 1,,
Scan Config Type:,Slew,,
Section 1,,
Start wavelength (nm):,900,,
End wavelength (nm):,1700,,
Pattern Pixel Width (nm):,   7.03,,,,
Exposure (ms):,  0.635,,,,
Digital Resolution:,228,,
Num Repeats:,6,,
PGA Gain:,64,,
Total Measurement Time in sec:,  2.725,,
Wavelength (nm),Absorbance (AU),Reference Signal (unitless),Sample Signal (unitless)
901.51,1.320621,108485,5185
905.376,1.320604,121306,5798
909.237,1.334162,131909,6111
913.095,1.303824,143299,7119
916.948,1.295592,156982,7948
922.079,1.308865,179937,8836
925.923,1.316741,200504,9669
929.762,1.309857,222660,10909
933.597,1.341496,244426,11134
937.427,1.329083,263972,12373
941.254,1.315833,281845,13620
945.076,1.320772,297271,14203
950.165,1.308392,315605,15515
953.978,1.310032,328029,16065
957.786,1.312704,340470,16572
961.59,1.311355,352317,17202
965.389,1.310384,363056,17766
969.185,1.309565,373162,18295
972.976,1.303685,382632,19015
976.763,1.319469,391202,18747
981.806,1.311742,400190,19522
985.583,1.309047,406088,19933
989.355,1.322009,410162,19541
993.124,1.318927,412868,19810
996.888,1.315921,414263,20015
1000.65,1.311499,415476,20279
1004.4,1.312940,415479,20212
1009.41,1.311466,414358,20226
1013.15,1.313235,412923,20074
1016.89,1.311158,411526,20102
1020.63,1.308619,409066,20099
1024.36,1.311859,406777,19838
1028.09,1.314318,404427,19612
1031.82,1.317426,401911,19351
1036.78,1.312349,398410,19408
1040.49,1.313624,396204,19244
1044.2,1.328279,394236,18513
1047.91,1.310982,392042,19158
1051.61,1.310357,389823,19077
1055.31,1.323615,388234,18428
1059,1.305262,387599,19192
1063.92,1.314151,386688,18759
1067.61,1.311396,386598,18874
1071.29,1.316850,387377,18676
1074.96,1.322072,388536,18508
1078.63,1.311875,389855,19012
1082.3,1.325009,391215,18510
1085.96,1.325865,393215,18568
1090.84,1.314984,396270,19187
1094.49,1.313649,398760,19367
1098.14,1.321665,400987,19119
1101.79,1.322020,403477,19222
1105.43,1.315420,406116,19644
1109.06,1.317931,407701,19607
1112.7,1.323246,409859,19471
1117.53,1.319147,412494,19782
1121.15,1.318446,414909,19930
1124.77,1.308728,416559,20462
1128.38,1.320091,418532,20028
1131.99,1.330394,419956,19625
1135.6,1.313545,421946,20498
1139.2,1.316593,423881,20448
1143.99,1.328464,426786,20033
1147.58,1.324894,428617,20285
1151.17,1.317525,431169,20755
1154.75,1.328226,433579,20363
1158.33,1.325903,436264,20599
1161.91,1.327045,439132,20680
1165.48,1.325616,442389,20902
1169.04,1.324966,446101,21109
1173.79,1.322692,451929,21497
1177.34,1.316843,456026,21986
1180.9,1.319656,461306,22097
1184.44,1.324299,467657,22163
1187.99,1.322315,473969,22565
1191.52,1.323233,479856,22797
1195.06,1.326435,487372,22984
1199.76,1.323858,497347,23594
1203.29,1.326231,504311,23794
1206.81,1.325827,511507,24156
1210.33,1.327772,519078,24404
1213.84,1.324874,527163,24950
1217.35,1.326551,534208,25186
1220.85,1.322266,540472,25734
1225.51,1.325868,549929,25968
1229.01,1.327036,556888,26226
1232.5,1.325304,562180,26581
1235.98,1.326340,567975,26791
1239.46,1.320053,574815,27509
1242.94,1.321539,582782,27795
1246.41,1.321703,591476,28199
1251.03,1.333952,604016,27996
1254.5,1.326886,612289,28845
1257.96,1.332657,619125,28782
1261.41,1.330334,624551,29190
1264.86,1.328288,629900,29579
1268.31,1.330609,634345,29629
1271.75,1.328930,638574,29942
1276.33,1.330650,642499,30007
1279.76,1.331242,645905,30125
1283.19,1.332839,648307,30126
1286.61,1.330995,650446,30354
1290.03,1.333079,652132,30287
1293.44,1.339409,653907,29930
1296.85,1.333292,655963,30450
1301.39,1.332756,657349,30552
1304.8,1.335361,657558,30379
1308.19,1.337539,658515,30271
1311.58,1.337543,658804,30284
1314.97,1.334764,659011,30488
1318.36,1.335803,658272,30381
1321.73,1.339400,658022,30119
1326.23,1.338954,657870,30143
1329.6,1.333892,656482,30432
1332.97,1.332976,654926,30424
1336.33,1.330613,653727,30534
1339.69,1.330877,652497,30458
1343.04,1.328185,649913,30526
1346.39,1.330471,647671,30261
1349.73,1.338452,645338,29603
1354.18,1.335538,641175,29610
1357.52,1.332671,638376,29676
1360.85,1.332649,635805,29558
1364.17,1.323438,633413,30078
1367.49,1.336154,631026,29100
1370.81,1.327672,628050,29534
1374.12,1.330506,625034,29201
1378.54,1.332497,620272,28846
1381.84,1.332085,616892,28716
1385.14,1.327929,613613,28838
1388.43,1.331829,611526,28483
1391.72,1.331292,610663,28478
1395.01,1.331699,610634,28450
1398.29,1.328551,611700,28707
1402.66,1.339359,614051,28109
1405.93,1.333434,616268,28598
1409.2,1.328761,617795,28979
1412.46,1.336253,618872,28533
1415.72,1.333852,619795,28734
1418.98,1.339558,620495,28391
1422.23,1.340354,621087,28366
1426.56,1.340449,621375,28373
1429.8,1.332850,621616,28885
1433.04,1.337393,622129,28608
1436.27,1.338203,621526,28527
1439.5,1.336941,621113,28591
1442.72,1.332169,620921,28898
1445.94,1.333188,620270,28800
1450.23,1.334574,618860,28643
1453.44,1.340034,617697,28232
1456.64,1.332642,616264,28650
1459.85,1.339322,614413,28128
1463.04,1.341910,612307,27865
1466.24,1.343124,610032,27684
1469.43,1.334698,607345,28102
1473.67,1.339457,603789,27633
1476.85,1.330619,601175,28079
1480.02,1.336893,597737,27518
1483.19,1.338228,594479,27284
1486.36,1.342183,591232,26889
1489.52,1.339516,587853,26900
1492.68,1.340835,583875,26637
1496.89,1.343673,578062,26200
1500.03,1.344861,574159,25952
1503.18,1.338222,570285,26174
1506.32,1.338604,565444,25929
1509.45,1.338241,560571,25727
1512.58,1.339794,555821,25418
1515.71,1.340269,550344,25140
1519.87,1.340084,543983,24860
1522.99,1.344205,538764,24389
1526.1,1.339101,533692,24445
1529.21,1.344210,527902,23897
1532.32,1.348397,521886,23398
1535.42,1.341802,515888,23483
1538.51,1.334169,509987,23626
1541.6,1.338632,503936,23107
1545.72,1.342096,494694,22503
1548.8,1.347242,488378,21954
1551.88,1.339251,481832,22062
1554.95,1.337272,474989,21848
1558.02,1.336791,467818,21542
1561.08,1.340772,460730,21022
1564.15,1.340284,454170,20746
1568.22,1.341865,444181,20216
1571.27,1.336758,436947,20122
1574.32,1.335871,429598,19824
1577.36,1.333473,422039,19583
1580.4,1.340312,414375,18927
1583.43,1.331823,406354,18927
1586.46,1.342939,398475,18091
1590.49,1.345257,388982,17566
1593.51,1.340193,380708,17394
1596.53,1.336267,372727,17184
1599.54,1.328151,365060,17148
1602.55,1.334058,357543,16568
1605.55,1.334543,349495,16177
1608.55,1.339937,341154,15596
1612.54,1.336226,330877,15256
1615.53,1.333388,322904,14986
1618.51,1.337612,315116,14483
1621.49,1.334362,307217,14226
1624.47,1.332792,299481,13918
1627.44,1.328005,292112,13726
1630.41,1.331313,284245,13255
1634.36,1.319479,274079,13134
1637.32,1.329395,266916,12502
1640.27,1.328784,259612,12177
1643.22,1.312395,251804,12265
1646.16,1.331104,244348,11400
1649.1,1.323013,236703,11251
1652.04,1.322391,228171,10861
1655.95,1.315895,215408,10408
1658.88,1.336602,204937,9441
1661.8,1.337592,193395,8889
1664.72,1.325146,179728,8501
1667.63,1.336408,163642,7542
1670.54,1.348310,146312,6561
1673.44,1.312371,128451,6257
1677.31,1.323245,105080,4992
1680.21,1.351675,88906,3956
1683.1,1.369967,75033,3201
1685.99,1.344726,63520,2872
1688.87,1.513130,53714,1648
1691.75,1.383237,45653,1889
1694.62,1.394481,39137,1578
1697.49,1.466779,33776,1153
1701.31,1.297270,28175,1421