File: samples/unknown/Column 1_078078_20241121_164423.csv
Method:,Column 1,,
Host Date-Time:,21/11/24 @ 16:44:23,,
Header Version:,1,,
System Temp (C):,31.74,,
Detector Temp (C):,26.6,,
Humidity (%):,4.98,,
Lamp PD:,3808,,
Shift Vector Coefficients:,-10.5391,0.0761263,-0.000134223,,
Pixel to Wavelength Coefficients:,1775.68,-0.916766,-0.000235065,,
Serial Number:,5510004,,
Scan Config Name:,Column 1,,
Scan Config Type:,Slew,,
Section 1,,
Start wavelength (nm):,900,,
End wavelength (nm):,1700,,
Pattern Pixel Width (nm):,   7.03,,,,
Exposure (ms):,  0.635,,,,
Digital Resolution:,228,,
Num Repeats:,6,,
PGA Gain:,64,,
Total Measurement Time in sec:,  2.708,,
Wavelength (nm),Absorbance (AU),Reference Signal (unitless),Sample Signal (unitless)
901.51,1.300730,108485,5428
905.376,1.306891,121306,5984
909.237,1.315318,131909,6382
913.095,1.272525,143299,7651
916.948,1.300870,156982,7852
922.079,1.287900,179937,9273
925.923,1.308731,200504,9849
929.762,1.304005,222660,11057
933.597,1.308351,244426,12017
937.427,1.303988,263972,13109
941.254,1.306683,281845,13910
945.076,1.302041,297271,14829
950.165,1.306075,315605,15598
953.978,1.310383,328029,16052
957.786,1.293080,340470,17338
961.59,1.312492,352317,17157
965.389,1.317233,363056,17488
969.185,1.310159,373162,18270
972.976,1.303731,382632,19013
976.763,1.297450,391202,19722
981.806,1.303522,400190,19895
985.583,1.314485,406088,19685
989.355,1.314474,410162,19883
993.124,1.311666,412868,20144
996.888,1.312463,414263,20175
1000.65,1.308405,415476,20424
1004.4,1.312317,415479,20241
1009.41,1.304860,414358,20536
1013.15,1.306239,412923,20400
1016.89,1.308938,411526,20205
1020.63,1.302589,409066,20380
1024.36,1.303898,406777,20205
1028.09,1.307442,404427,19925
1031.82,1.296527,401911,20305
1036.78,1.306592,398410,19667
1040.49,1.303497,396204,19698
1044.2,1.295835,394236,19949
1047.91,1.310348,392042,19186
1051.61,1.305580,389823,19288
1055.31,1.311553,388234,18947
1059,1.308579,387599,19046
1063.92,1.313318,386688,18795
1067.61,1.306408,386598,19092
1071.29,1.303049,387377,19279
1074.96,1.313936,388536,18858
1078.63,1.316307,389855,18819
1082.3,1.309680,391215,19175
1085.96,1.302751,393215,19583
1090.84,1.315278,396270,19174
1094.49,1.311323,398760,19471
1098.14,1.303972,400987,19914
1101.79,1.316497,403477,19468
1105.43,1.312336,406116,19784
1109.06,1.321333,407701,19454
1112.7,1.320733,409859,19584
1117.53,1.311552,412494,20131
1121.15,1.310542,414909,20296
1124.77,1.307436,416559,20523
1128.38,1.314019,418532,20310
1131.99,1.320202,419956,20091
1135.6,1.316031,421946,20381
1139.2,1.314982,423881,20524
1143.99,1.315922,426786,20620
1147.58,1.304200,428617,21275
1151.17,1.312573,431169,20993
1154.75,1.312230,433579,21127
1158.33,1.311309,436264,21303
1161.91,1.315175,439132,21253
1165.48,1.313810,442389,21478
1169.04,1.318817,446101,21410
1173.79,1.317032,451929,21779
1177.34,1.315089,456026,22075
1180.9,1.316132,461306,22277
1184.44,1.311326,467657,22835
1187.99,1.316807,473969,22853
1191.52,1.312174,479856,23385
1195.06,1.316091,487372,23538
1199.76,1.323141,497347,23633
1203.29,1.326724,504311,23767
1206.81,1.323585,511507,24281
1210.33,1.322624,519078,24695
1213.84,1.322912,527163,25063
1217.35,1.322381,534208,25429
1220.85,1.323754,540472,25646
1225.51,1.323649,549929,26101
1229.01,1.318022,556888,26776
1232.5,1.322633,562180,26745
1235.98,1.322756,567975,27013
1239.46,1.319470,574815,27546
1242.94,1.321836,582782,27776
1246.41,1.323973,591476,28052
1251.03,1.325853,604016,28523
1254.5,1.322407,612289,29144
1257.96,1.319871,619125,29642
1261.41,1.324144,624551,29609
1264.86,1.323789,629900,29887
1268.31,1.326103,634345,29938
1271.75,1.323826,638574,30296
1276.33,1.322620,642499,30567
1279.76,1.327524,645905,30384
1283.19,1.329751,648307,30341
1286.61,1.328840,650446,30505
1290.03,1.329936,652132,30507
1293.44,1.325558,653907,30900
1296.85,1.327864,655963,30833
1301.39,1.330997,657349,30676
1304.8,1.328946,657558,30831
1308.19,1.328045,658515,30940
1311.58,1.334186,658804,30519
1314.97,1.328527,659011,30929
1318.36,1.333423,658272,30548
1321.73,1.328633,658022,30875
1326.23,1.333314,657870,30537
1329.6,1.330764,656482,30652
1332.97,1.328319,654926,30752
1336.33,1.325494,653727,30896
1339.69,1.333236,652497,30293
1343.04,1.330096,649913,30392
1346.39,1.325889,647671,30582
1349.73,1.329651,645338,30209
1354.18,1.332921,641175,29789
1357.52,1.330452,638376,29828
1360.85,1.322010,635805,30291
1364.17,1.324320,633413,30017
1367.49,1.324231,631026,29910
1370.81,1.324668,628050,29739
1374.12,1.330640,625034,29192
1378.54,1.330889,620272,28953
1381.84,1.326928,616892,29059
1385.14,1.328336,613613,28811
1388.43,1.323493,611526,29035
1391.72,1.323508,610663,28993
1395.01,1.326705,610634,28779
1398.29,1.331663,611700,28502
1402.66,1.323387,614051,29162
1405.93,1.328166,616268,28947
1409.2,1.325700,617795,29184
1412.46,1.325445,618872,29252
1415.72,1.325292,619795,29306
1418.98,1.331300,620495,28936
1422.23,1.333353,621087,28827
1426.56,1.326397,621375,29306
1429.8,1.335686,621616,28697
1433.04,1.333193,622129,28886
1436.27,1.335653,621526,28695
1439.5,1.328621,621113,29144
1442.72,1.333478,620921,28811
1445.94,1.331578,620270,28907
1450.23,1.336367,618860,28525
1453.44,1.334440,617697,28598
1456.64,1.328929,616264,28896
1459.85,1.329339,614413,28782
1463.04,1.331363,612307,28550
1466.24,1.328577,610032,28627
1469.43,1.329735,607345,28425
1473.67,1.334100,603789,27976
1476.85,1.332231,601175,27975
1480.02,1.336499,597737,27543
1483.19,1.330701,594479,27761
1486.36,1.333912,591232,27406
1489.52,1.335899,587853,27125
1492.68,1.334329,583875,27039
1496.89,1.331206,578062,26963
1500.03,1.334853,574159,26557
1503.18,1.337360,570285,26226
1506.32,1.337700,565444,25983
1509.45,1.341240,560571,25550
1512.58,1.340135,555821,25398
1515.71,1.339786,550344,25168
1519.87,1.338097,543983,24974
1522.99,1.334868,538764,24919
1526.1,1.338763,533692,24464
1529.21,1.342903,527902,23969
1532.32,1.330471,521886,24384
1535.42,1.329297,515888,24169
1538.51,1.336196,509987,23516
1541.6,1.331363,503936,23497
1545.72,1.340094,494694,22607
1548.8,1.335321,488378,22565
1551.88,1.336230,481832,22216
1554.95,1.329646,474989,22235
1558.02,1.339379,467818,21414
1561.08,1.329939,460730,21553
1564.15,1.330698,454170,21209
1568.22,1.329309,444181,20809
1571.27,1.332078,436947,20340
1574.32,1.337935,429598,19730
1577.36,1.326478,422039,19901
1580.4,1.333369,414375,19232
1583.43,1.333754,406354,18843
1586.46,1.326058,398475,18808
1590.49,1.337222,388982,17894
1593.51,1.319163,380708,18257
1596.53,1.323369,372727,17702
1599.54,1.322514,365060,17372
1602.55,1.327451,357543,16822
1605.55,1.322366,349495,16637
1608.55,1.319114,341154,16362
1612.54,1.325847,330877,15625
1615.53,1.327001,322904,15208
1618.51,1.318603,315116,15131
1621.49,1.324582,307217,14550
1624.47,1.323103,299481,14232
1627.44,1.323035,292112,13884
1630.41,1.307782,284245,13993
1634.36,1.319181,274079,13143
1637.32,1.304683,266916,13234
1640.27,1.311103,259612,12683
1643.22,1.307991,251804,12390
1646.16,1.305367,244348,12096
1649.1,1.318443,236703,11370
1652.04,1.326408,228171,10761
1655.95,1.310710,215408,10533
1658.88,1.300854,204937,10251
1661.8,1.306806,193395,9542
1664.72,1.302065,179728,8965
1667.63,1.292573,163642,8343
1670.54,1.292891,146312,7454
1673.44,1.265131,128451,6976
1677.31,1.290980,105080,5377
1680.21,1.345137,88906,4016
1683.1,1.286869,75033,3876
1685.99,1.288894,63520,3266
1688.87,1.225345,53714,3197
1691.75,1.242995,45653,2609
1694.62,1.289824,39137,2008
1697.49,1.391888,33776,1370
1701.31,1.374317,28175,1190