File: samples/unknown/Column 1_078018_20241121_164128.csv
Method:,Column 1,,
Host Date-Time:,21/11/24 @ 16:41:28,,
Header Version:,1,,
System Temp (C):,29.66,,
Detector Temp (C):,24.86,,
Humidity (%):,7.11,,
Lamp PD:,3814,,
Shift Vector Coefficients:,-10.5391,0.0761263,-0.000134223,,
Pixel to Wavelength Coefficients:,1775.68,-0.916766,-0.000235065,,
Serial Number:,5510004,,
Scan Config Name:,Column 1,,
Scan Config Type:,Slew,,
Section 1,,
Start wavelength (nm):,900,,
End wavelength (nm):,1700,,
Pattern Pixel Width (nm):,   7.03,,,,
Exposure (ms):,  0.635,,,,
Digital Resolution:,228,,
Num Repeats:,6,,
PGA Gain:,64,,
Total Measurement Time in sec:,  2.707,,
Wavelength (nm),Absorbance (AU),Reference Signal (unitless),Sample Signal (unitless)
901.51,1.322888,108485,5158
905.376,1.295997,121306,6136
909.237,1.316203,131909,6369
913.095,1.301755,143299,7153
916.948,1.324160,156982,7442
922.079,1.303929,179937,8937
925.923,1.295358,200504,10157
929.762,1.295487,222660,11276
933.597,1.302607,244426,12177
937.427,1.311912,263972,12872
941.254,1.325474,281845,13321
945.076,1.304419,297271,14748
950.165,1.311426,315605,15407
953.978,1.313097,328029,15952
957.786,1.307028,340470,16790
961.59,1.308185,352317,17328
965.389,1.300953,363056,18156
969.185,1.306231,373162,18436
972.976,1.304943,382632,18960
976.763,1.308648,391202,19220
981.806,1.317047,400190,19285
985.583,1.306506,406088,20050
989.355,1.318247,410162,19711
993.124,1.313589,412868,20055
996.888,1.312463,414263,20175
1000.65,1.312121,415476,20250
1004.4,1.303167,415479,20672
1009.41,1.305664,414358,20498
1013.15,1.299018,412923,20742
1016.89,1.313758,411526,19982
1020.63,1.316842,409066,19722
1024.36,1.311859,406777,19838
1028.09,1.310438,404427,19788
1031.82,1.315054,401911,19457
1036.78,1.315561,398410,19265
1040.49,1.314663,396204,19198
1044.2,1.304276,394236,19565
1047.91,1.309760,392042,19212
1051.61,1.306166,389823,19262
1055.31,1.315768,388234,18764
1059,1.318986,387599,18595
1063.92,1.318900,386688,18555
1067.61,1.322465,386598,18399
1071.29,1.305014,387377,19192
1074.96,1.315597,388536,18786
1078.63,1.316768,389855,18799
1082.3,1.303429,391215,19453
1085.96,1.315922,393215,18998
1090.84,1.311692,396270,19333
1094.49,1.310276,398760,19518
1098.14,1.321688,400987,19118
1101.79,1.317749,403477,19412
1105.43,1.320513,406116,19415
1109.06,1.316317,407701,19680
1112.7,1.316430,409859,19779
1117.53,1.320181,412494,19735
1121.15,1.317618,414909,19968
1124.77,1.323165,416559,19793
1128.38,1.316743,418532,20183
1131.99,1.320008,419956,20100
1135.6,1.319111,421946,20237
1139.2,1.324437,423881,20082
1143.99,1.330441,426786,19942
1147.58,1.327019,428617,20186
1151.17,1.318342,431169,20716
1154.75,1.317442,433579,20875
1158.33,1.325019,436264,20641
1161.91,1.323656,439132,20842
1165.48,1.320104,442389,21169
1169.04,1.327566,446101,20983
1173.79,1.325083,451929,21379
1177.34,1.322870,456026,21683
1180.9,1.320246,461306,22067
1184.44,1.323888,467657,22184
1187.99,1.321123,473969,22627
1191.52,1.327483,479856,22575
1195.06,1.324945,487372,23063
1199.76,1.323766,497347,23599
1203.29,1.328977,504311,23644
1206.81,1.320893,511507,24432
1210.33,1.321815,519078,24741
1213.84,1.331893,527163,24550
1217.35,1.332804,534208,24826
1220.85,1.325365,540472,25551
1225.51,1.319246,549929,26367
1229.01,1.326209,556888,26276
1232.5,1.321595,562180,26809
1235.98,1.326892,567975,26757
1239.46,1.330907,574815,26830
1242.94,1.322682,582782,27722
1246.41,1.319522,591476,28341
1251.03,1.328067,604016,28378
1254.5,1.330059,612289,28635
1257.96,1.326827,619125,29171
1261.41,1.327797,624551,29361
1264.86,1.327511,629900,29632
1268.31,1.329671,634345,29693
1271.75,1.334830,638574,29538
1276.33,1.330664,642499,30006
1279.76,1.332194,645905,30059
1283.19,1.326315,648307,30582
1286.61,1.328641,650446,30519
1290.03,1.332291,652132,30342
1293.44,1.334561,653907,30266
1296.85,1.332722,655963,30490
1301.39,1.336210,657349,30310
1304.8,1.331475,657558,30652
1308.19,1.328396,658515,30915
1311.58,1.335041,658804,30459
1314.97,1.331882,659011,30691
1318.36,1.335861,658272,30377
1321.73,1.337085,658022,30280
1326.23,1.335409,657870,30390
1329.6,1.333550,656482,30456
1332.97,1.333962,654926,30355
1336.33,1.332609,653727,30394
1339.69,1.333509,652497,30274
1343.04,1.331986,649913,30260
1346.39,1.334364,647671,29991
1349.73,1.335294,645338,29819
1354.18,1.330130,641175,29981
1357.52,1.336966,638376,29384
1360.85,1.330787,635805,29685
1364.17,1.335309,633413,29267
1367.49,1.332424,631026,29351
1370.81,1.329322,628050,29422
1374.12,1.330179,625034,29223
1378.54,1.332316,620272,28858
1381.84,1.328171,616892,28976
1385.14,1.331270,613613,28617
1388.43,1.327989,611526,28736
1391.72,1.326530,610663,28792
1395.01,1.331928,610634,28435
1398.29,1.335428,611700,28256
1402.66,1.334550,614051,28422
1405.93,1.331661,616268,28715
1409.2,1.335162,617795,28555
1412.46,1.332465,618872,28783
1415.72,1.333625,619795,28749
1418.98,1.330610,620495,28982
1422.23,1.330350,621087,29027
1426.56,1.335578,621375,28693
1429.8,1.330989,621616,29009
1433.04,1.335409,622129,28739
1436.27,1.332622,621526,28896
1439.5,1.334518,621113,28751
1442.72,1.336640,620921,28602
1445.94,1.334653,620270,28703
1450.23,1.337816,618860,28430
1453.44,1.340157,617697,28224
1456.64,1.334617,616264,28520
1459.85,1.341939,614413,27959
1463.04,1.338402,612307,28091
1466.24,1.341980,610032,27757
1469.43,1.341473,607345,27667
1473.67,1.341663,603789,27493
1476.85,1.337526,601175,27636
1480.02,1.338522,597737,27415
1483.19,1.335642,594479,27447
1486.36,1.336423,591232,27248
1489.52,1.336957,587853,27059
1492.68,1.340443,583875,26661
1496.89,1.336342,578062,26646
1500.03,1.339390,574159,26281
1503.18,1.343312,570285,25869
1506.32,1.341545,565444,25754
1509.45,1.340985,560571,25565
1512.58,1.343500,555821,25202
1515.71,1.342104,550344,25034
1519.87,1.342098,543983,24745
1522.99,1.340075,538764,24622
1526.1,1.335174,533692,24667
1529.21,1.336447,527902,24328
1532.32,1.336479,521886,24049
1535.42,1.339128,515888,23628
1538.51,1.340763,509987,23270
1541.6,1.337374,503936,23174
1545.72,1.337603,494694,22737
1548.8,1.340568,488378,22294
1551.88,1.336582,481832,22198
1554.95,1.339045,474989,21759
1558.02,1.338144,467818,21475
1561.08,1.345028,460730,20817
1564.15,1.330801,454170,21204
1568.22,1.332156,444181,20673
1571.27,1.336068,436947,20154
1574.32,1.333533,429598,19931
1577.36,1.337730,422039,19392
1580.4,1.336337,414375,19101
1583.43,1.340046,406354,18572
1586.46,1.332854,398475,18516
1590.49,1.349131,388982,17410
1593.51,1.332422,380708,17708
1596.53,1.342477,372727,16940
1599.54,1.337184,365060,16795
1602.55,1.328640,357543,16776
1605.55,1.338345,349495,16036
1608.55,1.341080,341154,15555
1612.54,1.336824,330877,15235
1615.53,1.334955,322904,14932
1618.51,1.316427,315116,15207
1621.49,1.333478,307217,14255
1624.47,1.326996,299481,14105
1627.44,1.329527,292112,13678
1630.41,1.331444,284245,13251
1634.36,1.329852,274079,12824
1637.32,1.323667,266916,12668
1640.27,1.333951,259612,12033
1643.22,1.327344,251804,11850
1646.16,1.328218,244348,11476
1649.1,1.331077,236703,11044
1652.04,1.328309,228171,10714
1655.95,1.335177,215408,9956
1658.88,1.332847,204937,9523
1661.8,1.331817,193395,9008
1664.72,1.319159,179728,8619
1667.63,1.342614,163642,7435
1670.54,1.336556,146312,6741
1673.44,1.374818,128451,5419
1677.31,1.317627,105080,5057
1680.21,1.387472,88906,3643
1683.1,1.389673,75033,3059
1685.99,1.347457,63520,2854
1688.87,1.307826,53714,2644
1691.75,1.424952,45653,1716
1694.62,1.321211,39137,1868
1697.49,1.374793,33776,1425
1701.31,1.261780,28175,1542