File: samples/unknown/Column 1_078104_20241121_164540.csv
Method:,Column 1,,
Host Date-Time:,21/11/24 @ 16:45:40,,
Header Version:,1,,
System Temp (C):,32.38,,
Detector Temp (C):,27.64,,
Humidity (%):,4.01,,
Lamp PD:,3807,,
Shift Vector Coefficients:,-10.5391,0.0761263,-0.000134223,,
Pixel to Wavelength Coefficients:,1775.68,-0.916766,-0.000235065,,
Serial Number:,5510004,,
Scan Config Name:,Column 1,,
Scan Config Type:,Slew,,
Section 1,,
Start wavelength (nm):,900,,
End wavelength (nm):,1700,,
Pattern Pixel Width (nm):,   7.03,,,,
Exposure (ms):,  0.635,,,,
Digital Resolution:,228,,
Num Repeats:,6,,
PGA Gain:,64,,
Total Measurement Time in sec:,  2.727,,
Wavelength (nm),Absorbance (AU),Reference Signal (unitless),Sample Signal (unitless)
901.51,1.337356,108485,4989
905.376,1.338573,121306,5563
909.237,1.310984,131909,6446
913.095,1.337885,143299,6582
916.948,1.324510,156982,7436
922.079,1.306414,179937,8886
925.923,1.329828,200504,9382
929.762,1.315709,222660,10763
933.597,1.319072,244426,11724
937.427,1.313738,263972,12818
941.254,1.321999,281845,13428
945.076,1.322181,297271,14157
950.165,1.326133,315605,14894
953.978,1.317888,328029,15777
957.786,1.319172,340470,16327
961.59,1.314980,352317,17059
965.389,1.317209,363056,17489
969.185,1.316504,373162,18005
972.976,1.310777,382632,18707
976.763,1.310006,391202,19160
981.806,1.309523,400190,19622
985.583,1.312745,406088,19764
989.355,1.304220,410162,20358
993.124,1.315281,412868,19977
996.888,1.309438,414263,20316
1000.65,1.316150,415476,20063
1004.4,1.304555,415479,20606
1009.41,1.311423,414358,20228
1013.15,1.319182,412923,19801
1016.89,1.316768,411526,19844
1020.63,1.313967,409066,19853
1024.36,1.311837,406777,19839
1028.09,1.313257,404427,19660
1031.82,1.322528,401911,19125
1036.78,1.321714,398410,18994
1040.49,1.305774,396204,19595
1044.2,1.313044,394236,19174
1047.91,1.320169,392042,18757
1051.61,1.320445,389823,18639
1055.31,1.309016,388234,19058
1059,1.312611,387599,18870
1063.92,1.317684,386688,18607
1067.61,1.321876,386598,18424
1071.29,1.320493,387377,18520
1074.96,1.316291,388536,18756
1078.63,1.312264,389855,18995
1082.3,1.313891,391215,18990
1085.96,1.312961,393215,19128
1090.84,1.326684,396270,18677
1094.49,1.314143,398760,19345
1098.14,1.326646,400987,18901
1101.79,1.317995,403477,19401
1105.43,1.331775,406116,18918
1109.06,1.320441,407701,19494
1112.7,1.320157,409859,19610
1117.53,1.320401,412494,19725
1121.15,1.330734,414909,19374
1124.77,1.327598,416559,19592
1128.38,1.316614,418532,20189
1131.99,1.324067,419956,19913
1135.6,1.330658,421946,19706
1139.2,1.316869,423881,20435
1143.99,1.327295,426786,20087
1147.58,1.322823,428617,20382
1151.17,1.326959,431169,20309
1154.75,1.326375,433579,20450
1158.33,1.319603,436264,20900
1161.91,1.316198,439132,21203
1165.48,1.323978,442389,20981
1169.04,1.329973,446101,20867
1173.79,1.330788,451929,21100
1177.34,1.319240,456026,21865
1180.9,1.317343,461306,22215
1184.44,1.319195,467657,22425
1187.99,1.322623,473969,22549
1191.52,1.322358,479856,22843
1195.06,1.326454,487372,22983
1199.76,1.327017,497347,23423
1203.29,1.332296,504311,23464
1206.81,1.321230,511507,24413
1210.33,1.324262,519078,24602
1213.84,1.326531,527163,24855
1217.35,1.326534,534208,25187
1220.85,1.323991,540472,25632
1225.51,1.320863,549929,26269
1229.01,1.324971,556888,26351
1232.5,1.332254,562180,26159
1235.98,1.327850,567975,26698
1239.46,1.322984,574815,27324
1242.94,1.330602,582782,27221
1246.41,1.325478,591476,27955
1251.03,1.330584,604016,28214
1254.5,1.325383,612289,28945
1257.96,1.329665,619125,28981
1261.41,1.337883,624551,28687
1264.86,1.331161,629900,29384
1268.31,1.326553,634345,29907
1271.75,1.329656,638574,29892
1276.33,1.323772,642499,30486
1279.76,1.329817,645905,30224
1283.19,1.329651,648307,30348
1286.61,1.335945,650446,30010
1290.03,1.335250,652132,30136
1293.44,1.338149,653907,30017
1296.85,1.333549,655963,30432
1301.39,1.333368,657349,30509
1304.8,1.331249,657558,30668
1308.19,1.338688,658515,30191
1311.58,1.332397,658804,30645
1314.97,1.330582,659011,30783
1318.36,1.336691,658272,30319
1321.73,1.337214,658022,30271
1326.23,1.339790,657870,30085
1329.6,1.330778,656482,30651
1332.97,1.339549,654926,29967
1336.33,1.337928,653727,30024
1339.69,1.333753,652497,30257
1343.04,1.332891,649913,30197
1346.39,1.334132,647671,30007
1349.73,1.339406,645338,29538
1354.18,1.328728,641175,30078
1357.52,1.331166,638376,29779
1360.85,1.328074,635805,29871
1364.17,1.332926,633413,29428
1367.49,1.327262,631026,29702
1370.81,1.329381,628050,29418
1374.12,1.330610,625034,29194
1378.54,1.333748,620272,28763
1381.84,1.333206,616892,28642
1385.14,1.331802,613613,28582
1388.43,1.328382,611526,28710
1391.72,1.332407,610663,28405
1395.01,1.330008,610634,28561
1398.29,1.331191,611700,28533
1402.66,1.334122,614051,28450
1405.93,1.332190,616268,28680
1409.2,1.331573,617795,28792
1412.46,1.334370,618872,28657
1415.72,1.337815,619795,28473
1418.98,1.336069,620495,28620
1422.23,1.334484,621087,28752
1426.56,1.335532,621375,28696
1429.8,1.334854,621616,28752
1433.04,1.337894,622129,28575
1436.27,1.335305,621526,28718
1439.5,1.331462,621113,28954
1442.72,1.340774,620921,28331
1445.94,1.338087,620270,28477
1450.23,1.339407,618860,28326
1453.44,1.337442,617697,28401
1456.64,1.336020,616264,28428
1459.85,1.339229,614413,28134
1463.04,1.341786,612307,27873
1466.24,1.333996,610032,28272
1469.43,1.339688,607345,27781
1473.67,1.340181,603789,27587
1476.85,1.338171,601175,27595
1480.02,1.340427,597737,27295
1483.19,1.339807,594479,27185
1486.36,1.348217,591232,26518
1489.52,1.336428,587853,27092
1492.68,1.336406,583875,26910
1496.89,1.343673,578062,26200
1500.03,1.339704,574159,26262
1503.18,1.343631,570285,25850
1506.32,1.342237,565444,25713
1509.45,1.344156,560571,25379
1512.58,1.337272,555821,25566
1515.71,1.347428,550344,24729
1519.87,1.339421,543983,24898
1522.99,1.341772,538764,24526
1526.1,1.344769,533692,24128
1529.21,1.341673,527902,24037
1532.32,1.345345,521886,23563
1535.42,1.351243,515888,22978
1538.51,1.334316,509987,23618
1541.6,1.340195,503936,23024
1545.72,1.338617,494694,22684
1548.8,1.341094,488378,22267
1551.88,1.348985,481832,21573
1554.95,1.339624,474989,21730
1558.02,1.333978,467818,21682
1561.08,1.344028,460730,20865
1564.15,1.337821,454170,20864
1568.22,1.326729,444181,20933
1571.27,1.335766,436947,20168
1574.32,1.332163,429598,19994
1577.36,1.338963,422039,19337
1580.4,1.342082,414375,18850
1583.43,1.343851,406354,18410
1586.46,1.337736,398475,18309
1590.49,1.336131,388982,17939
1593.51,1.332668,380708,17698
1596.53,1.343170,372727,16913
1599.54,1.335326,365060,16867
1602.55,1.325853,357543,16884
1605.55,1.333363,349495,16221
1608.55,1.331799,341154,15891
1612.54,1.323712,330877,15702
1615.53,1.320089,322904,15452
1618.51,1.336175,315116,14531
1621.49,1.330503,307217,14353
1624.47,1.329095,299481,14037
1627.44,1.326143,292112,13785
1630.41,1.352221,284245,12632
1634.36,1.329446,274079,12836
1637.32,1.337495,266916,12271
1640.27,1.331001,259612,12115
1643.22,1.333843,251804,11674
1646.16,1.323588,244348,11599
1649.1,1.335107,236703,10942
1652.04,1.338438,228171,10467
1655.95,1.331615,215408,10038
1658.88,1.335225,204937,9471
1661.8,1.313918,193395,9387
1664.72,1.310973,179728,8783
1667.63,1.314786,163642,7927
1670.54,1.312678,146312,7122
1673.44,1.329430,128451,6016
1677.31,1.312335,105080,5119
1680.21,1.336147,88906,4100
1683.1,1.291261,75033,3837
1685.99,1.256738,63520,3517
1688.87,1.205432,53714,3347
1691.75,1.374137,45653,1929
1694.62,1.415051,39137,1505
1697.49,1.306412,33776,1668
1701.31,1.252859,28175,1574