File: samples/unknown/Column 1_078100_20241121_173228.csv
Method:,Column 1,,
Host Date-Time:,21/11/24 @ 17:32:28,,
Header Version:,1,,
System Temp (C):,37.76,,
Detector Temp (C):,36.98,,
Humidity (%):,0.59,,
Lamp PD:,3795,,
Shift Vector Coefficients:,-10.5391,0.0761263,-0.000134223,,
Pixel to Wavelength Coefficients:,1775.68,-0.916766,-0.000235065,,
Serial Number:,5510004,,
Scan Config Name:,Column 1,,
Scan Config Type:,Slew,,
Section 1,,
Start wavelength (nm):,900,,
End wavelength (nm):,1700,,
Pattern Pixel Width (nm):,   7.03,,,,
Exposure (ms):,  0.635,,,,
Digital Resolution:,228,,
Num Repeats:,6,,
PGA Gain:,64,,
Total Measurement Time in sec:,  2.726,,
Wavelength (nm),Absorbance (AU),Reference Signal (unitless),Sample Signal (unitless)
901.51,1.320956,108485,5181
905.376,1.315836,121306,5862
909.237,1.330412,131909,6164
913.095,1.313884,143299,6956
916.948,1.334794,156982,7262
922.079,1.319664,179937,8619
925.923,1.325590,200504,9474
929.762,1.335100,222660,10293
933.597,1.325490,244426,11552
937.427,1.326633,263972,12443
941.254,1.324139,281845,13362
945.076,1.318546,297271,14276
950.165,1.314850,315605,15286
953.978,1.313942,328029,15921
957.786,1.312652,340470,16574
961.59,1.311885,352317,17181
965.389,1.313180,363056,17652
969.185,1.311325,373162,18221
972.976,1.313408,382632,18594
976.763,1.310800,391202,19125
981.806,1.312009,400190,19510
985.583,1.311582,406088,19817
989.355,1.307776,410162,20192
993.124,1.303063,412868,20547
996.888,1.304697,414263,20539
1000.65,1.311285,415476,20289
1004.4,1.311867,415479,20262
1009.41,1.308214,414358,20378
1013.15,1.310410,412923,20205
1016.89,1.308358,411526,20232
1020.63,1.306077,409066,20217
1024.36,1.312647,406777,19802
1028.09,1.308555,404427,19874
1031.82,1.306895,401911,19826
1036.78,1.313044,398410,19377
1040.49,1.308419,396204,19476
1044.2,1.298806,394236,19813
1047.91,1.302853,392042,19520
1051.61,1.311588,389823,19023
1055.31,1.313161,388234,18877
1059,1.313233,387599,18843
1063.92,1.303766,386688,19213
1067.61,1.308460,386598,19002
1071.29,1.316525,387377,18690
1074.96,1.309787,388536,19039
1078.63,1.309438,389855,19119
1082.3,1.312612,391215,19046
1085.96,1.300186,393215,19699
1090.84,1.319581,396270,18985
1094.49,1.309565,398760,19550
1098.14,1.312739,400987,19516
1101.79,1.314694,403477,19549
1105.43,1.313501,406116,19731
1109.06,1.311707,407701,19890
1112.7,1.311909,409859,19986
1117.53,1.310819,412494,20165
1121.15,1.322562,414909,19742
1124.77,1.315811,416559,20131
1128.38,1.321220,418532,19976
1131.99,1.311450,419956,20500
1135.6,1.315925,421946,20386
1139.2,1.310498,423881,20737
1143.99,1.317272,426786,20556
1147.58,1.316939,428617,20660
1151.17,1.319454,431169,20663
1154.75,1.317047,433579,20894
1158.33,1.313209,436264,21210
1161.91,1.311877,439132,21415
1165.48,1.320597,442389,21145
1169.04,1.320341,446101,21335
1173.79,1.309638,451929,22153
1177.34,1.308645,456026,22405
1180.9,1.319400,461306,22110
1184.44,1.314150,467657,22687
1187.99,1.317453,473969,22819
1191.52,1.321864,479856,22869
1195.06,1.317181,487372,23479
1199.76,1.319189,497347,23849
1203.29,1.314402,504311,24451
1206.81,1.316665,511507,24671
1210.33,1.316321,519078,25056
1213.84,1.322565,527163,25083
1217.35,1.320167,534208,25559
1220.85,1.318786,540472,25941
1225.51,1.320037,549929,26319
1229.01,1.315338,556888,26942
1232.5,1.324602,562180,26624
1235.98,1.321104,567975,27116
1239.46,1.318226,574815,27625
1242.94,1.319637,582782,27917
1246.41,1.322150,591476,28170
1251.03,1.325579,604016,28541
1254.5,1.321618,612289,29197
1257.96,1.324866,619125,29303
1261.41,1.325084,624551,29545
1264.86,1.322368,629900,29985
1268.31,1.320797,634345,30306
1271.75,1.324543,638574,30246
1276.33,1.333846,642499,29787
1279.76,1.322253,645905,30755
1283.19,1.327937,648307,30468
1286.61,1.330381,650446,30397
1290.03,1.332019,652132,30361
1293.44,1.324350,653907,30986
1296.85,1.330052,655963,30678
1301.39,1.333966,657349,30467
1304.8,1.323306,657558,31234
1308.19,1.330805,658515,30744
1311.58,1.327156,658804,31017
1314.97,1.330046,659011,30821
1318.36,1.323986,658272,31219
1321.73,1.327496,658022,30956
1326.23,1.333911,657870,30495
1329.6,1.333265,656482,30476
1332.97,1.328319,654926,30752
1336.33,1.326057,653727,30856
1339.69,1.326748,652497,30749
1343.04,1.325406,649913,30722
1346.39,1.328409,647671,30405
1349.73,1.324435,645338,30574
1354.18,1.325563,641175,30298
1357.52,1.328433,638376,29967
1360.85,1.328118,635805,29868
1364.17,1.330043,633413,29624
1367.49,1.328814,631026,29596
1370.81,1.324697,628050,29737
1374.12,1.319826,625034,29928
1378.54,1.325744,620272,29298
1381.84,1.326033,616892,29119
1385.14,1.322259,613613,29217
1388.43,1.324122,611526,28993
1391.72,1.325912,610663,28833
1395.01,1.324823,610634,28904
1398.29,1.332578,611700,28442
1402.66,1.326496,614051,28954
1405.93,1.321540,616268,29392
1409.2,1.323473,617795,29334
1412.46,1.332223,618872,28799
1415.72,1.328295,619795,29104
1418.98,1.324790,620495,29373
1422.23,1.329976,621087,29052
1426.56,1.332351,621375,28907
1429.8,1.326936,621616,29281
1433.04,1.328453,622129,29203
1436.27,1.333178,621526,28859
1439.5,1.335319,621113,28698
1442.72,1.333644,620921,28800
1445.94,1.329091,620270,29073
1450.23,1.333287,618860,28728
1453.44,1.335474,617697,28530
1456.64,1.328508,616264,28924
1459.85,1.330715,614413,28691
1463.04,1.325621,612307,28930
1466.24,1.334519,610032,28238
1469.43,1.331726,607345,28295
1473.67,1.328700,603789,28326
1476.85,1.333257,601175,27909
1480.02,1.327526,597737,28118
1483.19,1.334993,594479,27488
1486.36,1.331431,591232,27563
1489.52,1.336748,587853,27072
1492.68,1.335149,583875,26988
1496.89,1.329294,578062,27082
1500.03,1.336016,574159,26486
1503.18,1.331553,570285,26579
1506.32,1.333144,565444,26257
1509.45,1.335969,560571,25862
1512.58,1.332542,555821,25846
1515.71,1.334333,550344,25486
1519.87,1.330683,543983,25404
1522.99,1.331258,538764,25127
1526.1,1.338391,533692,24485
1529.21,1.336375,527902,24332
1532.32,1.326941,521886,24583
1535.42,1.329728,515888,24145
1538.51,1.325722,509987,24090
1541.6,1.336850,503936,23202
1545.72,1.331986,494694,23033
1548.8,1.331565,488378,22761
1551.88,1.338444,481832,22103
1554.95,1.329080,474989,22264
1558.02,1.332957,467818,21733
1561.08,1.332931,460730,21405
1564.15,1.331970,454170,21147
1568.22,1.335277,444181,20525
1571.27,1.332056,436947,20341
1574.32,1.336112,429598,19813
1577.36,1.326893,422039,19882
1580.4,1.331589,414375,19311
1583.43,1.332443,406354,18900
1586.46,1.324399,398475,18880
1590.49,1.337489,388982,17883
1593.51,1.321046,380708,18178
1596.53,1.321508,372727,17778
1599.54,1.334709,365060,16891
1602.55,1.326419,357543,16862
1605.55,1.313043,349495,16998
1608.55,1.317868,341154,16409
1612.54,1.319610,330877,15851
1615.53,1.322710,322904,15359
1618.51,1.324905,315116,14913
1621.49,1.328811,307217,14409
1624.47,1.315331,299481,14489
1627.44,1.328417,292112,13713
1630.41,1.323681,284245,13490
1634.36,1.328466,274079,12865
1637.32,1.324421,266916,12646
1640.27,1.321043,259612,12396
1643.22,1.315986,251804,12164
1646.16,1.315832,244348,11808
1649.1,1.309783,236703,11599
1652.04,1.309741,228171,11182
1655.95,1.299677,215408,10804
1658.88,1.295298,204937,10383
1661.8,1.280707,193395,10133
1664.72,1.261135,179728,9851
1667.63,1.253424,163642,9130
1670.54,1.211714,146312,8986
1673.44,1.208862,128451,7941
1677.31,1.164308,105080,7198
1680.21,1.176243,88906,5925
1683.1,1.118768,75033,5708
1685.99,1.086406,63520,5206
1688.87,1.107977,53714,4189
1691.75,1.149595,45653,3235
1694.62,1.127949,39137,2915
1697.49,1.095319,33776,2712
1701.31,1.207322,28175,1748