File: samples/unknown/Column 1_078019_20241121_164131.csv
Method:,Column 1,,
Host Date-Time:,21/11/24 @ 16:41:31,,
Header Version:,1,,
System Temp (C):,29.68,,
Detector Temp (C):,24.92,,
Humidity (%):,7.2,,
Lamp PD:,3813,,
Shift Vector Coefficients:,-10.5391,0.0761263,-0.000134223,,
Pixel to Wavelength Coefficients:,1775.68,-0.916766,-0.000235065,,
Serial Number:,5510004,,
Scan Config Name:,Column 1,,
Scan Config Type:,Slew,,
Section 1,,
Start wavelength (nm):,900,,
End wavelength (nm):,1700,,
Pattern Pixel Width (nm):,   7.03,,,,
Exposure (ms):,  0.635,,,,
Digital Resolution:,228,,
Num Repeats:,6,,
PGA Gain:,64,,
Total Measurement Time in sec:,  2.706,,
Wavelength (nm),Absorbance (AU),Reference Signal (unitless),Sample Signal (unitless)
901.51,1.285556,108485,5621
905.376,1.308782,121306,5958
909.237,1.297322,131909,6652
913.095,1.320299,143299,6854
916.948,1.308683,156982,7712
922.079,1.294317,179937,9137
925.923,1.316158,200504,9682
929.762,1.313014,222660,10830
933.597,1.307413,244426,12043
937.427,1.307080,263972,13016
941.254,1.308623,281845,13848
945.076,1.304066,297271,14760
950.165,1.313234,315605,15343
953.978,1.305326,328029,16240
957.786,1.303319,340470,16934
961.59,1.299034,352317,17697
965.389,1.316415,363056,17521
969.185,1.307906,373162,18365
972.976,1.300771,382632,19143
976.763,1.305339,391202,19367
981.806,1.309412,400190,19627
985.583,1.325523,406088,19191
989.355,1.306831,410162,20236
993.124,1.307289,412868,20348
996.888,1.307646,414263,20400
1000.65,1.308660,415476,20412
1004.4,1.311695,415479,20270
1009.41,1.306916,414358,20439
1013.15,1.313646,412923,20055
1016.89,1.309691,411526,20170
1020.63,1.314755,409066,19817
1024.36,1.304478,406777,20178
1028.09,1.311955,404427,19719
1031.82,1.309862,401911,19691
1036.78,1.311790,398410,19433
1040.49,1.309938,396204,19408
1044.2,1.304010,394236,19577
1047.91,1.308767,392042,19256
1051.61,1.309607,389823,19110
1055.31,1.317624,388234,18684
1059,1.318496,387599,18616
1063.92,1.308516,386688,19004
1067.61,1.310959,386598,18893
1071.29,1.311994,387377,18886
1074.96,1.309947,388536,19032
1078.63,1.310279,389855,19082
1082.3,1.317358,391215,18839
1085.96,1.313074,393215,19123
1090.84,1.308157,396270,19491
1094.49,1.311190,398760,19477
1098.14,1.318406,400987,19263
1101.79,1.307665,403477,19868
1105.43,1.312841,406116,19761
1109.06,1.319684,407701,19528
1112.7,1.311909,409859,19986
1117.53,1.325829,412494,19480
1121.15,1.321441,414909,19793
1124.77,1.321872,416559,19852
1128.38,1.324625,418532,19820
1131.99,1.323893,419956,19921
1135.6,1.329162,421946,19774
1139.2,1.319577,423881,20308
1143.99,1.321603,426786,20352
1147.58,1.315030,428617,20751
1151.17,1.319160,431169,20677
1154.75,1.313156,433579,21082
1158.33,1.312370,436264,21251
1161.91,1.319591,439132,21038
1165.48,1.311451,442389,21595
1169.04,1.320076,446101,21348
1173.79,1.321643,451929,21549
1177.34,1.319081,456026,21873
1180.9,1.321507,461306,22003
1184.44,1.322968,467657,22231
1187.99,1.314060,473969,22998
1191.52,1.326542,479856,22624
1195.06,1.326227,487372,22995
1199.76,1.323766,497347,23599
1203.29,1.319134,504311,24186
1206.81,1.320928,511507,24430
1210.33,1.315127,519078,25125
1213.84,1.318893,527163,25296
1217.35,1.320404,534208,25545
1220.85,1.332926,540472,25110
1225.51,1.322669,549929,26160
1229.01,1.329460,556888,26080
1232.5,1.325418,562180,26574
1235.98,1.327802,567975,26701
1239.46,1.318383,574815,27615
1242.94,1.328152,582782,27375
1246.41,1.324035,591476,28048
1251.03,1.322109,604016,28770
1254.5,1.325953,612289,28907
1257.96,1.323934,619125,29366
1261.41,1.330483,624551,29180
1264.86,1.331752,629900,29344
1268.31,1.327410,634345,29848
1271.75,1.329293,638574,29917
1276.33,1.327147,642499,30250
1279.76,1.327910,645905,30357
1283.19,1.330740,648307,30272
1286.61,1.330052,650446,30420
1290.03,1.331191,652132,30419
1293.44,1.331786,653907,30460
1296.85,1.335551,655963,30292
1301.39,1.331224,657349,30660
1304.8,1.325649,657558,31066
1308.19,1.337955,658515,30242
1311.58,1.329670,658804,30838
1314.97,1.335434,659011,30441
1318.36,1.334419,658272,30478
1321.73,1.328324,658022,30897
1326.23,1.329857,657870,30781
1329.6,1.332197,656482,30551
1332.97,1.330343,654926,30609
1336.33,1.333495,653727,30332
1339.69,1.332649,652497,30334
1343.04,1.334563,649913,30081
1346.39,1.333077,647671,30080
1349.73,1.330198,645338,30171
1354.18,1.329595,641175,30018
1357.52,1.324595,638376,30233
1360.85,1.328860,635805,29817
1364.17,1.337257,633413,29136
1367.49,1.328961,631026,29586
1370.81,1.333460,628050,29143
1374.12,1.331027,625034,29166
1378.54,1.325552,620272,29311
1381.84,1.323371,616892,29298
1385.14,1.331544,613613,28599
1388.43,1.325758,611526,28884
1391.72,1.330881,610663,28505
1395.01,1.327521,610634,28725
1398.29,1.326137,611700,28867
1402.66,1.328706,614051,28807
1405.93,1.333844,616268,28571
1409.2,1.332675,617795,28719
1412.46,1.328664,618872,29036
1415.72,1.331380,619795,28898
1418.98,1.330595,620495,28983
1422.23,1.332300,621087,28897
1426.56,1.332276,621375,28912
1429.8,1.334537,621616,28773
1433.04,1.335348,622129,28743
1436.27,1.333013,621526,28870
1439.5,1.337093,621113,28581
1442.72,1.336686,620921,28599
1445.94,1.330707,620270,28965
1450.23,1.336215,618860,28535
1453.44,1.333333,617697,28671
1456.64,1.329350,616264,28868
1459.85,1.333433,614413,28512
1463.04,1.337074,612307,28177
1466.24,1.338971,610032,27950
1469.43,1.335503,607345,28050
1473.67,1.338217,603789,27712
1476.85,1.333475,601175,27895
1480.02,1.332919,597737,27771
1483.19,1.332222,594479,27664
1486.36,1.336662,591232,27233
1489.52,1.347303,587853,26422
1492.68,1.342927,583875,26509
1496.89,1.330321,578062,27018
1500.03,1.342858,574159,26072
1503.18,1.333354,570285,26469
1506.32,1.340955,565444,25789
1509.45,1.335750,560571,25875
1512.58,1.336780,555821,25595
1515.71,1.339010,550344,25213
1519.87,1.337784,543983,24992
1522.99,1.336579,538764,24821
1526.1,1.336903,533692,24569
1529.21,1.337054,527902,24294
1532.32,1.342736,521886,23705
1535.42,1.343711,515888,23380
1538.51,1.333196,509987,23679
1541.6,1.340610,503936,23002
1545.72,1.337241,494694,22756
1548.8,1.342677,488378,22186
1551.88,1.338897,481832,22080
1554.95,1.339984,474989,21712
1558.02,1.334880,467818,21637
1561.08,1.336701,460730,21220
1564.15,1.328065,454170,21338
1568.22,1.335404,444181,20519
1571.27,1.334755,436947,20215
1574.32,1.332880,429598,19961
1577.36,1.328512,422039,19808
1580.4,1.339074,414375,18981
1583.43,1.336900,406354,18707
1586.46,1.336789,398475,18349
1590.49,1.336204,388982,17936
1593.51,1.333872,380708,17649
1596.53,1.332567,372727,17331
1599.54,1.336590,365060,16818
1602.55,1.347556,357543,16061
1605.55,1.324302,349495,16563
1608.55,1.325289,341154,16131
1612.54,1.336454,330877,15248
1615.53,1.331999,322904,15034
1618.51,1.325138,315116,14905
1621.49,1.317741,307217,14781
1624.47,1.329126,299481,14036
1627.44,1.327152,292112,13753
1630.41,1.326037,284245,13417
1634.36,1.319247,274079,13141
1637.32,1.314340,266916,12943
1640.27,1.319819,259612,12431
1643.22,1.312785,251804,12254
1646.16,1.328445,244348,11470
1649.1,1.325296,236703,11192
1652.04,1.322471,228171,10859
1655.95,1.323047,215408,10238
1658.88,1.331390,204937,9555
1661.8,1.315355,193395,9356
1664.72,1.328376,179728,8438
1667.63,1.320966,163642,7815
1670.54,1.346263,146312,6592
1673.44,1.336856,128451,5914
1677.31,1.340641,105080,4796
1680.21,1.383910,88906,3673
1683.1,1.336804,75033,3455
1685.99,1.329570,63520,2974
1688.87,1.245218,53714,3054
1691.75,1.354118,45653,2020
1694.62,1.227661,39137,2317
1697.49,1.264263,33776,1838
1701.31,1.375779,28175,1186