File: samples/unknown/Column 1_078103_20241121_164537.csv
Method:,Column 1,,
Host Date-Time:,21/11/24 @ 16:45:37,,
Header Version:,1,,
System Temp (C):,32.37,,
Detector Temp (C):,27.54,,
Humidity (%):,4.05,,
Lamp PD:,3807,,
Shift Vector Coefficients:,-10.5391,0.0761263,-0.000134223,,
Pixel to Wavelength Coefficients:,1775.68,-0.916766,-0.000235065,,
Serial Number:,5510004,,
Scan Config Name:,Column 1,,
Scan Config Type:,Slew,,
Section 1,,
Start wavelength (nm):,900,,
End wavelength (nm):,1700,,
Pattern Pixel Width (nm):,   7.03,,,,
Exposure (ms):,  0.635,,,,
Digital Resolution:,228,,
Num Repeats:,6,,
PGA Gain:,64,,
Total Measurement Time in sec:,  2.707,,
Wavelength (nm),Absorbance (AU),Reference Signal (unitless),Sample Signal (unitless)
901.51,1.317949,108485,5217
905.376,1.292051,121306,6192
909.237,1.299679,131909,6616
913.095,1.334206,143299,6638
916.948,1.314237,156982,7614
922.079,1.307295,179937,8868
925.923,1.307322,200504,9881
929.762,1.310495,222660,10893
933.597,1.314942,244426,11836
937.427,1.297674,263972,13301
941.254,1.310478,281845,13789
945.076,1.314428,297271,14412
950.165,1.318244,315605,15167
953.978,1.307982,328029,16141
957.786,1.316838,340470,16415
961.59,1.303053,352317,17534
965.389,1.316613,363056,17513
969.185,1.305501,373162,18467
972.976,1.313338,382632,18597
976.763,1.306551,391202,19313
981.806,1.306787,400190,19746
985.583,1.305251,406088,20108
989.355,1.309327,410162,20120
993.124,1.305479,412868,20433
996.888,1.306583,414263,20450
1000.65,1.312700,415476,20223
1004.4,1.312553,415479,20230
1009.41,1.305579,414358,20502
1013.15,1.313084,412923,20081
1016.89,1.309799,411526,20165
1020.63,1.307497,409066,20151
1024.36,1.309435,406777,19949
1028.09,1.317519,404427,19468
1031.82,1.307267,401911,19809
1036.78,1.310897,398410,19473
1040.49,1.307239,396204,19529
1044.2,1.306145,394236,19481
1047.91,1.314350,392042,19010
1051.61,1.315487,389823,18853
1055.31,1.309267,388234,19047
1059,1.309332,387599,19013
1063.92,1.316705,386688,18649
1067.61,1.315186,386598,18710
1071.29,1.311534,387377,18906
1074.96,1.318613,388536,18656
1078.63,1.308032,389855,19181
1082.3,1.304502,391215,19405
1085.96,1.310087,393215,19255
1090.84,1.320015,396270,18966
1094.49,1.318135,398760,19168
1098.14,1.316472,400987,19349
1101.79,1.317123,403477,19440
1105.43,1.318794,406116,19492
1109.06,1.323347,407701,19364
1112.7,1.312300,409859,19968
1117.53,1.317723,412494,19847
1121.15,1.318446,414909,19930
1124.77,1.319125,416559,19978
1128.38,1.320916,418532,19990
1131.99,1.317552,419956,20214
1135.6,1.320659,421946,20165
1139.2,1.317146,423881,20422
1143.99,1.324128,426786,20234
1147.58,1.335646,428617,19789
1151.17,1.319139,431169,20678
1154.75,1.324003,433579,20562
1158.33,1.325229,436264,20631
1161.91,1.319756,439132,21030
1165.48,1.315167,442389,21411
1169.04,1.320748,446101,21315
1173.79,1.322894,451929,21487
1177.34,1.319101,456026,21872
1180.9,1.317167,461306,22224
1184.44,1.321428,467657,22310
1187.99,1.318540,473969,22762
1191.52,1.320044,479856,22965
1195.06,1.314360,487372,23632
1199.76,1.316358,497347,24005
1203.29,1.330081,504311,23584
1206.81,1.318889,511507,24545
1210.33,1.318998,519078,24902
1213.84,1.317693,527163,25366
1217.35,1.323801,534208,25346
1220.85,1.322300,540472,25732
1225.51,1.323284,549929,26123
1229.01,1.323786,556888,26423
1232.5,1.321498,562180,26815
1235.98,1.326357,567975,26790
1239.46,1.327473,574815,27043
1242.94,1.322196,582782,27753
1246.41,1.323555,591476,28079
1251.03,1.325275,604016,28561
1254.5,1.324543,612289,29001
1257.96,1.329096,619125,29019
1261.41,1.325599,624551,29510
1264.86,1.327144,629900,29657
1268.31,1.331974,634345,29536
1271.75,1.329250,638574,29920
1276.33,1.331157,642499,29972
1279.76,1.333975,645905,29936
1283.19,1.332292,648307,30164
1286.61,1.337177,650446,29925
1290.03,1.330663,652132,30456
1293.44,1.331530,653907,30478
1296.85,1.326205,655963,30951
1301.39,1.331663,657349,30629
1304.8,1.332852,657558,30555
1308.19,1.329987,658515,30802
1311.58,1.330798,658804,30758
1314.97,1.332774,659011,30628
1318.36,1.326652,658272,31028
1321.73,1.327271,658022,30972
1326.23,1.331242,657870,30683
1329.6,1.329971,656482,30708
1332.97,1.332890,654926,30430
1336.33,1.331752,653727,30454
1339.69,1.330735,652497,30468
1343.04,1.336879,649913,29921
1346.39,1.328110,647671,30426
1349.73,1.331769,645338,30062
1354.18,1.331175,641175,29909
1357.52,1.331984,638376,29723
1360.85,1.326753,635805,29962
1364.17,1.332218,633413,29476
1367.49,1.328228,631026,29636
1370.81,1.332775,628050,29189
1374.12,1.328355,625034,29346
1378.54,1.328242,620272,29130
1381.84,1.328711,616892,28940
1385.14,1.329771,613613,28716
1388.43,1.328730,611526,28687
1391.72,1.330165,610663,28552
1395.01,1.326012,610634,28825
1398.29,1.325686,611700,28897
1402.66,1.333847,614051,28468
1405.93,1.325429,616268,29130
1409.2,1.333644,617795,28655
1412.46,1.333810,618872,28694
1415.72,1.330105,619795,28983
1418.98,1.335205,620495,28677
1422.23,1.329678,621087,29072
1426.56,1.335321,621375,28710
1429.8,1.328511,621616,29175
1433.04,1.337317,622129,28613
1436.27,1.337412,621526,28579
1439.5,1.333251,621113,28835
1442.72,1.322156,620921,29572
1445.94,1.334321,620270,28725
1450.23,1.333968,618860,28683
1453.44,1.332727,617697,28711
1456.64,1.336296,616264,28410
1459.85,1.338335,614413,28192
1463.04,1.338711,612307,28071
1466.24,1.332509,610032,28369
1469.43,1.337411,607345,27927
1473.67,1.342090,603789,27466
1476.85,1.336584,601175,27696
1480.02,1.337588,597737,27474
1483.19,1.328579,594479,27897
1486.36,1.336950,591232,27215
1489.52,1.341474,587853,26779
1492.68,1.343911,583875,26449
1496.89,1.340009,578062,26422
1500.03,1.332277,574159,26715
1503.18,1.342960,570285,25890
1506.32,1.335367,565444,26123
1509.45,1.331924,560571,26104
1512.58,1.333147,555821,25810
1515.71,1.336160,550344,25379
1519.87,1.332293,543983,25310
1522.99,1.335950,538764,24857
1526.1,1.342292,533692,24266
1529.21,1.338415,527902,24218
1532.32,1.335703,521886,24092
1535.42,1.326860,515888,24305
1538.51,1.332536,509987,23715
1541.6,1.339384,503936,23067
1545.72,1.333819,494694,22936
1548.8,1.340101,488378,22318
1551.88,1.334279,481832,22316
1554.95,1.338068,474989,21808
1558.02,1.333717,467818,21695
1561.08,1.334008,460730,21352
1564.15,1.330862,454170,21201
1568.22,1.335510,444181,20514
1571.27,1.331416,436947,20371
1574.32,1.336090,429598,19814
1577.36,1.335808,422039,19478
1580.4,1.328452,414375,19451
1583.43,1.335047,406354,18787
1586.46,1.327029,398475,18766
1590.49,1.327455,388982,18301
1593.51,1.334020,380708,17643
1596.53,1.329720,372727,17445
1599.54,1.338479,365060,16745
1602.55,1.325904,357543,16882
1605.55,1.320465,349495,16710
1608.55,1.333003,341154,15847
1612.54,1.329223,330877,15504
1615.53,1.319583,322904,15470
1618.51,1.333018,315116,14637
1621.49,1.310457,307217,15031
1624.47,1.312046,299481,14599
1627.44,1.329781,292112,13670
1630.41,1.319930,284245,13607
1634.36,1.339232,274079,12550
1637.32,1.314474,266916,12939
1640.27,1.312956,259612,12629
1643.22,1.325114,251804,11911
1646.16,1.314144,244348,11854
1649.1,1.312676,236703,11522
1652.04,1.312273,228171,11117
1655.95,1.301773,215408,10752
1658.88,1.303659,204937,10185
1661.8,1.311289,193395,9444
1664.72,1.304543,179728,8914
1667.63,1.301195,163642,8179
1670.54,1.301898,146312,7301
1673.44,1.285655,128451,6654
1677.31,1.255852,105080,5830
1680.21,1.281011,88906,4655
1683.1,1.233877,75033,4379
1685.99,1.240975,63520,3647
1688.87,1.254126,53714,2992
1691.75,1.222671,45653,2734
1694.62,1.269748,39137,2103
1697.49,1.292323,33776,1723
1701.31,1.322435,28175,1341