File: samples/unknown/Column 1_078074_20241121_164411.csv
Method:,Column 1,,
Host Date-Time:,21/11/24 @ 16:44:11,,
Header Version:,1,,
System Temp (C):,31.6,,
Detector Temp (C):,26.49,,
Humidity (%):,5.17,,
Lamp PD:,3808,,
Shift Vector Coefficients:,-10.5391,0.0761263,-0.000134223,,
Pixel to Wavelength Coefficients:,1775.68,-0.916766,-0.000235065,,
Serial Number:,5510004,,
Scan Config Name:,Column 1,,
Scan Config Type:,Slew,,
Section 1,,
Start wavelength (nm):,900,,
End wavelength (nm):,1700,,
Pattern Pixel Width (nm):,   7.03,,,,
Exposure (ms):,  0.635,,,,
Digital Resolution:,228,,
Num Repeats:,6,,
PGA Gain:,64,,
Total Measurement Time in sec:,  2.706,,
Wavelength (nm),Absorbance (AU),Reference Signal (unitless),Sample Signal (unitless)
901.51,1.304587,108485,5380
905.376,1.280152,121306,6364
909.237,1.310513,131909,6453
913.095,1.330233,143299,6699
916.948,1.320615,156982,7503
922.079,1.298616,179937,9047
925.923,1.307850,200504,9869
929.762,1.306289,222660,10999
933.597,1.314466,244426,11849
937.427,1.314043,263972,12809
941.254,1.315642,281845,13626
945.076,1.316513,297271,14343
950.165,1.296846,315605,15933
953.978,1.304258,328029,16280
957.786,1.314885,340470,16489
961.59,1.307609,352317,17351
965.389,1.317457,363056,17479
969.185,1.301824,373162,18624
972.976,1.317091,382632,18437
976.763,1.319631,391202,18740
981.806,1.308572,400190,19665
985.583,1.313493,406088,19730
989.355,1.301371,410162,20492
993.124,1.315651,412868,19960
996.888,1.308221,414263,20373
1000.65,1.314055,415476,20160
1004.4,1.313779,415479,20173
1009.41,1.313252,414358,20143
1013.15,1.316645,412923,19917
1016.89,1.315959,411526,19881
1020.63,1.314536,409066,19827
1024.36,1.311202,406777,19868
1028.09,1.308620,404427,19871
1031.82,1.305692,401911,19881
1036.78,1.314143,398410,19328
1040.49,1.315863,396204,19145
1044.2,1.321575,394236,18801
1047.91,1.319845,392042,18771
1051.61,1.316432,389823,18812
1055.31,1.306132,388234,19185
1059,1.308442,387599,19052
1063.92,1.316170,386688,18672
1067.61,1.316977,386598,18633
1071.29,1.303838,387377,19244
1074.96,1.311066,388536,18983
1078.63,1.311396,389855,19033
1082.3,1.315150,391215,18935
1085.96,1.321976,393215,18735
1090.84,1.319924,396270,18970
1094.49,1.312507,398760,19418
1098.14,1.317258,400987,19314
1101.79,1.320734,403477,19279
1105.43,1.317992,406116,19528
1109.06,1.322428,407701,19405
1112.7,1.317375,409859,19736
1117.53,1.321216,412494,19688
1121.15,1.320192,414909,19850
1124.77,1.328663,416559,19544
1128.38,1.314961,418532,20266
1131.99,1.321089,419956,20050
1135.6,1.328877,421946,19787
1139.2,1.321592,423881,20214
1143.99,1.314807,426786,20673
1147.58,1.323206,428617,20364
1151.17,1.321730,431169,20555
1154.75,1.320322,433579,20737
1158.33,1.318130,436264,20971
1161.91,1.321390,439132,20951
1165.48,1.316183,442389,21361
1169.04,1.321339,446101,21286
1173.79,1.318851,451929,21688
1177.34,1.322430,456026,21705
1180.9,1.318419,461306,22160
1184.44,1.321564,467657,22303
1187.99,1.316028,473969,22894
1191.52,1.316804,479856,23137
1195.06,1.313442,487372,23682
1199.76,1.323361,497347,23621
1203.29,1.322849,504311,23980
1206.81,1.323889,511507,24264
1210.33,1.323751,519078,24631
1213.84,1.323068,527163,25054
1217.35,1.320830,534208,25520
1220.85,1.322654,540472,25711
1225.51,1.324566,549929,26046
1229.01,1.326308,556888,26270
1232.5,1.320462,562180,26879
1235.98,1.325482,567975,26844
1239.46,1.326799,574815,27085
1242.94,1.323403,582782,27676
1246.41,1.325882,591476,27929
1251.03,1.330399,604016,28226
1254.5,1.324109,612289,29030
1257.96,1.330010,619125,28958
1261.41,1.329487,624551,29247
1264.86,1.327833,629900,29610
1268.31,1.332975,634345,29468
1271.75,1.329773,638574,29884
1276.33,1.329696,642499,30073
1279.76,1.330119,645905,30203
1283.19,1.329422,648307,30364
1286.61,1.329852,650446,30434
1290.03,1.333366,652132,30267
1293.44,1.332257,653907,30427
1296.85,1.331073,655963,30606
1301.39,1.329330,657349,30794
1304.8,1.334518,657558,30438
1308.19,1.336994,658515,30309
1311.58,1.332581,658804,30632
1314.97,1.332278,659011,30663
1318.36,1.337364,658272,30272
1321.73,1.339256,658022,30129
1326.23,1.336826,657870,30291
1329.6,1.333807,656482,30438
1332.97,1.336646,654926,30168
1336.33,1.328796,653727,30662
1339.69,1.330122,652497,30511
1343.04,1.333381,649913,30163
1346.39,1.327354,647671,30479
1349.73,1.332652,645338,30001
1354.18,1.330362,641175,29965
1357.52,1.336847,638376,29392
1360.85,1.334003,635805,29466
1364.17,1.328536,633413,29727
1367.49,1.331626,631026,29405
1370.81,1.334684,628050,29061
1374.12,1.327069,625034,29433
1378.54,1.322260,620272,29534
1381.84,1.329056,616892,28917
1385.14,1.326486,613613,28934
1388.43,1.323299,611526,29048
1391.72,1.331368,610663,28473
1395.01,1.335085,610634,28229
1398.29,1.333388,611700,28389
1402.66,1.328978,614051,28789
1405.93,1.331857,616268,28702
1409.2,1.327384,617795,29071
1412.46,1.330057,618872,28943
1415.72,1.332027,619795,28855
1418.98,1.331976,620495,28891
1422.23,1.335861,621087,28661
1426.56,1.330223,621375,29049
1429.8,1.326936,621616,29281
1433.04,1.337211,622129,28620
1436.27,1.334293,621526,28785
1439.5,1.328651,621113,29142
1442.72,1.333508,620921,28809
1445.94,1.331232,620270,28930
1450.23,1.338902,618860,28359
1453.44,1.336953,617697,28433
1456.64,1.334495,616264,28528
1459.85,1.332535,614413,28571
1463.04,1.339920,612307,27993
1466.24,1.342622,610032,27716
1469.43,1.336169,607345,28007
1473.67,1.337372,603789,27766
1476.85,1.337353,601175,27647
1480.02,1.335208,597737,27625
1483.19,1.336497,594479,27393
1486.36,1.338773,591232,27101
1489.52,1.340632,587853,26831
1492.68,1.341242,583875,26612
1496.89,1.338008,578062,26544
1500.03,1.335885,574159,26494
1503.18,1.339435,570285,26101
1506.32,1.343692,565444,25627
1509.45,1.339357,560571,25661
1512.58,1.337476,555821,25554
1515.71,1.338579,550344,25238
1519.87,1.335583,543983,25119
1522.99,1.337613,538764,24762
1526.1,1.334418,533692,24710
1529.21,1.344810,527902,23864
1532.32,1.342168,521886,23736
1535.42,1.334103,515888,23903
1538.51,1.332737,509987,23704
1541.6,1.343204,503936,22865
1545.72,1.338904,494694,22669
1548.8,1.343284,488378,22155
1551.88,1.338779,481832,22086
1554.95,1.334933,474989,21966
1558.02,1.337659,467818,21499
1561.08,1.340772,460730,21022
1564.15,1.338988,454170,20808
1568.22,1.340000,444181,20303
1571.27,1.340878,436947,19932
1574.32,1.332011,429598,20001
1577.36,1.333806,422039,19568
1580.4,1.334296,414375,19191
1583.43,1.340420,406354,18556
1586.46,1.330445,398475,18619
1590.49,1.340340,388982,17766
1593.51,1.335203,380708,17595
1596.53,1.330418,372727,17417
1599.54,1.328505,365060,17134
1602.55,1.331471,357543,16667
1605.55,1.327011,349495,16460
1608.55,1.322819,341154,16223
1612.54,1.326264,330877,15610
1615.53,1.333794,322904,14972
1618.51,1.335309,315116,14560
1621.49,1.318094,307217,14769
1624.47,1.325367,299481,14158
1627.44,1.325230,292112,13814
1630.41,1.330135,284245,13291
1634.36,1.330123,274079,12816
1637.32,1.323221,266916,12681
1640.27,1.326614,259612,12238
1643.22,1.330618,251804,11761
1646.16,1.326406,244348,11524
1649.1,1.323553,236703,11237
1652.04,1.320476,228171,10909
1655.95,1.313108,215408,10475
1658.88,1.309887,204937,10040
1661.8,1.314567,193395,9373
1664.72,1.318706,179728,8628
1667.63,1.315279,163642,7918
1670.54,1.324672,146312,6928
1673.44,1.294890,128451,6514
1677.31,1.306855,105080,5184
1680.21,1.358089,88906,3898
1683.1,1.331433,75033,3498
1685.99,1.339018,63520,2910
1688.87,1.287765,53714,2769
1691.75,1.380716,45653,1900
1694.62,1.399741,39137,1559
1697.49,1.376932,33776,1418
1701.31,1.306225,28175,1392