File: samples/unknown/Column 1_078024_20241121_164145.csv
Method:,Column 1,,
Host Date-Time:,21/11/24 @ 16:41:45,,
Header Version:,1,,
System Temp (C):,29.92,,
Detector Temp (C):,24.98,,
Humidity (%):,6.96,,
Lamp PD:,3813,,
Shift Vector Coefficients:,-10.5391,0.0761263,-0.000134223,,
Pixel to Wavelength Coefficients:,1775.68,-0.916766,-0.000235065,,
Serial Number:,5510004,,
Scan Config Name:,Column 1,,
Scan Config Type:,Slew,,
Section 1,,
Start wavelength (nm):,900,,
End wavelength (nm):,1700,,
Pattern Pixel Width (nm):,   7.03,,,,
Exposure (ms):,  0.635,,,,
Digital Resolution:,228,,
Num Repeats:,6,,
PGA Gain:,64,,
Total Measurement Time in sec:,  2.723,,
Wavelength (nm),Absorbance (AU),Reference Signal (unitless),Sample Signal (unitless)
901.51,1.289905,108485,5565
905.376,1.302773,121306,6041
909.237,1.299089,131909,6625
913.095,1.314071,143299,6953
916.948,1.320383,156982,7507
922.079,1.327442,179937,8466
925.923,1.317596,200504,9650
929.762,1.314943,222660,10782
933.597,1.290439,244426,12523
937.427,1.309120,263972,12955
941.254,1.325245,281845,13328
945.076,1.304950,297271,14730
950.165,1.314964,315605,15282
953.978,1.321398,328029,15650
957.786,1.295441,340470,17244
961.59,1.309013,352317,17295
965.389,1.308725,363056,17834
969.185,1.303835,373162,18538
972.976,1.310986,382632,18698
976.763,1.295802,391202,19797
981.806,1.303544,400190,19894
985.583,1.307503,406088,20004
989.355,1.299953,410162,20559
993.124,1.303465,412868,20528
996.888,1.312011,414263,20196
1000.65,1.304089,415476,20628
1004.4,1.301196,415479,20766
1009.41,1.312691,414358,20169
1013.15,1.311335,412923,20162
1016.89,1.307287,411526,20282
1020.63,1.307454,409066,20153
1024.36,1.306982,406777,20062
1028.09,1.311031,404427,19761
1031.82,1.309862,401911,19691
1036.78,1.314593,398410,19308
1040.49,1.308152,396204,19488
1044.2,1.311529,394236,19241
1047.91,1.315494,392042,18960
1051.61,1.314199,389823,18909
1055.31,1.306562,388234,19166
1059,1.306010,387599,19159
1063.92,1.304218,386688,19193
1067.61,1.309765,386598,18945
1071.29,1.314161,387377,18792
1074.96,1.318636,388536,18655
1078.63,1.307150,389855,19220
1082.3,1.323721,391215,18565
1085.96,1.311465,393215,19194
1090.84,1.312974,396270,19276
1094.49,1.305562,398760,19731
1098.14,1.324377,400987,19000
1101.79,1.318107,403477,19396
1105.43,1.316372,406116,19601
1109.06,1.315765,407701,19705
1112.7,1.318058,409859,19705
1117.53,1.314127,412494,20012
1121.15,1.315795,414909,20052
1124.77,1.321085,416559,19888
1128.38,1.320829,418532,19994
1131.99,1.321913,419956,20012
1135.6,1.311812,421946,20580
1139.2,1.307472,423881,20882
1143.99,1.326280,426786,20134
1147.58,1.322759,428617,20385
1151.17,1.313982,431169,20925
1154.75,1.319862,433579,20759
1158.33,1.323213,436264,20727
1161.91,1.322345,439132,20905
1165.48,1.316813,442389,21330
1169.04,1.315523,446101,21573
1173.79,1.318811,451929,21690
1177.34,1.322630,456026,21695
1180.9,1.320994,461306,22029
1184.44,1.318170,467657,22478
1187.99,1.320950,473969,22636
1191.52,1.317706,479856,23089
1195.06,1.324662,487372,23078
1199.76,1.314426,497347,24112
1203.29,1.318453,504311,24224
1206.81,1.320928,511507,24430
1210.33,1.323310,519078,24656
1213.84,1.322254,527163,25101
1217.35,1.324899,534208,25282
1220.85,1.321069,540472,25805
1225.51,1.320021,549929,26320
1229.01,1.327948,556888,26171
1232.5,1.320834,562180,26856
1235.98,1.317102,567975,27367
1239.46,1.327795,574815,27023
1242.94,1.326647,582782,27470
1246.41,1.327830,591476,27804
1251.03,1.314848,604016,29255
1254.5,1.324948,612289,28974
1257.96,1.326247,619125,29210
1261.41,1.332048,624551,29075
1264.86,1.327100,629900,29660
1268.31,1.329876,634345,29679
1271.75,1.329584,638574,29897
1276.33,1.330664,642499,30006
1279.76,1.329343,645905,30257
1283.19,1.326499,648307,30569
1286.61,1.327859,650446,30574
1290.03,1.333223,652132,30277
1293.44,1.329071,653907,30651
1296.85,1.328441,655963,30792
1301.39,1.337229,657349,30239
1304.8,1.331277,657558,30666
1308.19,1.329170,658515,30860
1311.58,1.327240,658804,31011
1314.97,1.333597,659011,30570
1318.36,1.327731,658272,30951
1321.73,1.323460,658022,31245
1326.23,1.333627,657870,30515
1329.6,1.336857,656482,30225
1332.97,1.330301,654926,30612
1336.33,1.332237,653727,30420
1339.69,1.330165,652497,30508
1343.04,1.330611,649913,30356
1346.39,1.329053,647671,30360
1349.73,1.328832,645338,30266
1354.18,1.329841,641175,30001
1357.52,1.329071,638376,29923
1360.85,1.325566,635805,30044
1364.17,1.322861,633413,30118
1367.49,1.327072,631026,29715
1370.81,1.329736,628050,29394
1374.12,1.329377,625034,29277
1378.54,1.328659,620272,29102
1381.84,1.332373,616892,28697
1385.14,1.329604,613613,28727
1388.43,1.325743,611526,28885
1391.72,1.324033,610663,28958
1395.01,1.333182,610634,28353
1398.29,1.330233,611700,28596
1402.66,1.329385,614051,28762
1405.93,1.335016,616268,28494
1409.2,1.340272,617795,28221
1412.46,1.327782,618872,29095
1415.72,1.328893,619795,29064
1418.98,1.327073,620495,29219
1422.23,1.325530,621087,29351
1426.56,1.329506,621375,29097
1429.8,1.338997,621616,28479
1433.04,1.335031,622129,28764
1436.27,1.337564,621526,28569
1439.5,1.334578,621113,28747
1442.72,1.335927,620921,28649
1445.94,1.334381,620270,28721
1450.23,1.327938,618860,29084
1453.44,1.339388,617697,28274
1456.64,1.336770,616264,28379
1459.85,1.337626,614413,28238
1463.04,1.336720,612307,28200
1466.24,1.335797,610032,28155
1469.43,1.333402,607345,28186
1473.67,1.342628,603789,27432
1476.85,1.331068,601175,28050
1480.02,1.334532,597737,27668
1483.19,1.337227,594479,27347
1486.36,1.334372,591232,27377
1489.52,1.336187,587853,27107
1492.68,1.331767,583875,27199
1496.89,1.337926,578062,26549
1500.03,1.346454,574159,25857
1503.18,1.335559,570285,26335
1506.32,1.335882,565444,26092
1509.45,1.337971,560571,25743
1512.58,1.342897,555821,25237
1515.71,1.338631,550344,25235
1519.87,1.338654,543983,24942
1522.99,1.342445,538764,24488
1526.1,1.344104,533692,24165
1529.21,1.334310,527902,24448
1532.32,1.332774,521886,24255
1535.42,1.343637,515888,23384
1538.51,1.341790,509987,23215
1541.6,1.340157,503936,23026
1545.72,1.344030,494694,22403
1548.8,1.340451,488378,22300
1551.88,1.338032,481832,22124
1554.95,1.337351,474989,21844
1558.02,1.348478,467818,20970
1561.08,1.339432,460730,21087
1564.15,1.337800,454170,20865
1568.22,1.335531,444181,20513
1571.27,1.340442,436947,19952
1574.32,1.324690,429598,20341
1577.36,1.337238,422039,19414
1580.4,1.335747,414375,19127
1583.43,1.339345,406354,18602
1586.46,1.340855,398475,18178
1590.49,1.335212,388982,17977
1593.51,1.337008,380708,17522
1596.53,1.318320,372727,17909
1599.54,1.328632,365060,17129
1602.55,1.327580,357543,16817
1605.55,1.323124,349495,16608
1608.55,1.330653,341154,15933
1612.54,1.332287,330877,15395
1615.53,1.326630,322904,15221
1618.51,1.332633,315116,14650
1621.49,1.331715,307217,14313
1624.47,1.330955,299481,13977
1627.44,1.313751,292112,14184
1630.41,1.324906,284245,13452
1634.36,1.326680,274079,12918
1637.32,1.309136,266916,13099
1640.27,1.338851,259612,11898
1643.22,1.310840,251804,12309
1646.16,1.318896,244348,11725
1649.1,1.326228,236703,11168
1652.04,1.324154,228171,10817
1655.95,1.303919,215408,10699
1658.88,1.330754,204937,9569
1661.8,1.325024,193395,9150
1664.72,1.332981,179728,8349
1667.63,1.343959,163642,7412
1670.54,1.358083,146312,6415
1673.44,1.362493,128451,5575
1677.31,1.312420,105080,5118
1680.21,1.321668,88906,4239
1683.1,1.395533,75033,3018
1685.99,1.335154,63520,2936
1688.87,1.295199,53714,2722
1691.75,1.370773,45653,1944
1694.62,1.390099,39137,1594
1697.49,1.253297,33776,1885
1701.31,1.473973,28175,946