File: samples/unknown/Column 1_078081_20241121_164432.csv
Method:,Column 1,,
Host Date-Time:,21/11/24 @ 16:44:32,,
Header Version:,1,,
System Temp (C):,31.84,,
Detector Temp (C):,26.73,,
Humidity (%):,4.88,,
Lamp PD:,3808,,
Shift Vector Coefficients:,-10.5391,0.0761263,-0.000134223,,
Pixel to Wavelength Coefficients:,1775.68,-0.916766,-0.000235065,,
Serial Number:,5510004,,
Scan Config Name:,Column 1,,
Scan Config Type:,Slew,,
Section 1,,
Start wavelength (nm):,900,,
End wavelength (nm):,1700,,
Pattern Pixel Width (nm):,   7.03,,,,
Exposure (ms):,  0.635,,,,
Digital Resolution:,228,,
Num Repeats:,6,,
PGA Gain:,64,,
Total Measurement Time in sec:,  2.728,,
Wavelength (nm),Absorbance (AU),Reference Signal (unitless),Sample Signal (unitless)
901.51,1.302815,108485,5402
905.376,1.288559,121306,6242
909.237,1.318322,131909,6338
913.095,1.290429,143299,7342
916.948,1.322064,156982,7478
922.079,1.321785,179937,8577
925.923,1.315710,200504,9692
929.762,1.295757,222660,11269
933.597,1.324852,244426,11569
937.427,1.307047,263972,13017
941.254,1.305000,281845,13964
945.076,1.293170,297271,15135
950.165,1.312922,315605,15354
953.978,1.311060,328029,16027
957.786,1.302039,340470,16984
961.59,1.305836,352317,17422
965.389,1.310604,363056,17757
969.185,1.309779,373162,18286
972.976,1.304760,382632,18968
976.763,1.298818,391202,19660
981.806,1.307954,400190,19693
985.583,1.312899,406088,19757
989.355,1.306337,410162,20259
993.124,1.303909,412868,20507
996.888,1.309459,414263,20315
1000.65,1.303374,415476,20662
1004.4,1.312360,415479,20239
1009.41,1.320272,414358,19820
1013.15,1.306303,412923,20397
1016.89,1.312781,411526,20027
1020.63,1.315194,409066,19797
1024.36,1.309849,406777,19930
1028.09,1.305268,404427,20025
1031.82,1.309686,401911,19699
1036.78,1.308540,398410,19579
1040.49,1.306750,396204,19551
1044.2,1.307686,394236,19412
1047.91,1.307618,392042,19307
1051.61,1.313167,389823,18954
1055.31,1.302525,388234,19345
1059,1.310911,387599,18944
1063.92,1.303811,386688,19211
1067.61,1.306272,386598,19098
1071.29,1.316362,387377,18697
1074.96,1.325015,388536,18383
1078.63,1.301359,389855,19478
1082.3,1.317265,391215,18843
1085.96,1.311487,393215,19193
1090.84,1.319924,396270,18970
1094.49,1.320110,398760,19081
1098.14,1.320055,400987,19190
1101.79,1.308847,403477,19814
1105.43,1.313611,406116,19726
1109.06,1.313567,407701,19805
1112.7,1.316079,409859,19795
1117.53,1.316216,412494,19916
1121.15,1.326806,414909,19550
1124.77,1.316956,416559,20078
1128.38,1.313122,418532,20352
1131.99,1.323348,419956,19946
1135.6,1.322342,421946,20087
1139.2,1.318552,423881,20356
1143.99,1.320218,426786,20417
1147.58,1.321461,428617,20446
1151.17,1.316188,431169,20819
1154.75,1.313074,433579,21086
1158.33,1.314029,436264,21170
1161.91,1.320541,439132,20992
1165.48,1.318343,442389,21255
1169.04,1.311156,446101,21791
1173.79,1.316554,451929,21803
1177.34,1.312382,456026,22213
1180.9,1.321014,461306,22028
1184.44,1.315166,467657,22634
1187.99,1.314249,473969,22988
1191.52,1.319232,479856,23008
1195.06,1.315169,487372,23588
1199.76,1.324079,497347,23582
1203.29,1.320429,504311,24114
1206.81,1.333115,511507,23754
1210.33,1.318127,519078,24952
1213.84,1.316257,527163,25450
1217.35,1.326810,534208,25171
1220.85,1.324330,540472,25612
1225.51,1.318917,549929,26387
1229.01,1.320723,556888,26610
1232.5,1.330415,562180,26270
1235.98,1.322547,567975,27026
1239.46,1.319265,574815,27559
1242.94,1.322713,582782,27720
1246.41,1.325260,591476,27969
1251.03,1.324865,604016,28588
1254.5,1.325128,612289,28962
1257.96,1.327184,619125,29147
1261.41,1.331406,624551,29118
1264.86,1.320388,629900,30122
1268.31,1.328138,634345,29798
1271.75,1.326760,638574,30092
1276.33,1.327894,642499,30198
1279.76,1.328110,645905,30343
1283.19,1.329908,648307,30330
1286.61,1.333204,650446,30200
1290.03,1.326731,652132,30733
1293.44,1.333028,653907,30373
1296.85,1.328639,655963,30778
1301.39,1.330233,657349,30730
1304.8,1.330980,657558,30687
1308.19,1.324857,658515,31168
1311.58,1.330276,658804,30795
1314.97,1.331995,659011,30683
1318.36,1.333380,658272,30551
1321.73,1.334425,658022,30466
1326.23,1.331455,657870,30668
1329.6,1.335408,656482,30326
1332.97,1.329054,654926,30700
1336.33,1.327820,653727,30731
1339.69,1.334313,652497,30218
1343.04,1.331241,649913,30312
1346.39,1.334885,647671,29955
1349.73,1.333927,645338,29913
1354.18,1.332251,641175,29835
1357.52,1.331298,638376,29770
1360.85,1.329545,635805,29770
1364.17,1.329853,633413,29637
1367.49,1.322839,631026,30006
1370.81,1.328452,628050,29481
1374.12,1.333012,625034,29033
1378.54,1.330109,620272,29005
1381.84,1.323668,616892,29278
1385.14,1.330785,613613,28649
1388.43,1.328745,611526,28686
1391.72,1.330485,610663,28531
1395.01,1.329218,610634,28613
1398.29,1.326634,611700,28834
1402.66,1.331444,614051,28626
1405.93,1.327956,616268,28961
1409.2,1.329526,617795,28928
1412.46,1.330583,618872,28908
1415.72,1.332961,619795,28793
1418.98,1.329159,620495,29079
1422.23,1.336710,621087,28605
1426.56,1.336669,621375,28621
1429.8,1.331904,621616,28948
1433.04,1.334790,622129,28780
1436.27,1.335426,621526,28710
1439.5,1.338875,621113,28464
1442.72,1.339336,620921,28425
1445.94,1.337705,620270,28502
1450.23,1.331206,618860,28866
1453.44,1.338682,617697,28320
1456.64,1.336984,616264,28365
1459.85,1.333859,614413,28484
1463.04,1.333834,612307,28388
1466.24,1.336754,610032,28093
1469.43,1.338065,607345,27885
1473.67,1.339269,603789,27645
1476.85,1.334628,601175,27821
1480.02,1.336594,597737,27537
1483.19,1.327755,594479,27950
1486.36,1.340877,591232,26970
1489.52,1.339533,587853,26899
1492.68,1.339435,583875,26723
1496.89,1.339664,578062,26443
1500.03,1.338713,574159,26322
1503.18,1.336417,570285,26283
1506.32,1.337433,565444,25999
1509.45,1.339442,560571,25656
1512.58,1.343776,555821,25186
1515.71,1.332411,550344,25599
1519.87,1.341589,543983,24774
1522.99,1.336474,538764,24827
1526.1,1.345111,533692,24109
1529.21,1.345138,527902,23846
1532.32,1.339432,521886,23886
1535.42,1.339570,515888,23604
1538.51,1.336584,509987,23495
1541.6,1.337243,503936,23181
1545.72,1.326459,494694,23328
1548.8,1.346728,488378,21980
1551.88,1.336367,481832,22209
1554.95,1.334774,474989,21974
1558.02,1.328247,467818,21970
1561.08,1.333114,460730,21396
1564.15,1.331600,454170,21165
1568.22,1.342660,444181,20179
1571.27,1.332612,436947,20315
1574.32,1.334690,429598,19878
1577.36,1.331085,422039,19691
1580.4,1.335406,414375,19142
1583.43,1.334839,406354,18796
1586.46,1.332455,398475,18533
1590.49,1.329834,388982,18201
1593.51,1.336637,380708,17537
1596.53,1.327089,372727,17551
1599.54,1.327063,365060,17191
1602.55,1.326909,357543,16843
1605.55,1.321610,349495,16666
1608.55,1.324509,341154,16160
1612.54,1.323573,330877,15707
1615.53,1.327516,322904,15190
1618.51,1.334118,315116,14600
1621.49,1.333691,307217,14248
1624.47,1.326658,299481,14116
1627.44,1.312131,292112,14237
1630.41,1.323520,284245,13495
1634.36,1.308283,274079,13477
1637.32,1.328805,266916,12519
1640.27,1.329463,259612,12158
1643.22,1.312820,251804,12253
1646.16,1.306806,244348,12056
1649.1,1.326034,236703,11173
1652.04,1.322271,228171,10864
1655.95,1.315477,215408,10418
1658.88,1.302510,204937,10212
1661.8,1.307443,193395,9528
1664.72,1.312608,179728,8750
1667.63,1.305303,163642,8102
1670.54,1.308551,146312,7190
1673.44,1.340692,128451,5862
1677.31,1.270318,105080,5639
1680.21,1.271142,88906,4762
1683.1,1.327601,75033,3529
1685.99,1.286640,63520,3283
1688.87,1.251521,53714,3010
1691.75,1.289326,45653,2345
1694.62,1.226912,39137,2321
1697.49,1.266632,33776,1828
1701.31,1.197982,28175,1786