File: samples/unknown/Column 1_078082_20241121_164435.csv
Method:,Column 1,,
Host Date-Time:,21/11/24 @ 16:44:35,,
Header Version:,1,,
System Temp (C):,31.84,,
Detector Temp (C):,26.73,,
Humidity (%):,4.78,,
Lamp PD:,3808,,
Shift Vector Coefficients:,-10.5391,0.0761263,-0.000134223,,
Pixel to Wavelength Coefficients:,1775.68,-0.916766,-0.000235065,,
Serial Number:,5510004,,
Scan Config Name:,Column 1,,
Scan Config Type:,Slew,,
Section 1,,
Start wavelength (nm):,900,,
End wavelength (nm):,1700,,
Pattern Pixel Width (nm):,   7.03,,,,
Exposure (ms):,  0.635,,,,
Digital Resolution:,228,,
Num Repeats:,6,,
PGA Gain:,64,,
Total Measurement Time in sec:,  2.682,,
Wavelength (nm),Absorbance (AU),Reference Signal (unitless),Sample Signal (unitless)
901.51,1.313312,108485,5273
905.376,1.321654,121306,5784
909.237,1.335229,131909,6096
913.095,1.315197,143299,6935
916.948,1.329976,156982,7343
922.079,1.311725,179937,8778
925.923,1.305611,200504,9920
929.762,1.316962,222660,10732
933.597,1.318775,244426,11732
937.427,1.319605,263972,12646
941.254,1.310887,281845,13776
945.076,1.308919,297271,14596
950.165,1.306799,315605,15572
953.978,1.311684,328029,16004
957.786,1.308168,340470,16746
961.59,1.310472,352317,17237
965.389,1.308725,363056,17834
969.185,1.306466,373162,18426
972.976,1.309386,382632,18767
976.763,1.308399,391202,19231
981.806,1.314151,400190,19414
985.583,1.320505,406088,19414
989.355,1.303517,410162,20391
993.124,1.306415,412868,20389
996.888,1.314383,414263,20086
1000.65,1.312078,415476,20252
1004.4,1.309707,415479,20363
1009.41,1.312821,414358,20163
1013.15,1.309551,412923,20245
1016.89,1.317425,411526,19814
1020.63,1.309376,409066,20064
1024.36,1.324272,406777,19279
1028.09,1.309145,404427,19847
1031.82,1.317741,401911,19337
1036.78,1.310140,398410,19507
1040.49,1.308352,396204,19479
1044.2,1.302593,394236,19641
1047.91,1.313301,392042,19056
1051.61,1.307182,389823,19217
1055.31,1.305431,388234,19216
1059,1.312220,387599,18887
1063.92,1.321082,386688,18462
1067.61,1.317373,386598,18616
1071.29,1.315364,387377,18740
1074.96,1.310312,388536,19016
1078.63,1.319642,389855,18675
1082.3,1.324095,391215,18549
1085.96,1.315488,393215,19017
1090.84,1.320864,396270,18929
1094.49,1.322484,398760,18977
1098.14,1.310232,400987,19629
1101.79,1.320757,403477,19278
1105.43,1.323611,406116,19277
1109.06,1.309746,407701,19980
1112.7,1.319714,409859,19630
1117.53,1.321680,412494,19667
1121.15,1.322694,414909,19736
1124.77,1.315595,416559,20141
1128.38,1.324932,418532,19806
1131.99,1.322434,419956,19988
1135.6,1.323684,421946,20025
1139.2,1.317061,423881,20426
1143.99,1.325806,426786,20156
1147.58,1.325859,428617,20240
1151.17,1.324762,431169,20412
1154.75,1.316154,433579,20937
1158.33,1.319811,436264,20890
1161.91,1.322802,439132,20883
1165.48,1.318282,442389,21258
1169.04,1.317439,446101,21478
1173.79,1.320737,451929,21594
1177.34,1.315798,456026,22039
1180.9,1.321487,461306,22004
1184.44,1.314036,467657,22693
1187.99,1.318559,473969,22761
1191.52,1.316673,479856,23144
1195.06,1.318274,487372,23420
1199.76,1.325536,497347,23503
1203.29,1.322741,504311,23986
1206.81,1.326060,511507,24143
1210.33,1.329233,519078,24322
1213.84,1.328809,527163,24725
1217.35,1.324178,534208,25324
1220.85,1.319691,540472,25887
1225.51,1.317717,549929,26460
1229.01,1.329444,556888,26081
1232.5,1.323706,562180,26679
1235.98,1.324625,567975,26897
1239.46,1.330212,574815,26873
1242.94,1.326016,582782,27510
1246.41,1.334964,591476,27351
1251.03,1.331477,604016,28156
1254.5,1.325233,612289,28955
1257.96,1.329485,619125,28993
1261.41,1.327575,624551,29376
1264.86,1.325989,629900,29736
1268.31,1.331783,634345,29549
1271.75,1.331549,638574,29762
1276.33,1.329421,642499,30092
1279.76,1.331069,645905,30137
1283.19,1.332205,648307,30170
1286.61,1.331912,650446,30290
1290.03,1.332005,652132,30362
1293.44,1.331615,653907,30472
1296.85,1.331641,655963,30566
1301.39,1.337028,657349,30253
1304.8,1.327568,657558,30929
1308.19,1.334024,658515,30517
1311.58,1.333376,658804,30576
1314.97,1.331740,659011,30701
1318.36,1.334063,658272,30503
1321.73,1.335896,658022,30363
1326.23,1.332589,657870,30588
1329.6,1.335279,656482,30335
1332.97,1.332063,654926,30488
1336.33,1.338058,653727,30015
1339.69,1.332220,652497,30364
1343.04,1.338464,649913,29812
1346.39,1.329969,647671,30296
1349.73,1.333550,645338,29939
1354.18,1.330217,641175,29975
1357.52,1.335417,638376,29489
1360.85,1.327174,635805,29933
1364.17,1.334405,633413,29328
1367.49,1.333298,631026,29292
1370.81,1.330667,628050,29331
1374.12,1.334690,625034,28921
1378.54,1.332783,620272,28827
1381.84,1.327661,616892,29010
1385.14,1.330391,613613,28675
1388.43,1.326947,611526,28805
1391.72,1.322566,610663,29056
1395.01,1.334655,610634,28257
1398.29,1.333725,611700,28367
1402.66,1.332021,614051,28588
1405.93,1.329368,616268,28867
1409.2,1.328416,617795,29002
1412.46,1.330508,618872,28913
1415.72,1.337556,619795,28490
1418.98,1.334554,620495,28720
1422.23,1.333850,621087,28794
1426.56,1.340035,621375,28400
1429.8,1.333301,621616,28855
1433.04,1.332757,622129,28915
1436.27,1.337351,621526,28583
1439.5,1.338585,621113,28483
1442.72,1.331613,620921,28935
1445.94,1.335002,620270,28680
1450.23,1.335925,618860,28554
1453.44,1.337060,617697,28426
1456.64,1.332566,616264,28655
1459.85,1.336966,614413,28281
1463.04,1.341630,612307,27883
1466.24,1.340013,610032,27883
1469.43,1.337162,607345,27943
1473.67,1.341426,603789,27508
1476.85,1.336992,601175,27670
1480.02,1.337478,597737,27481
1483.19,1.343159,594479,26976
1486.36,1.341844,591232,26910
1489.52,1.334397,587853,27219
1492.68,1.337246,583875,26858
1496.89,1.342002,578062,26301
1500.03,1.339473,574159,26276
1503.18,1.336632,570285,26270
1506.32,1.345135,565444,25542
1509.45,1.340883,560571,25571
1512.58,1.343759,555821,25187
1515.71,1.335544,550344,25415
1519.87,1.339369,543983,24901
1522.99,1.336859,538764,24805
1526.1,1.335703,533692,24637
1529.21,1.341529,527902,24045
1532.32,1.337455,521886,23995
1535.42,1.337148,515888,23736
1538.51,1.345794,509987,23002
1541.6,1.343546,503936,22847
1545.72,1.338387,494694,22696
1548.8,1.336863,488378,22485
1551.88,1.336934,481832,22180
1554.95,1.336458,474989,21889
1558.02,1.337416,467818,21511
1561.08,1.343155,460730,20907
1564.15,1.336034,454170,20950
1568.22,1.325258,444181,21004
1571.27,1.332056,436947,20341
1574.32,1.338067,429598,19724
1577.36,1.330732,422039,19707
1580.4,1.329749,414375,19393
1583.43,1.329580,406354,19025
1586.46,1.334711,398475,18437
1590.49,1.332227,388982,18101
1593.51,1.337877,380708,17487
1596.53,1.335408,372727,17218
1599.54,1.337676,365060,16776
1602.55,1.333089,357543,16605
1605.55,1.332828,349495,16241
1608.55,1.320790,341154,16299
1612.54,1.324736,330877,15665
1615.53,1.334723,322904,14940
1618.51,1.329649,315116,14751
1621.49,1.326377,307217,14490
1624.47,1.336459,299481,13801
1627.44,1.330003,292112,13663
1630.41,1.321433,284245,13560
1634.36,1.329209,274079,12843
1637.32,1.333233,266916,12392
1640.27,1.325516,259612,12269
1643.22,1.320040,251804,12051
1646.16,1.320009,244348,11695
1649.1,1.318176,236703,11377
1652.04,1.312664,228171,11107
1655.95,1.307915,215408,10601
1658.88,1.311403,204937,10005
1661.8,1.335497,193395,8932
1664.72,1.307623,179728,8851
1667.63,1.311294,163642,7991
1670.54,1.351099,146312,6519
1673.44,1.341656,128451,5849
1677.31,1.320816,105080,5020
1680.21,1.321770,88906,4238
1683.1,1.381376,75033,3118
1685.99,1.305843,63520,3141
1688.87,1.295199,53714,2722
1691.75,1.361709,45653,1985
1694.62,1.230860,39137,2300
1697.49,1.245081,33776,1921
1701.31,1.349838,28175,1259