File: samples/unknown/Column 1_078033_20241121_164212.csv
Method:,Column 1,,
Host Date-Time:,21/11/24 @ 16:42:12,,
Header Version:,1,,
System Temp (C):,30.25,,
Detector Temp (C):,25.12,,
Humidity (%):,6.04,,
Lamp PD:,3812,,
Shift Vector Coefficients:,-10.5391,0.0761263,-0.000134223,,
Pixel to Wavelength Coefficients:,1775.68,-0.916766,-0.000235065,,
Serial Number:,5510004,,
Scan Config Name:,Column 1,,
Scan Config Type:,Slew,,
Section 1,,
Start wavelength (nm):,900,,
End wavelength (nm):,1700,,
Pattern Pixel Width (nm):,   7.03,,,,
Exposure (ms):,  0.635,,,,
Digital Resolution:,228,,
Num Repeats:,6,,
PGA Gain:,64,,
Total Measurement Time in sec:,  2.707,,
Wavelength (nm),Absorbance (AU),Reference Signal (unitless),Sample Signal (unitless)
901.51,1.303620,108485,5392
905.376,1.286338,121306,6274
909.237,1.319077,131909,6327
913.095,1.293933,143299,7283
916.948,1.300262,156982,7863
922.079,1.307197,179937,8870
925.923,1.307718,200504,9872
929.762,1.298851,222660,11189
933.597,1.316449,244426,11795
937.427,1.323468,263972,12534
941.254,1.306621,281845,13912
945.076,1.308859,297271,14598
950.165,1.312640,315605,15364
953.978,1.304952,328029,16254
957.786,1.305840,340470,16836
961.59,1.305885,352317,17420
965.389,1.306369,363056,17931
969.185,1.306231,373162,18436
972.976,1.306618,382632,18887
976.763,1.300721,391202,19574
981.806,1.308219,400190,19681
985.583,1.304927,406088,20123
989.355,1.309630,410162,20106
993.124,1.311622,412868,20146
996.888,1.309973,414263,20291
1000.65,1.307916,415476,20447
1004.4,1.313843,415479,20170
1009.41,1.313014,414358,20154
1013.15,1.312781,412923,20095
1016.89,1.304129,411526,20430
1020.63,1.305025,409066,20266
1024.36,1.305383,406777,20136
1028.09,1.311801,404427,19726
1031.82,1.306479,401911,19845
1036.78,1.317391,398410,19184
1040.49,1.304247,396204,19664
1044.2,1.298718,394236,19817
1047.91,1.307281,392042,19322
1051.61,1.311474,389823,19028
1055.31,1.307992,388234,19103
1059,1.305014,387599,19203
1063.92,1.314290,386688,18753
1067.61,1.310752,386598,18902
1071.29,1.313330,387377,18828
1074.96,1.307762,388536,19128
1078.63,1.306134,389855,19265
1082.3,1.317242,391215,18844
1085.96,1.305398,393215,19464
1090.84,1.317072,396270,19095
1094.49,1.305607,398760,19729
1098.14,1.320123,400987,19187
1101.79,1.312412,403477,19652
1105.43,1.316926,406116,19576
1109.06,1.319929,407701,19517
1112.7,1.311496,409859,20005
1117.53,1.312697,412494,20078
1121.15,1.311936,414909,20231
1124.77,1.324285,416559,19742
1128.38,1.314297,418532,20297
1131.99,1.324394,419956,19898
1135.6,1.322753,421946,20068
1139.2,1.322990,423881,20149
1143.99,1.320303,426786,20413
1147.58,1.318708,428617,20576
1151.17,1.316751,431169,20792
1154.75,1.321455,433579,20683
1158.33,1.321102,436264,20828
1161.91,1.320521,439132,20993
1165.48,1.318650,442389,21240
1169.04,1.313394,446101,21679
1173.79,1.318230,451929,21719
1177.34,1.322810,456026,21686
1180.9,1.317988,461306,22182
1184.44,1.318498,467657,22461
1187.99,1.317663,473969,22808
1191.52,1.326024,479856,22651
1195.06,1.308464,487372,23955
1199.76,1.322755,497347,23654
1203.29,1.320681,504311,24100
1206.81,1.315698,511507,24726
1210.33,1.315853,519078,25083
1213.84,1.321269,527163,25158
1217.35,1.333802,534208,24769
1220.85,1.323703,540472,25649
1225.51,1.326236,549929,25946
1229.01,1.323851,556888,26419
1232.5,1.312966,562180,27347
1235.98,1.325579,567975,26838
1239.46,1.318383,574815,27615
1242.94,1.319824,582782,27905
1246.41,1.323788,591476,28064
1251.03,1.322667,604016,28733
1254.5,1.326269,612289,28886
1257.96,1.323904,619125,29368
1261.41,1.331302,624551,29125
1264.86,1.328391,629900,29572
1268.31,1.321370,634345,30266
1271.75,1.326558,638574,30106
1276.33,1.331679,642499,29936
1279.76,1.322168,645905,30761
1283.19,1.332061,648307,30180
1286.61,1.327504,650446,30599
1290.03,1.327353,652132,30689
1293.44,1.332357,653907,30420
1296.85,1.322989,655963,31181
1301.39,1.332572,657349,30565
1304.8,1.332582,657558,30574
1308.19,1.332631,658515,30615
1311.58,1.323489,658804,31280
1314.97,1.335519,659011,30435
1318.36,1.329559,658272,30821
1321.73,1.333300,658022,30545
1326.23,1.327774,657870,30929
1329.6,1.329067,656482,30772
1332.97,1.332562,654926,30453
1336.33,1.331795,653727,30451
1339.69,1.331148,652497,30439
1343.04,1.327432,649913,30579
1346.39,1.332010,647671,30154
1349.73,1.332695,645338,29998
1354.18,1.330638,641175,29946
1357.52,1.329071,638376,29923
1360.85,1.325378,635805,30057
1364.17,1.326888,633413,29840
1367.49,1.329181,631026,29571
1370.81,1.335896,628050,28980
1374.12,1.330744,625034,29185
1378.54,1.333582,620272,28774
1381.84,1.325705,616892,29141
1385.14,1.326456,613613,28936
1388.43,1.326359,611526,28844
1391.72,1.326093,610663,28821
1395.01,1.332554,610634,28394
1398.29,1.326408,611700,28849
1402.66,1.334153,614051,28448
1405.93,1.323599,616268,29253
1409.2,1.332146,617795,28754
1412.46,1.327081,618872,29142
1415.72,1.320839,619795,29608
1418.98,1.328696,620495,29110
1422.23,1.327472,621087,29220
1426.56,1.334746,621375,28748
1429.8,1.331364,621616,28984
1433.04,1.332817,622129,28911
1436.27,1.332456,621526,28907
1439.5,1.332528,621113,28883
1442.72,1.326436,620921,29282
1445.94,1.329853,620270,29022
1450.23,1.335819,618860,28561
1453.44,1.335306,617697,28541
1456.64,1.335227,616264,28480
1459.85,1.335387,614413,28384
1463.04,1.325681,612307,28926
1466.24,1.329564,610032,28562
1469.43,1.337925,607345,27894
1473.67,1.330636,603789,28200
1476.85,1.333303,601175,27906
1480.02,1.333216,597737,27752
1483.19,1.333952,594479,27554
1486.36,1.331195,591232,27578
1489.52,1.338339,587853,26973
1492.68,1.332982,583875,27123
1496.89,1.337648,578062,26566
1500.03,1.331124,574159,26786
1503.18,1.357822,570285,25019
1506.32,1.336165,565444,26075
1509.45,1.338005,560571,25741
1512.58,1.336967,555821,25584
1515.71,1.340701,550344,25115
1519.87,1.335808,543983,25106
1522.99,1.342445,538764,24488
1526.1,1.332366,533692,24827
1529.21,1.338451,527902,24216
1532.32,1.331148,521886,24346
1535.42,1.332543,515888,23989
1538.51,1.335605,509987,23548
1541.6,1.337468,503936,23169
1545.72,1.338273,494694,22702
1548.8,1.339906,488378,22328
1551.88,1.336719,481832,22191
1554.95,1.331486,474989,22141
1558.02,1.333357,467818,21713
1561.08,1.337787,460730,21167
1564.15,1.334648,454170,21017
1568.22,1.336400,444181,20472
1571.27,1.330224,436947,20427
1574.32,1.339722,429598,19649
1577.36,1.331548,422039,19670
1580.4,1.332647,414375,19264
1583.43,1.332489,406354,18898
1586.46,1.334287,398475,18455
1590.49,1.330814,388982,18160
1593.51,1.328759,380708,17858
1596.53,1.331241,372727,17384
1599.54,1.330563,365060,17053
1602.55,1.331262,357543,16675
1605.55,1.329870,349495,16352
1608.55,1.339687,341154,15605
1612.54,1.316389,330877,15969
1615.53,1.316701,322904,15573
1618.51,1.315485,315116,15240
1621.49,1.324135,307217,14565
1624.47,1.317494,299481,14417
1627.44,1.322191,292112,13911
1630.41,1.319229,284245,13629
1634.36,1.313469,274079,13317
1637.32,1.337424,266916,12273
1640.27,1.332150,259612,12083
1643.22,1.317273,251804,12128
1646.16,1.302183,244348,12185
1649.1,1.305944,236703,11702
1652.04,1.305720,228171,11286
1655.95,1.306933,215408,10625
1658.88,1.311273,204937,10008
1661.8,1.314937,193395,9365
1664.72,1.309936,179728,8804
1667.63,1.317975,163642,7869
1670.54,1.355586,146312,6452
1673.44,1.333127,128451,5965
1677.31,1.326038,105080,4960
1680.21,1.257231,88906,4917
1683.1,1.267261,75033,4055
1685.99,1.343820,63520,2878
1688.87,1.195173,53714,3427
1691.75,1.393944,45653,1843
1694.62,1.259140,39137,2155
1697.49,1.198601,33776,2138
1701.31,1.379087,28175,1177