File: samples/unknown/Column 1_078026_20241121_164151.csv
Method:,Column 1,,
Host Date-Time:,21/11/24 @ 16:41:51,,
Header Version:,1,,
System Temp (C):,29.95,,
Detector Temp (C):,25.05,,
Humidity (%):,6.67,,
Lamp PD:,3812,,
Shift Vector Coefficients:,-10.5391,0.0761263,-0.000134223,,
Pixel to Wavelength Coefficients:,1775.68,-0.916766,-0.000235065,,
Serial Number:,5510004,,
Scan Config Name:,Column 1,,
Scan Config Type:,Slew,,
Section 1,,
Start wavelength (nm):,900,,
End wavelength (nm):,1700,,
Pattern Pixel Width (nm):,   7.03,,,,
Exposure (ms):,  0.635,,,,
Digital Resolution:,228,,
Num Repeats:,6,,
PGA Gain:,64,,
Total Measurement Time in sec:,  2.703,,
Wavelength (nm),Absorbance (AU),Reference Signal (unitless),Sample Signal (unitless)
901.51,1.300330,108485,5433
905.376,1.300551,121306,6072
909.237,1.318048,131909,6342
913.095,1.323351,143299,6806
916.948,1.297673,156982,7910
922.079,1.320572,179937,8601
925.923,1.317731,200504,9647
929.762,1.294487,222660,11302
933.597,1.313039,244426,11888
937.427,1.313264,263972,12832
941.254,1.320192,281845,13484
945.076,1.315031,297271,14392
950.165,1.302470,315605,15728
953.978,1.309221,328029,16095
957.786,1.318561,340470,16350
961.59,1.311734,352317,17187
965.389,1.321601,363056,17313
969.185,1.310302,373162,18264
972.976,1.302453,382632,19069
976.763,1.306102,391202,19333
981.806,1.315316,400190,19362
985.583,1.307786,406088,19991
989.355,1.305631,410162,20292
993.124,1.315759,412868,19955
996.888,1.309759,414263,20301
1000.65,1.319366,415476,19915
1004.4,1.320964,415479,19842
1009.41,1.304036,414358,20575
1013.15,1.316449,412923,19926
1016.89,1.309691,411526,20170
1020.63,1.314865,409066,19812
1024.36,1.310067,406777,19920
1028.09,1.314429,404427,19607
1031.82,1.316978,401911,19371
1036.78,1.305732,398410,19706
1040.49,1.312992,396204,19272
1044.2,1.306368,394236,19471
1047.91,1.312504,392042,19091
1051.61,1.317380,389823,18771
1055.31,1.312701,388234,18897
1059,1.307782,387599,19081
1063.92,1.322732,386688,18392
1067.61,1.312848,386598,18811
1071.29,1.313930,387377,18802
1074.96,1.304550,388536,19270
1078.63,1.324295,389855,18476
1082.3,1.318188,391215,18803
1085.96,1.318260,393215,18896
1090.84,1.323602,396270,18810
1094.49,1.324181,398760,18903
1098.14,1.325384,400987,18956
1101.79,1.321614,403477,19240
1105.43,1.326436,406116,19152
1109.06,1.313720,407701,19798
1112.7,1.314590,409859,19863
1117.53,1.314453,412494,19997
1121.15,1.316294,414909,20029
1124.77,1.319603,416559,19956
1128.38,1.316872,418532,20177
1131.99,1.318886,419956,20152
1135.6,1.312931,421946,20527
1139.2,1.324048,423881,20100
1143.99,1.323528,426786,20262
1147.58,1.318118,428617,20604
1151.17,1.317357,431169,20763
1154.75,1.320197,433579,20743
1158.33,1.325229,436264,20631
1161.91,1.316956,439132,21166
1165.48,1.320268,442389,21161
1169.04,1.311954,446101,21751
1173.79,1.319472,451929,21657
1177.34,1.320115,456026,21821
1180.9,1.322475,461306,21954
1184.44,1.318112,467657,22481
1187.99,1.316712,473969,22858
1191.52,1.312843,479856,23349
1195.06,1.322728,487372,23181
1199.76,1.326091,497347,23473
1203.29,1.322071,504311,24023
1206.81,1.323943,511507,24261
1210.33,1.326102,519078,24498
1213.84,1.327406,527163,24805
1217.35,1.328071,534208,25098
1220.85,1.330030,540472,25278
1225.51,1.319839,549929,26331
1229.01,1.322866,556888,26479
1232.5,1.328420,562180,26391
1235.98,1.322982,567975,26999
1239.46,1.322634,574815,27346
1242.94,1.323387,582782,27677
1246.41,1.322582,591476,28142
1251.03,1.323787,604016,28659
1254.5,1.330196,612289,28626
1257.96,1.327811,619125,29105
1261.41,1.330512,624551,29178
1264.86,1.328406,629900,29571
1268.31,1.326349,634345,29921
1271.75,1.329134,638574,29928
1276.33,1.324970,642499,30402
1279.76,1.328740,645905,30299
1283.19,1.333431,648307,30085
1286.61,1.330438,650446,30393
1290.03,1.338781,652132,29892
1293.44,1.331088,653907,30509
1296.85,1.330208,655963,30667
1301.39,1.337530,657349,30218
1304.8,1.330527,657558,30719
1308.19,1.332858,658515,30599
1311.58,1.335840,658804,30403
1314.97,1.334507,659011,30506
1318.36,1.339940,658272,30093
1321.73,1.337314,658022,30264
1326.23,1.335124,657870,30410
1329.6,1.330325,656482,30683
1332.97,1.336185,654926,30200
1336.33,1.334040,653727,30294
1339.69,1.330393,652497,30492
1343.04,1.334245,649913,30103
1346.39,1.333207,647671,30071
1349.73,1.332102,645338,30039
1354.18,1.330507,641175,29955
1357.52,1.326553,638376,30097
1360.85,1.326768,635805,29961
1364.17,1.334049,633413,29352
1367.49,1.331715,631026,29399
1370.81,1.333028,628050,29172
1374.12,1.329481,625034,29270
1378.54,1.331129,620272,28937
1381.84,1.329823,616892,28866
1385.14,1.320079,613613,29364
1388.43,1.333938,611526,28345
1391.72,1.331887,610663,28439
1395.01,1.330129,610634,28553
1398.29,1.332121,611700,28472
1402.66,1.333238,614051,28508
1405.93,1.330890,616268,28766
1409.2,1.331256,617795,28813
1412.46,1.332284,618872,28795
1415.72,1.330240,619795,28974
1418.98,1.331886,620495,28897
1422.23,1.333896,621087,28791
1426.56,1.339088,621375,28462
1429.8,1.338357,621616,28521
1433.04,1.340363,622129,28413
1436.27,1.338021,621526,28539
1439.5,1.336713,621113,28606
1442.72,1.339764,620921,28397
1445.94,1.337462,620270,28518
1450.23,1.337205,618860,28470
1453.44,1.336373,617697,28471
1456.64,1.333583,616264,28588
1459.85,1.334760,614413,28425
1463.04,1.334983,612307,28313
1466.24,1.338412,610032,27986
1469.43,1.332094,607345,28271
1473.67,1.335717,603789,27872
1476.85,1.341472,601175,27386
1480.02,1.335790,597737,27588
1483.19,1.339408,594479,27210
1486.36,1.339173,591232,27076
1489.52,1.346416,587853,26476
1492.68,1.335214,583875,26984
1496.89,1.344470,578062,26152
1500.03,1.340515,574159,26213
1503.18,1.337824,570285,26198
1506.32,1.347231,565444,25419
1509.45,1.339594,560571,25647
1512.58,1.336882,555821,25589
1515.71,1.341567,550344,25065
1519.87,1.337437,543983,25012
1522.99,1.345221,538764,24332
1526.1,1.339261,533692,24436
1529.21,1.333813,527902,24476
1532.32,1.340616,521886,23821
1535.42,1.337203,515888,23733
1538.51,1.335163,509987,23572
1541.6,1.336476,503936,23222
1545.72,1.342869,494694,22463
1548.8,1.336053,488378,22527
1551.88,1.339074,481832,22071
1554.95,1.333748,474989,22026
1558.02,1.332139,467818,21774
1561.08,1.344861,460730,20825
1564.15,1.335103,454170,20995
1568.22,1.338334,444181,20381
1571.27,1.332035,436947,20342
1574.32,1.342249,429598,19535
1577.36,1.338223,422039,19370
1580.4,1.340748,414375,18908
1583.43,1.339672,406354,18588
1586.46,1.324905,398475,18858
1590.49,1.338267,388982,17851
1593.51,1.334290,380708,17632
1596.53,1.328899,372727,17478
1599.54,1.327493,365060,17174
1602.55,1.337374,357543,16442
1605.55,1.334570,349495,16176
1608.55,1.328342,341154,16018
1612.54,1.331470,330877,15424
1615.53,1.334142,322904,14960
1618.51,1.330091,315116,14736
1621.49,1.333417,307217,14257
1624.47,1.330055,299481,14006
1627.44,1.325513,292112,13805
1630.41,1.319994,284245,13605
1634.36,1.313241,274079,13324
1637.32,1.314407,266916,12941
1640.27,1.323961,259612,12313
1643.22,1.323223,251804,11963
1646.16,1.328180,244348,11477
1649.1,1.328490,236703,11110
1652.04,1.318212,228171,10966
1655.95,1.340576,215408,9833
1658.88,1.315109,204937,9920
1661.8,1.316983,193395,9321
1664.72,1.331475,179728,8378
1667.63,1.322023,163642,7796
1670.54,1.381448,146312,6079
1673.44,1.336563,128451,5918
1677.31,1.301113,105080,5253
1680.21,1.399683,88906,3542
1683.1,1.328586,75033,3521
1685.99,1.359178,63520,2778
1688.87,1.358281,53714,2354
1691.75,1.404921,45653,1797
1694.62,1.346089,39137,1764
1697.49,1.434836,33776,1241
1701.31,1.272327,28175,1505