File: samples/unknown/Column 1_078095_20241121_164513.csv
Method:,Column 1,,
Host Date-Time:,21/11/24 @ 16:45:13,,
Header Version:,1,,
System Temp (C):,32.19,,
Detector Temp (C):,27.21,,
Humidity (%):,4.3,,
Lamp PD:,3807,,
Shift Vector Coefficients:,-10.5391,0.0761263,-0.000134223,,
Pixel to Wavelength Coefficients:,1775.68,-0.916766,-0.000235065,,
Serial Number:,5510004,,
Scan Config Name:,Column 1,,
Scan Config Type:,Slew,,
Section 1,,
Start wavelength (nm):,900,,
End wavelength (nm):,1700,,
Pattern Pixel Width (nm):,   7.03,,,,
Exposure (ms):,  0.635,,,,
Digital Resolution:,228,,
Num Repeats:,6,,
PGA Gain:,64,,
Total Measurement Time in sec:,  2.721,,
Wavelength (nm),Absorbance (AU),Reference Signal (unitless),Sample Signal (unitless)
901.51,1.311176,108485,5299
905.376,1.331757,121306,5651
909.237,1.335586,131909,6091
913.095,1.329197,143299,6715
916.948,1.317615,156982,7555
922.079,1.312666,179937,8759
925.923,1.302558,200504,9990
929.762,1.318949,222660,10683
933.597,1.314979,244426,11835
937.427,1.322534,263972,12561
941.254,1.315929,281845,13617
945.076,1.313195,297271,14453
950.165,1.313828,315605,15322
953.978,1.313097,328029,15952
957.786,1.309753,340470,16685
961.59,1.307935,352317,17338
965.389,1.304219,363056,18020
969.185,1.313140,373162,18145
972.976,1.304165,382632,18994
976.763,1.303593,391202,19445
981.806,1.306787,400190,19746
985.583,1.309309,406088,19921
989.355,1.308422,410162,20162
993.124,1.312788,412868,20092
996.888,1.309181,414263,20328
1000.65,1.305101,415476,20580
1004.4,1.308578,415479,20416
1009.41,1.317302,414358,19956
1013.15,1.316493,412923,19924
1016.89,1.306752,411526,20307
1020.63,1.306700,409066,20188
1024.36,1.318298,406777,19546
1028.09,1.309956,404427,19810
1031.82,1.317269,401911,19358
1036.78,1.315742,398410,19257
1040.49,1.308330,396204,19480
1044.2,1.309053,394236,19351
1047.91,1.316434,392042,18919
1051.61,1.310813,389823,19057
1055.31,1.312977,388234,18885
1059,1.314063,387599,18807
1063.92,1.308196,386688,19018
1067.61,1.305772,386598,19120
1071.29,1.317944,387377,18629
1074.96,1.320549,388536,18573
1078.63,1.319991,389855,18660
1082.3,1.323861,391215,18559
1085.96,1.321860,393215,18740
1090.84,1.314622,396270,19203
1094.49,1.319951,398760,19088
1098.14,1.313631,400987,19476
1101.79,1.323174,403477,19171
1105.43,1.320334,406116,19423
1109.06,1.314951,407701,19742
1112.7,1.317243,409859,19742
1117.53,1.324782,412494,19527
1121.15,1.321485,414909,19791
1124.77,1.321807,416559,19855
1128.38,1.325766,418532,19768
1131.99,1.318713,419956,20160
1135.6,1.314160,421946,20469
1139.2,1.321678,423881,20210
1143.99,1.320985,426786,20381
1147.58,1.318329,428617,20594
1151.17,1.323148,431169,20488
1154.75,1.321581,433579,20677
1158.33,1.320456,436264,20859
1161.91,1.318786,439132,21077
1165.48,1.319571,442389,21195
1169.04,1.318695,446101,21416
1173.79,1.321039,451929,21579
1177.34,1.319081,456026,21873
1180.9,1.323843,461306,21885
1184.44,1.321700,467657,22296
1187.99,1.326492,473969,22349
1191.52,1.318685,479856,23037
1195.06,1.327267,487372,22940
1199.76,1.318771,497347,23872
1203.29,1.323465,504311,23946
1206.81,1.321960,511507,24372
1210.33,1.328787,519078,24347
1213.84,1.329494,527163,24686
1217.35,1.330675,534208,24948
1220.85,1.328025,540472,25395
1225.51,1.324449,549929,26053
1229.01,1.320462,556888,26626
1232.5,1.322081,562180,26779
1235.98,1.326000,567975,26812
1239.46,1.326367,574815,27112
1242.94,1.326948,582782,27451
1246.41,1.320996,591476,28245
1251.03,1.322048,604016,28774
1254.5,1.325248,612289,28954
1257.96,1.329545,619125,28989
1261.41,1.331839,624551,29089
1264.86,1.330658,629900,29418
1268.31,1.327163,634345,29865
1271.75,1.328423,638574,29977
1276.33,1.330115,642499,30044
1279.76,1.329185,645905,30268
1283.19,1.335311,648307,29955
1286.61,1.329524,650446,30457
1290.03,1.330563,652132,30463
1293.44,1.326824,653907,30810
1296.85,1.329416,655963,30723
1301.39,1.329796,657349,30761
1304.8,1.334447,657558,30443
1308.19,1.335150,658515,30438
1311.58,1.333560,658804,30563
1314.97,1.328134,659011,30957
1318.36,1.335061,658272,30433
1321.73,1.335153,658022,30415
1326.23,1.334410,657870,30460
1329.6,1.334578,656482,30384
1332.97,1.334993,654926,30283
1336.33,1.332480,653727,30403
1339.69,1.328758,652497,30607
1343.04,1.331040,649913,30326
1346.39,1.330213,647671,30279
1349.73,1.329335,645338,30231
1354.18,1.330971,641175,29923
1357.52,1.330583,638376,29819
1360.85,1.331021,635805,29669
1364.17,1.328288,633413,29744
1367.49,1.328726,631026,29602
1370.81,1.328673,628050,29466
1374.12,1.330863,625034,29177
1378.54,1.329960,620272,29015
1381.84,1.334010,616892,28589
1385.14,1.328608,613613,28793
1388.43,1.330322,611526,28582
1391.72,1.331277,610663,28479
1395.01,1.332157,610634,28420
1398.29,1.329247,611700,28661
1402.66,1.332811,614051,28536
1405.93,1.333768,616268,28576
1409.2,1.333826,617795,28643
1412.46,1.332570,618872,28776
1415.72,1.332584,619795,28818
1418.98,1.334070,620495,28752
1422.23,1.337714,621087,28539
1426.56,1.339302,621375,28448
1429.8,1.337840,621616,28555
1433.04,1.325459,622129,29405
1436.27,1.336259,621526,28655
1439.5,1.333085,621113,28846
1442.72,1.334293,620921,28757
1445.94,1.333038,620270,28810
1450.23,1.338672,618860,28374
1453.44,1.341544,617697,28134
1456.64,1.339872,616264,28177
1459.85,1.340280,614413,28066
1463.04,1.332917,612307,28448
1466.24,1.339795,610032,27897
1469.43,1.337971,607345,27891
1473.67,1.336263,603789,27837
1476.85,1.330279,601175,28101
1480.02,1.336799,597737,27524
1483.19,1.336307,594479,27405
1486.36,1.344515,591232,26745
1489.52,1.338018,587853,26993
1492.68,1.342468,583875,26537
1496.89,1.342944,578062,26244
1500.03,1.331270,574159,26777
1503.18,1.340701,570285,26025
1506.32,1.343031,565444,25666
1509.45,1.338545,560571,25709
1512.58,1.336678,555821,25601
1515.71,1.343233,550344,24969
1519.87,1.339630,543983,24886
1522.99,1.338297,538764,24723
1526.1,1.338497,533692,24479
1529.21,1.342306,527902,24002
1532.32,1.341620,521886,23766
1535.42,1.335705,515888,23815
1538.51,1.341080,509987,23253
1541.6,1.337581,503936,23163
1545.72,1.338598,494694,22685
1548.8,1.336728,488378,22492
1551.88,1.340591,481832,21994
1554.95,1.337491,474989,21837
1558.02,1.339582,467818,21404
1561.08,1.333906,460730,21357
1564.15,1.339573,454170,20780
1568.22,1.335171,444181,20530
1571.27,1.334154,436947,20243
1574.32,1.338265,429598,19715
1577.36,1.328885,422039,19791
1580.4,1.341277,414375,18885
1583.43,1.342391,406354,18472
1586.46,1.329071,398475,18678
1590.49,1.334102,388982,18023
1593.51,1.329611,380708,17823
1596.53,1.338522,372727,17095
1599.54,1.326356,365060,17219
1602.55,1.322879,357543,17000
1605.55,1.343110,349495,15861
1608.55,1.323409,341154,16201
1612.54,1.334153,330877,15329
1615.53,1.324723,322904,15288
1618.51,1.329649,315116,14751
1621.49,1.330382,307217,14357
1624.47,1.327397,299481,14092
1627.44,1.341078,292112,13319
1630.41,1.319739,284245,13613
1634.36,1.313013,274079,13331
1637.32,1.337530,266916,12270
1640.27,1.322236,259612,12362
1643.22,1.317023,251804,12135
1646.16,1.324000,244348,11588
1649.1,1.316044,236703,11433
1652.04,1.323552,228171,10832
1655.95,1.313647,215408,10462
1658.88,1.317611,204937,9863
1661.8,1.312302,193395,9422
1664.72,1.320926,179728,8584
1667.63,1.317203,163642,7883
1670.54,1.313594,146312,7107
1673.44,1.311193,128451,6274
1677.31,1.305266,105080,5203
1680.21,1.308947,88906,4365
1683.1,1.303078,75033,3734
1685.99,1.233771,63520,3708
1688.87,1.258796,53714,2960
1691.75,1.372340,45653,1937
1694.62,1.297240,39137,1974
1697.49,1.329127,33776,1583
1701.31,1.281072,28175,1475