File: samples/unknown/Column 1_078066_20241121_164348.csv
Method:,Column 1,,
Host Date-Time:,21/11/24 @ 16:43:48,,
Header Version:,1,,
System Temp (C):,31.41,,
Detector Temp (C):,26.15,,
Humidity (%):,5.27,,
Lamp PD:,3809,,
Shift Vector Coefficients:,-10.5391,0.0761263,-0.000134223,,
Pixel to Wavelength Coefficients:,1775.68,-0.916766,-0.000235065,,
Serial Number:,5510004,,
Scan Config Name:,Column 1,,
Scan Config Type:,Slew,,
Section 1,,
Start wavelength (nm):,900,,
End wavelength (nm):,1700,,
Pattern Pixel Width (nm):,   7.03,,,,
Exposure (ms):,  0.635,,,,
Digital Resolution:,228,,
Num Repeats:,6,,
PGA Gain:,64,,
Total Measurement Time in sec:,  2.708,,
Wavelength (nm),Absorbance (AU),Reference Signal (unitless),Sample Signal (unitless)
901.51,1.319283,108485,5201
905.376,1.310023,121306,5941
909.237,1.283065,131909,6874
913.095,1.312637,143299,6976
916.948,1.320847,156982,7499
922.079,1.312666,179937,8759
925.923,1.314859,200504,9711
929.762,1.307040,222660,10980
933.597,1.305218,244426,12104
937.427,1.313941,263972,12812
941.254,1.327663,281845,13254
945.076,1.304449,297271,14747
950.165,1.320282,315605,15096
953.978,1.311412,328029,16014
957.786,1.315755,340470,16456
961.59,1.300189,352317,17650
965.389,1.314782,363056,17587
969.185,1.302641,373162,18589
972.976,1.310638,382632,18713
976.763,1.308444,391202,19229
981.806,1.303850,400190,19880
985.583,1.303032,406088,20211
989.355,1.313666,410162,19920
993.124,1.307140,412868,20355
996.888,1.304147,414263,20565
1000.65,1.309662,415476,20365
1004.4,1.314727,415479,20129
1009.41,1.304458,414358,20555
1013.15,1.307390,412923,20346
1016.89,1.317842,411526,19795
1020.63,1.307303,409066,20160
1024.36,1.298748,406777,20446
1028.09,1.306201,404427,19982
1031.82,1.303991,401911,19959
1036.78,1.312372,398410,19407
1040.49,1.307884,396204,19500
1044.2,1.306859,394236,19449
1047.91,1.313460,392042,19049
1051.61,1.317913,389823,18748
1055.31,1.314913,388234,18801
1059,1.310682,387599,18954
1063.92,1.312142,386688,18846
1067.61,1.307410,386598,19048
1071.29,1.310044,387377,18971
1074.96,1.315204,388536,18803
1078.63,1.309983,389855,19095
1082.3,1.312726,391215,19041
1085.96,1.319065,393215,18861
1090.84,1.319375,396270,18994
1094.49,1.311435,398760,19466
1098.14,1.313653,400987,19475
1101.79,1.309549,403477,19782
1105.43,1.318905,406116,19487
1109.06,1.309964,407701,19970
1112.7,1.317926,409859,19711
1117.53,1.313455,412494,20043
1121.15,1.321003,414909,19813
1124.77,1.316589,416559,20095
1128.38,1.320959,418532,19988
1131.99,1.324329,419956,19901
1135.6,1.322839,421946,20064
1139.2,1.321291,423881,20228
1143.99,1.317103,426786,20564
1147.58,1.321227,428617,20457
1151.17,1.319685,431169,20652
1154.75,1.323433,433579,20589
1158.33,1.322501,436264,20761
1161.91,1.318745,439132,21079
1165.48,1.317302,442389,21306
1169.04,1.319324,446101,21385
1173.79,1.321522,451929,21555
1177.34,1.316330,456026,22012
1180.9,1.315159,461306,22327
1184.44,1.320553,467657,22355
1187.99,1.313758,473969,23014
1191.52,1.323767,479856,22769
1195.06,1.319853,487372,23335
1199.76,1.322994,497347,23641
1203.29,1.317700,504311,24266
1206.81,1.325647,511507,24166
1210.33,1.321763,519078,24744
1213.84,1.322895,527163,25064
1217.35,1.327328,534208,25141
1220.85,1.324092,540472,25626
1225.51,1.326320,549929,25941
1229.01,1.328263,556888,26152
1232.5,1.319027,562180,26968
1235.98,1.318867,567975,27256
1239.46,1.331312,574815,26805
1242.94,1.317465,582782,28057
1246.41,1.320350,591476,28287
1251.03,1.326021,604016,28512
1254.5,1.328575,612289,28733
1257.96,1.327423,619125,29131
1261.41,1.323411,624551,29659
1264.86,1.327936,629900,29603
1268.31,1.328124,634345,29799
1271.75,1.333714,638574,29614
1276.33,1.331940,642499,29918
1279.76,1.327467,645905,30388
1283.19,1.323625,648307,30772
1286.61,1.326781,650446,30650
1290.03,1.334444,652132,30192
1293.44,1.329539,653907,30618
1296.85,1.331570,655963,30571
1301.39,1.328682,657349,30840
1304.8,1.334390,657558,30447
1308.19,1.332901,658515,30596
1311.58,1.333759,658804,30549
1314.97,1.334963,659011,30474
1318.36,1.335103,658272,30430
1321.73,1.330961,658022,30710
1326.23,1.339790,657870,30085
1329.6,1.333365,656482,30469
1332.97,1.336042,654926,30210
1336.33,1.333553,653727,30328
1339.69,1.339038,652497,29891
1343.04,1.327191,649913,30596
1346.39,1.330873,647671,30233
1349.73,1.335250,645338,29822
1354.18,1.328439,641175,30098
1357.52,1.329987,638376,29860
1360.85,1.331021,635805,29669
1364.17,1.330806,633413,29572
1367.49,1.330446,631026,29485
1370.81,1.325911,628050,29654
1374.12,1.321687,625034,29800
1378.54,1.330859,620272,28955
1381.84,1.331390,616892,28762
1385.14,1.322393,613613,29208
1388.43,1.327732,611526,28753
1391.72,1.320062,610663,29224
1395.01,1.326434,610634,28797
1398.29,1.332960,611700,28417
1402.66,1.331247,614051,28639
1405.93,1.336665,616268,28386
1409.2,1.333932,617795,28636
1412.46,1.331967,618872,28816
1415.72,1.333203,619795,28777
1418.98,1.337239,620495,28543
1422.23,1.336650,621087,28609
1426.56,1.331375,621375,28972
1429.8,1.333723,621616,28827
1433.04,1.337621,622129,28593
1436.27,1.332471,621526,28906
1439.5,1.336547,621113,28617
1442.72,1.331253,620921,28959
1445.94,1.333867,620270,28755
1450.23,1.339760,618860,28303
1453.44,1.339404,617697,28273
1456.64,1.336433,616264,28401
1459.85,1.337980,614413,28215
1463.04,1.341412,612307,27897
1466.24,1.336940,610032,28081
1469.43,1.329980,607345,28409
1473.67,1.339646,603789,27621
1476.85,1.337809,601175,27618
1480.02,1.342644,597737,27156
1483.19,1.334188,594479,27539
1486.36,1.346028,591232,26652
1489.52,1.337487,587853,27026
1492.68,1.340704,583875,26645
1496.89,1.332707,578062,26870
1500.03,1.338350,574159,26344
1503.18,1.340518,570285,26036
1506.32,1.335832,565444,26095
1509.45,1.337011,560571,25800
1512.58,1.346821,555821,25010
1515.71,1.332768,550344,25578
1519.87,1.346207,543983,24512
1522.99,1.340834,538764,24579
1526.1,1.341881,533692,24289
1529.21,1.340662,527902,24093
1532.32,1.344185,521886,23626
1535.42,1.330232,515888,24117
1538.51,1.338826,509987,23374
1541.6,1.333085,503936,23404
1545.72,1.335355,494694,22855
1548.8,1.337559,488378,22449
1551.88,1.336543,481832,22200
1554.95,1.340985,474989,21662
1558.02,1.336106,467818,21576
1561.08,1.334395,460730,21333
1564.15,1.338050,454170,20853
1568.22,1.337972,444181,20398
1571.27,1.342296,436947,19867
1574.32,1.335586,429598,19837
1577.36,1.335875,422039,19475
1580.4,1.336110,414375,19111
1583.43,1.324564,406354,19246
1586.46,1.330958,398475,18597
1590.49,1.328381,388982,18262
1593.51,1.330099,380708,17803
1596.53,1.329969,372727,17435
1599.54,1.341629,365060,16624
1602.55,1.341301,357543,16294
1605.55,1.325299,349495,16525
1608.55,1.326233,341154,16096
1612.54,1.323684,330877,15703
1615.53,1.343058,322904,14656
1618.51,1.332781,315116,14645
1621.49,1.330140,307217,14365
1624.47,1.321793,299481,14275
1627.44,1.332458,292112,13586
1630.41,1.327594,284245,13369
1634.36,1.325405,274079,12956
1637.32,1.323118,266916,12684
1640.27,1.334276,259612,12024
1643.22,1.307396,251804,12407
1646.16,1.322952,244348,11616
1649.1,1.330684,236703,11054
1652.04,1.315842,228171,11026
1655.95,1.319414,215408,10324
1658.88,1.309238,204937,10055
1661.8,1.322846,193395,9196
1664.72,1.322700,179728,8549
1667.63,1.326559,163642,7715
1670.54,1.324296,146312,6934
1673.44,1.339434,128451,5879
1677.31,1.348223,105080,4713
1680.21,1.345137,88906,4016
1683.1,1.307051,75033,3700
1685.99,1.285979,63520,3288
1688.87,1.388653,53714,2195
1691.75,1.265543,45653,2477
1694.62,1.339492,39137,1791
1697.49,1.277944,33776,1781
1701.31,1.425378,28175,1058