File: samples/unknown/Column 1_078010_20241121_164105.csv
Method:,Column 1,,
Host Date-Time:,21/11/24 @ 16:41:5,,
Header Version:,1,,
System Temp (C):,29.35,,
Detector Temp (C):,24.92,,
Humidity (%):,7.35,,
Lamp PD:,3815,,
Shift Vector Coefficients:,-10.5391,0.0761263,-0.000134223,,
Pixel to Wavelength Coefficients:,1775.68,-0.916766,-0.000235065,,
Serial Number:,5510004,,
Scan Config Name:,Column 1,,
Scan Config Type:,Slew,,
Section 1,,
Start wavelength (nm):,900,,
End wavelength (nm):,1700,,
Pattern Pixel Width (nm):,   7.03,,,,
Exposure (ms):,  0.635,,,,
Digital Resolution:,228,,
Num Repeats:,6,,
PGA Gain:,64,,
Total Measurement Time in sec:,  2.732,,
Wavelength (nm),Absorbance (AU),Reference Signal (unitless),Sample Signal (unitless)
901.51,1.309295,108485,5322
905.376,1.335152,121306,5607
909.237,1.287000,131909,6812
913.095,1.320109,143299,6857
916.948,1.314237,156982,7614
922.079,1.315352,179937,8705
925.923,1.303123,200504,9977
929.762,1.304359,222660,11048
933.597,1.319591,244426,11710
937.427,1.309422,263972,12946
941.254,1.305592,281845,13945
945.076,1.319063,297271,14259
950.165,1.318846,315605,15146
953.978,1.315089,328029,15879
957.786,1.302909,340470,16950
961.59,1.305836,352317,17422
965.389,1.308068,363056,17861
969.185,1.318875,373162,17907
972.976,1.309711,382632,18753
976.763,1.314219,391202,18975
981.806,1.303784,400190,19883
985.583,1.298054,406088,20444
989.355,1.314758,410162,19870
993.124,1.317876,412868,19858
996.888,1.303767,414263,20583
1000.65,1.305776,415476,20548
1004.4,1.305610,415479,20556
1009.41,1.308278,414358,20375
1013.15,1.312846,412923,20092
1016.89,1.311677,411526,20078
1020.63,1.307820,409066,20136
1024.36,1.313547,406777,19761
1028.09,1.316160,404427,19529
1031.82,1.316395,401911,19397
1036.78,1.309183,398410,19550
1040.49,1.312992,396204,19272
1044.2,1.300497,394236,19736
1047.91,1.307955,392042,19292
1051.61,1.313350,389823,18946
1055.31,1.306132,388234,19185
1059,1.310109,387599,18979
1063.92,1.306532,386688,19091
1067.61,1.317000,386598,18632
1071.29,1.318341,387377,18612
1074.96,1.322048,388536,18509
1078.63,1.316353,389855,18817
1082.3,1.307421,391215,19275
1085.96,1.306426,393215,19418
1090.84,1.305647,396270,19604
1094.49,1.317999,398760,19174
1098.14,1.311384,400987,19577
1101.79,1.317145,403477,19439
1105.43,1.311108,406116,19840
1109.06,1.312691,407701,19845
1112.7,1.316189,409859,19790
1117.53,1.318007,412494,19834
1121.15,1.316424,414909,20023
1124.77,1.316394,416559,20104
1128.38,1.312546,418532,20379
1131.99,1.310857,419956,20528
1135.6,1.317718,421946,20302
1139.2,1.319620,423881,20306
1143.99,1.323399,426786,20268
1147.58,1.316246,428617,20693
1151.17,1.322089,431169,20538
1154.75,1.315781,433579,20955
1158.33,1.327487,436264,20524
1161.91,1.320086,439132,21014
1165.48,1.322016,442389,21076
1169.04,1.313474,446101,21675
1173.79,1.314368,451929,21913
1177.34,1.309926,456026,22339
1180.9,1.320600,461306,22049
1184.44,1.316396,467657,22570
1187.99,1.323239,473969,22517
1191.52,1.314203,479856,23276
1195.06,1.324136,487372,23106
1199.76,1.315581,497347,24048
1203.29,1.325210,504311,23850
1206.81,1.318181,511507,24585
1210.33,1.321605,519078,24753
1213.84,1.329248,527163,24700
1217.35,1.319453,534208,25601
1220.85,1.321271,540472,25793
1225.51,1.331677,549929,25623
1229.01,1.321050,556888,26590
1232.5,1.323202,562180,26710
1235.98,1.327152,567975,26741
1239.46,1.324704,574815,27216
1242.94,1.323120,582782,27694
1246.41,1.323215,591476,28101
1251.03,1.329692,604016,28272
1254.5,1.329256,612289,28688
1257.96,1.326395,619125,29200
1261.41,1.324673,624551,29573
1264.86,1.330452,629900,29432
1268.31,1.327964,634345,29810
1271.75,1.327150,638574,30065
1276.33,1.332216,642499,29899
1279.76,1.334120,645905,29926
1283.19,1.331788,648307,30199
1286.61,1.329881,650446,30432
1290.03,1.330477,652132,30469
1293.44,1.329482,653907,30622
1296.85,1.334592,655963,30359
1301.39,1.328724,657349,30837
1304.8,1.329736,657558,30775
1308.19,1.326518,658515,31049
1311.58,1.327535,658804,30990
1314.97,1.331132,659011,30744
1318.36,1.328728,658272,30880
1321.73,1.331159,658022,30696
1326.23,1.338263,657870,30191
1329.6,1.339696,656482,30028
1332.97,1.331650,654926,30517
1336.33,1.335461,653727,30195
1339.69,1.333997,652497,30240
1343.04,1.329825,649913,30411
1346.39,1.333712,647671,30036
1349.73,1.330903,645338,30122
1354.18,1.326811,641175,30211
1357.52,1.326698,638376,30087
1360.85,1.328554,635805,29838
1364.17,1.331997,633413,29491
1367.49,1.333343,631026,29289
1370.81,1.336151,628050,28963
1374.12,1.327689,625034,29391
1378.54,1.329167,620272,29068
1381.84,1.327811,616892,29000
1385.14,1.324614,613613,29059
1388.43,1.322731,611526,29086
1391.72,1.331597,610663,28458
1395.01,1.326660,610634,28782
1398.29,1.330872,611700,28554
1402.66,1.331398,614051,28629
1405.93,1.331071,616268,28754
1409.2,1.331467,617795,28799
1412.46,1.327977,618872,29082
1415.72,1.328908,619795,29063
1418.98,1.330250,620495,29006
1422.23,1.331609,621087,28943
1426.56,1.331390,621375,28971
1429.8,1.328764,621616,29158
1433.04,1.334443,622129,28803
1436.27,1.334625,621526,28763
1439.5,1.339913,621113,28396
1442.72,1.333870,620921,28785
1445.94,1.336291,620270,28595
1450.23,1.334028,618860,28679
1453.44,1.336938,617697,28434
1456.64,1.341292,616264,28085
1459.85,1.327938,614413,28875
1463.04,1.332201,612307,28495
1466.24,1.341370,610032,27796
1469.43,1.331327,607345,28321
1473.67,1.335001,603789,27918
1476.85,1.331595,601175,28016
1480.02,1.337588,597737,27474
1483.19,1.338802,594479,27248
1486.36,1.336328,591232,27254
1489.52,1.341426,587853,26782
1492.68,1.339272,583875,26733
1496.89,1.338581,578062,26509
1500.03,1.336787,574159,26439
1503.18,1.337310,570285,26229
1506.32,1.336082,565444,26080
1509.45,1.340119,560571,25616
1512.58,1.339042,555821,25462
1515.71,1.341601,550344,25063
1519.87,1.341659,543983,24770
1522.99,1.335828,538764,24864
1526.1,1.337770,533692,24520
1529.21,1.335324,527902,24391
1532.32,1.341985,521886,23746
1535.42,1.336234,515888,23786
1538.51,1.340017,509987,23310
1541.6,1.336981,503936,23195
1545.72,1.337432,494694,22746
1548.8,1.333535,488378,22658
1551.88,1.333676,481832,22347
1554.95,1.338386,474989,21792
1558.02,1.335543,467818,21604
1561.08,1.335557,460730,21276
1564.15,1.340452,454170,20738
1568.22,1.335700,444181,20505
1571.27,1.344027,436947,19788
1574.32,1.334362,429598,19893
1577.36,1.330820,422039,19703
1580.4,1.335361,414375,19144
1583.43,1.335047,406354,18787
1586.46,1.341213,398475,18163
1590.49,1.331316,388982,18139
1593.51,1.331051,380708,17764
1596.53,1.339132,372727,17071
1599.54,1.338194,365060,16756
1602.55,1.331731,357543,16657
1605.55,1.336022,349495,16122
1608.55,1.326827,341154,16074
1612.54,1.325958,330877,15621
1615.53,1.317902,322904,15530
1618.51,1.327212,315116,14834
1621.49,1.316421,307217,14826
1624.47,1.321398,299481,14288
1627.44,1.331277,292112,13623
1630.41,1.322556,284245,13525
1634.36,1.318191,274079,13173
1637.32,1.331799,266916,12433
1640.27,1.323467,259612,12327
1643.22,1.318421,251804,12096
1646.16,1.316384,244348,11793
1649.1,1.327475,236703,11136
1652.04,1.314545,228171,11059
1655.95,1.316312,215408,10398
1658.88,1.330300,204937,9579
1661.8,1.333266,193395,8978
1664.72,1.313253,179728,8737
1667.63,1.322246,163642,7792
1670.54,1.340829,146312,6675
1673.44,1.366641,128451,5522
1677.31,1.305851,105080,5196
1680.21,1.338164,88906,4081
1683.1,1.351636,75033,3339
1685.99,1.387603,63520,2602
1688.87,1.358466,53714,2353
1691.75,1.327435,45653,2148
1694.62,1.321211,39137,1868
1697.49,1.290311,33776,1731
1701.31,1.318887,28175,1352