File: ML/samples/unknown/Column 1_078002_20241121_164042.csv
Method:,Column 1,,
Host Date-Time:,21/11/24 @ 16:40:42,,
Header Version:,1,,
System Temp (C):,29.02,,
Detector Temp (C):,26.96,,
Humidity (%):,7.88,,
Lamp PD:,3817,,
Shift Vector Coefficients:,-10.5391,0.0761263,-0.000134223,,
Pixel to Wavelength Coefficients:,1775.68,-0.916766,-0.000235065,,
Serial Number:,5510004,,
Scan Config Name:,Column 1,,
Scan Config Type:,Slew,,
Section 1,,
Start wavelength (nm):,900,,
End wavelength (nm):,1700,,
Pattern Pixel Width (nm):,   7.03,,,,
Exposure (ms):,  0.635,,,,
Digital Resolution:,228,,
Num Repeats:,6,,
PGA Gain:,64,,
Total Measurement Time in sec:,  2.706,,
Wavelength (nm),Absorbance (AU),Reference Signal (unitless),Sample Signal (unitless)
901.51,1.288969,108485,5577
905.376,1.278110,121306,6394
909.237,1.312672,131909,6421
913.095,1.312450,143299,6979
916.948,1.291730,156982,8019
922.079,1.297705,179937,9066
925.923,1.322848,200504,9534
929.762,1.303495,222660,11070
933.597,1.304143,244426,12134
937.427,1.311170,263972,12894
941.254,1.318135,281845,13548
945.076,1.313946,297271,14428
950.165,1.313517,315605,15333
953.978,1.309275,328029,16093
957.786,1.314358,340470,16509
961.59,1.311203,352317,17208
965.389,1.302031,363056,18111
969.185,1.306278,373162,18434
972.976,1.312499,382632,18633
976.763,1.305384,391202,19365
981.806,1.300282,400190,20044
985.583,1.301467,406088,20284
989.355,1.299510,410162,20580
993.124,1.303697,412868,20517
996.888,1.310251,414263,20278
1000.65,1.301277,415476,20762
1004.4,1.317107,415479,20019
1009.41,1.309217,414358,20331
1013.15,1.315187,412923,19984
1016.89,1.315675,411526,19894
1020.63,1.308360,409066,20111
1024.36,1.311006,406777,19877
1028.09,1.311273,404427,19750
1031.82,1.306566,401911,19841
1036.78,1.308118,398410,19598
1040.49,1.318457,396204,19031
1044.2,1.306993,394236,19443
1047.91,1.296667,392042,19800
1051.61,1.313052,389823,18959
1055.31,1.312977,388234,18885
1059,1.313648,387599,18825
1063.92,1.313110,386688,18804
1067.61,1.314652,386598,18733
1071.29,1.312984,387377,18843
1074.96,1.316546,388536,18745
1078.63,1.315315,389855,18862
1082.3,1.322389,391215,18622
1085.96,1.302817,393215,19580
1090.84,1.308157,396270,19491
1094.49,1.323309,398760,18941
1098.14,1.320644,400987,19164
1101.79,1.311772,403477,19681
1105.43,1.321386,406116,19376
1109.06,1.317709,407701,19617
1112.7,1.311670,409859,19997
1117.53,1.317679,412494,19849
1121.15,1.321770,414909,19778
1124.77,1.309770,416559,20413
1128.38,1.319593,418532,20051
1131.99,1.320613,419956,20072
1135.6,1.319906,421946,20200
1139.2,1.317614,423881,20400
1143.99,1.322222,426786,20323
1147.58,1.316393,428617,20686
1151.17,1.318006,431169,20732
1154.75,1.320427,433579,20732
1158.33,1.314727,436264,21136
1161.91,1.325933,439132,20733
1165.48,1.315249,442389,21407
1169.04,1.315623,446101,21568
1173.79,1.312411,451929,22012
1177.34,1.320254,456026,21814
1180.9,1.321330,461306,22012
1184.44,1.313022,467657,22746
1187.99,1.318292,473969,22775
1191.52,1.316748,479856,23140
1195.06,1.318923,487372,23385
1199.76,1.315581,497347,24048
1203.29,1.320051,504311,24135
1206.81,1.320164,511507,24473
1210.33,1.329358,519078,24315
1213.84,1.322012,527163,25115
1217.35,1.330971,534208,24931
1220.85,1.329756,540472,25294
1225.51,1.327695,549929,25859
1229.01,1.318931,556888,26720
1232.5,1.327121,562180,26470
1235.98,1.322740,567975,27014
1239.46,1.321017,574815,27448
1242.94,1.321508,582782,27797
1246.41,1.327050,591476,27854
1251.03,1.327669,604016,28404
1254.5,1.321053,612289,29235
1257.96,1.322516,619125,29462
1261.41,1.324673,624551,29573
1264.86,1.329700,629900,29483
1268.31,1.328313,634345,29786
1271.75,1.325982,638574,30146
1276.33,1.328484,642499,30157
1279.76,1.322211,645905,30758
1283.19,1.324741,648307,30693
1286.61,1.325253,650446,30758
1290.03,1.331848,652132,30373
1293.44,1.332500,653907,30410
1296.85,1.329062,655963,30748
1301.39,1.330785,657349,30691
1304.8,1.327821,657558,30911
1308.19,1.358269,658515,28860
1311.58,1.329740,658804,30833
1314.97,1.331033,659011,30751
1318.36,1.328630,658272,30887
1321.73,1.329337,658022,30825
1326.23,1.328505,657870,30877
1329.6,1.329138,656482,30767
1332.97,1.329422,654926,30674
1336.33,1.334126,653727,30288
1339.69,1.330407,652497,30491
1343.04,1.332704,649913,30210
1346.39,1.332918,647671,30091
1349.73,1.327314,645338,30372
1354.18,1.327401,641175,30170
1357.52,1.322546,638376,30376
1360.85,1.327740,635805,29894
1364.17,1.324928,633413,29975
1367.49,1.326195,631026,29775
1370.81,1.333251,628050,29157
1374.12,1.328562,625034,29332
1378.54,1.326545,620272,29244
1381.84,1.326316,616892,29100
1385.14,1.324838,613613,29044
1388.43,1.329669,611526,28625
1391.72,1.324889,610663,28901
1395.01,1.326253,610634,28809
1398.29,1.334430,611700,28321
1402.66,1.329869,614051,28730
1405.93,1.326474,616268,29060
1409.2,1.333159,617795,28687
1412.46,1.338191,618872,28406
1415.72,1.325069,619795,29321
1418.98,1.328577,620495,29118
1422.23,1.330111,621087,29043
1426.56,1.334761,621375,28747
1429.8,1.335655,621616,28699
1433.04,1.336165,622129,28689
1436.27,1.333058,621526,28867
1439.5,1.335970,621113,28655
1442.72,1.339397,620921,28421
1445.94,1.335123,620270,28672
1450.23,1.330740,618860,28897
1453.44,1.332243,617697,28743
1456.64,1.336372,616264,28405
1459.85,1.333951,614413,28478
1463.04,1.335367,612307,28288
1466.24,1.334565,610032,28235
1469.43,1.337271,607345,27936
1473.67,1.331376,603789,28152
1476.85,1.326264,601175,28362
1480.02,1.338585,597737,27411
1483.19,1.336735,594479,27378
1486.36,1.330896,591232,27597
1489.52,1.330094,587853,27490
1492.68,1.338217,583875,26798
1496.89,1.335105,578062,26722
1500.03,1.335344,574159,26527
1503.18,1.337012,570285,26247
1506.32,1.333393,565444,26242
1509.45,1.337634,560571,25763
1512.58,1.334799,555821,25712
1515.71,1.336605,550344,25353
1519.87,1.331453,543983,25359
1522.99,1.336474,538764,24827
1526.1,1.337699,533692,24524
1529.21,1.340446,527902,24105
1532.32,1.331077,521886,24350
1535.42,1.339956,515888,23583
1538.51,1.341024,509987,23256
1541.6,1.341347,503936,22963
1545.72,1.339844,494694,22620
1548.8,1.337211,488378,22467
1551.88,1.330848,481832,22493
1554.95,1.335407,474989,21942
1558.02,1.335824,467818,21590
1561.08,1.339493,460730,21084
1564.15,1.326257,454170,21427
1568.22,1.339359,444181,20333
1571.27,1.329587,436947,20457
1574.32,1.338442,429598,19707
1577.36,1.333451,422039,19584
1580.4,1.337886,414375,19033
1583.43,1.328668,406354,19065
1586.46,1.336410,398475,18365
1590.49,1.327265,388982,18309
1593.51,1.328079,380708,17886
1596.53,1.335358,372727,17220
1599.54,1.333707,365060,16930
1602.55,1.326522,357543,16858
1605.55,1.323621,349495,16589
1608.55,1.324751,341154,16151
1612.54,1.320049,330877,15835
1615.53,1.314726,322904,15644
1618.51,1.329767,315116,14747
1621.49,1.318594,307217,14752
1624.47,1.333792,299481,13886
1627.44,1.319763,292112,13989
1630.41,1.346076,284245,12812
1634.36,1.313991,274079,13301
1637.32,1.311330,266916,13033
1640.27,1.315197,259612,12564
1643.22,1.328555,251804,11817
1646.16,1.326217,244348,11529
1649.1,1.318138,236703,11378
1652.04,1.325601,228171,10781
1655.95,1.321269,215408,10280
1658.88,1.320306,204937,9802
1661.8,1.319366,193395,9270
1664.72,1.315696,179728,8688
1667.63,1.333825,163642,7587
1670.54,1.335141,146312,6763
1673.44,1.350507,128451,5731
1677.31,1.344644,105080,4752
1680.21,1.319216,88906,4263
1683.1,1.340338,75033,3427
1685.99,1.306811,63520,3134
1688.87,1.353876,53714,2378
1691.75,1.367435,45653,1959
1694.62,1.316586,39137,1888
1697.49,1.382170,33776,1401
1701.31,1.357494,28175,1237