File: ML/samples/unknown/Column 1_078092_20241121_164505.csv
Method:,Column 1,,
Host Date-Time:,21/11/24 @ 16:45:5,,
Header Version:,1,,
System Temp (C):,32.1,,
Detector Temp (C):,27.13,,
Humidity (%):,4.4,,
Lamp PD:,3807,,
Shift Vector Coefficients:,-10.5391,0.0761263,-0.000134223,,
Pixel to Wavelength Coefficients:,1775.68,-0.916766,-0.000235065,,
Serial Number:,5510004,,
Scan Config Name:,Column 1,,
Scan Config Type:,Slew,,
Section 1,,
Start wavelength (nm):,900,,
End wavelength (nm):,1700,,
Pattern Pixel Width (nm):,   7.03,,,,
Exposure (ms):,  0.635,,,,
Digital Resolution:,228,,
Num Repeats:,6,,
PGA Gain:,64,,
Total Measurement Time in sec:,  2.707,,
Wavelength (nm),Absorbance (AU),Reference Signal (unitless),Sample Signal (unitless)
901.51,1.312900,108485,5278
905.376,1.312074,121306,5913
909.237,1.315522,131909,6379
913.095,1.310092,143299,7017
916.948,1.317788,156982,7552
922.079,1.302861,179937,8959
925.923,1.313921,200504,9732
929.762,1.307871,222660,10959
933.597,1.317740,244426,11760
937.427,1.308183,263972,12983
941.254,1.303231,281845,14021
945.076,1.307256,297271,14652
950.165,1.309120,315605,15489
953.978,1.309410,328029,16088
957.786,1.310899,340470,16641
961.59,1.312264,352317,17166
965.389,1.308165,363056,17857
969.185,1.311421,373162,18217
972.976,1.308647,382632,18799
976.763,1.308738,391202,19216
981.806,1.306655,400190,19752
985.583,1.305705,406088,20087
989.355,1.309500,410162,20112
993.124,1.303253,412868,20538
996.888,1.307518,414263,20406
1000.65,1.310708,415476,20316
1004.4,1.310625,415479,20320
1009.41,1.310286,414358,20281
1013.15,1.304900,412923,20463
1016.89,1.308852,411526,20209
1020.63,1.311785,409066,19953
1024.36,1.308957,406777,19971
1028.09,1.307965,404427,19901
1031.82,1.307377,401911,19804
1036.78,1.313627,398410,19351
1040.49,1.313263,396204,19260
1044.2,1.319432,394236,18894
1047.91,1.312299,392042,19100
1051.61,1.311703,389823,19018
1055.31,1.302749,388234,19335
1059,1.302420,387599,19318
1063.92,1.312234,386688,18842
1067.61,1.314768,386598,18728
1071.29,1.303974,387377,19238
1074.96,1.316337,388536,18754
1078.63,1.311761,389855,19017
1082.3,1.309386,391215,19188
1085.96,1.308129,393215,19342
1090.84,1.306933,396270,19546
1094.49,1.308123,398760,19615
1098.14,1.316046,400987,19368
1101.79,1.312545,403477,19646
1105.43,1.316837,406116,19580
1109.06,1.317068,407701,19646
1112.7,1.315794,409859,19808
1117.53,1.312697,412494,20078
1121.15,1.313096,414909,20177
1124.77,1.319081,416559,19980
1128.38,1.316635,418532,20188
1131.99,1.313169,419956,20419
1135.6,1.317269,421946,20323
1139.2,1.322301,423881,20181
1143.99,1.316280,426786,20603
1147.58,1.312922,428617,20852
1151.17,1.318153,431169,20725
1154.75,1.321350,433579,20688
1158.33,1.310474,436264,21344
1161.91,1.312202,439132,21399
1165.48,1.323172,442389,21020
1169.04,1.317925,446101,21454
1173.79,1.311445,451929,22061
1177.34,1.325280,456026,21563
1180.9,1.313508,461306,22412
1184.44,1.313385,467657,22727
1187.99,1.315460,473969,22924
1191.52,1.317255,479856,23113
1195.06,1.313259,487372,23692
1199.76,1.321160,497347,23741
1203.29,1.322379,504311,24006
1206.81,1.323049,511507,24311
1210.33,1.326279,519078,24488
1213.84,1.324127,527163,24993
1217.35,1.322518,534208,25421
1220.85,1.324381,540472,25609
1225.51,1.319526,549929,26350
1229.01,1.319159,556888,26706
1232.5,1.327056,562180,26474
1235.98,1.323480,567975,26968
1239.46,1.319139,574815,27567
1242.94,1.326094,582782,27505
1246.41,1.325431,591476,27958
1251.03,1.325960,604016,28516
1254.5,1.321588,612289,29199
1257.96,1.328557,619125,29055
1261.41,1.327354,624551,29391
1264.86,1.322773,629900,29957
1268.31,1.320582,634345,30321
1271.75,1.328684,638574,29959
1276.33,1.328096,642499,30184
1279.76,1.323710,645905,30652
1283.19,1.330109,648307,30316
1286.61,1.336380,650446,29980
1290.03,1.324532,652132,30889
1293.44,1.329369,653907,30630
1296.85,1.330931,655963,30616
1301.39,1.330516,657349,30710
1304.8,1.330442,657558,30725
1308.19,1.332022,658515,30658
1311.58,1.328938,658804,30890
1314.97,1.323390,659011,31297
1318.36,1.331621,658272,30675
1321.73,1.332746,658022,30584
1326.23,1.336411,657870,30320
1329.6,1.335766,656482,30301
1332.97,1.333062,654926,30418
1336.33,1.326029,653727,30858
1339.69,1.331063,652497,30445
1343.04,1.328271,649913,30520
1346.39,1.333105,647671,30078
1349.73,1.328660,645338,30278
1354.18,1.332556,641175,29814
1357.52,1.329638,638376,29884
1360.85,1.329939,635805,29743
1364.17,1.332145,633413,29481
1367.49,1.326137,631026,29779
1370.81,1.329558,628050,29406
1374.12,1.329362,625034,29278
1378.54,1.320704,620272,29640
1381.84,1.329597,616892,28881
1385.14,1.329196,613613,28754
1388.43,1.327098,611526,28795
1391.72,1.325370,610663,28869
1395.01,1.330327,610634,28540
1398.29,1.328702,611700,28697
1402.66,1.328797,614051,28801
1405.93,1.321866,616268,29370
1409.2,1.324629,617795,29256
1412.46,1.331109,618872,28873
1415.72,1.331110,619795,28916
1418.98,1.330505,620495,28989
1422.23,1.328573,621087,29146
1426.56,1.335260,621375,28714
1429.8,1.335187,621616,28730
1433.04,1.338411,622129,28541
1436.27,1.335048,621526,28735
1439.5,1.331882,621113,28926
1442.72,1.330249,620921,29026
1445.94,1.328553,620270,29109
1450.23,1.334786,618860,28629
1453.44,1.332652,617697,28716
1456.64,1.331915,616264,28698
1459.85,1.332079,614413,28601
1463.04,1.333177,612307,28431
1466.24,1.334457,610032,28242
1469.43,1.336914,607345,27959
1473.67,1.330036,603789,28239
1476.85,1.336709,601175,27688
1480.02,1.336247,597737,27559
1483.19,1.334820,594479,27499
1486.36,1.337189,591232,27200
1489.52,1.340050,587853,26867
1492.68,1.336745,583875,26889
1496.89,1.340321,578062,26403
1500.03,1.340698,574159,26202
1503.18,1.340018,570285,26066
1506.32,1.341090,565444,25781
1509.45,1.335331,560571,25900
1512.58,1.338497,555821,25494
1515.71,1.333634,550344,25527
1519.87,1.341554,543983,24776
1522.99,1.333198,538764,25015
1526.1,1.331597,533692,24871
1529.21,1.336108,527902,24347
1532.32,1.335414,521886,24108
1535.42,1.336015,515888,23798
1538.51,1.336991,509987,23473
1541.6,1.339441,503936,23064
1545.72,1.332118,494694,23026
1548.8,1.342168,488378,22212
1551.88,1.329845,481832,22545
1554.95,1.343297,474989,21547
1558.02,1.338245,467818,21470
1561.08,1.337726,460730,21170
1564.15,1.331826,454170,21154
1568.22,1.329309,444181,20809
1571.27,1.337319,436947,20096
1574.32,1.334821,429598,19872
1577.36,1.332034,422039,19648
1580.4,1.329502,414375,19404
1583.43,1.332765,406354,18886
1586.46,1.332385,398475,18536
1590.49,1.342570,388982,17675
1593.51,1.331247,380708,17756
1596.53,1.325212,372727,17627
1599.54,1.327189,365060,17186
1602.55,1.319470,357543,17134
1605.55,1.337317,349495,16074
1608.55,1.331854,341154,15889
1612.54,1.320872,330877,15805
1615.53,1.320145,322904,15450
1618.51,1.337582,315116,14484
1621.49,1.323777,307217,14577
1624.47,1.320457,299481,14319
1627.44,1.313720,292112,14185
1630.41,1.316275,284245,13722
1634.36,1.312557,274079,13345
1637.32,1.312832,266916,12988
1640.27,1.314782,259612,12576
1643.22,1.313139,251804,12244
1646.16,1.333319,244348,11342
1649.1,1.310045,236703,11592
1652.04,1.319005,228171,10946
1655.95,1.303310,215408,10714
1658.88,1.317171,204937,9873
1661.8,1.297708,193395,9744
1664.72,1.294430,179728,9124
1667.63,1.307614,163642,8059
1670.54,1.294350,146312,7429
1673.44,1.298303,128451,6463
1677.31,1.297326,105080,5299
1680.21,1.283913,88906,4624
1683.1,1.277228,75033,3963
1685.99,1.298576,63520,3194
1688.87,1.284017,53714,2793
1691.75,1.271190,45653,2445
1694.62,1.320746,39137,1870
1697.49,1.332709,33776,1570
1701.31,1.353649,28175,1248