File: ML/samples/unknown/Column 1_078392_20241121_170026.csv
Method:,Column 1,,
Host Date-Time:,21/11/24 @ 17:0:26,,
Header Version:,1,,
System Temp (C):,34.4,,
Detector Temp (C):,34.09,,
Humidity (%):,2.6,,
Lamp PD:,3802,,
Shift Vector Coefficients:,-10.5391,0.0761263,-0.000134223,,
Pixel to Wavelength Coefficients:,1775.68,-0.916766,-0.000235065,,
Serial Number:,5510004,,
Scan Config Name:,Column 1,,
Scan Config Type:,Slew,,
Section 1,,
Start wavelength (nm):,900,,
End wavelength (nm):,1700,,
Pattern Pixel Width (nm):,   7.03,,,,
Exposure (ms):,  0.635,,,,
Digital Resolution:,228,,
Num Repeats:,6,,
PGA Gain:,64,,
Total Measurement Time in sec:,  2.726,,
Wavelength (nm),Absorbance (AU),Reference Signal (unitless),Sample Signal (unitless)
901.51,1.322299,108485,5165
905.376,1.350846,121306,5408
909.237,1.300533,131909,6603
913.095,1.349046,143299,6415
916.948,1.336952,156982,7226
922.079,1.315501,179937,8702
925.923,1.333173,200504,9310
929.762,1.320333,222660,10649
933.597,1.321672,244426,11654
937.427,1.330982,263972,12319
941.254,1.328188,281845,13238
945.076,1.334660,297271,13756
950.165,1.315561,315605,15261
953.978,1.320123,328029,15696
957.786,1.322028,340470,16220
961.59,1.317815,352317,16948
965.389,1.311118,363056,17736
969.185,1.311349,373162,18220
972.976,1.317162,382632,18434
976.763,1.315365,391202,18925
981.806,1.313458,400190,19445
985.583,1.310597,406088,19862
989.355,1.310863,410162,20049
993.124,1.309215,412868,20258
996.888,1.310358,414263,20273
1000.65,1.309576,415476,20369
1004.4,1.313456,415479,20188
1009.41,1.306343,414358,20466
1013.15,1.315230,412923,19982
1016.89,1.308638,411526,20219
1020.63,1.321581,409066,19508
1024.36,1.303103,406777,20242
1028.09,1.314540,404427,19602
1031.82,1.303252,401911,19993
1036.78,1.316577,398410,19220
1040.49,1.309334,396204,19435
1044.2,1.314882,394236,19093
1047.91,1.307483,392042,19313
1051.61,1.312228,389823,18995
1055.31,1.316649,388234,18726
1059,1.320976,387599,18510
1063.92,1.311014,386688,18895
1067.61,1.311971,386598,18849
1071.29,1.309815,387377,18981
1074.96,1.311478,388536,18965
1078.63,1.318018,389855,18745
1082.3,1.318789,391215,18777
1085.96,1.315922,393215,18998
1090.84,1.320588,396270,18941
1094.49,1.320725,398760,19054
1098.14,1.312806,400987,19513
1101.79,1.319879,403477,19317
1105.43,1.320692,406116,19407
1109.06,1.327041,407701,19200
1112.7,1.317045,409859,19751
1117.53,1.315692,412494,19940
1121.15,1.320236,414909,19848
1124.77,1.315897,416559,20127
1128.38,1.318317,418532,20110
1131.99,1.319144,419956,20140
1135.6,1.327103,421946,19868
1139.2,1.315469,423881,20501
1143.99,1.323164,426786,20279
1147.58,1.325795,428617,20243
1151.17,1.323763,431169,20459
1154.75,1.330858,433579,20240
1158.33,1.327001,436264,20547
1161.91,1.311796,439132,21419
1165.48,1.323875,442389,20986
1169.04,1.318269,446101,21437
1173.79,1.315897,451929,21836
1177.34,1.314322,456026,22114
1180.9,1.321428,461306,22007
1184.44,1.321603,467657,22301
1187.99,1.315611,473969,22916
1191.52,1.329450,479856,22473
1195.06,1.322391,487372,23199
1199.76,1.321765,497347,23708
1203.29,1.319494,504311,24166
1206.81,1.314050,511507,24820
1210.33,1.326918,519078,24452
1213.84,1.325170,527163,24933
1217.35,1.324882,534208,25283
1220.85,1.328059,540472,25393
1225.51,1.324682,549929,26039
1229.01,1.323901,556888,26416
1232.5,1.329276,562180,26339
1235.98,1.331133,567975,26497
1239.46,1.322380,574815,27362
1242.94,1.327946,582782,27388
1246.41,1.324252,591476,28034
1251.03,1.324060,604016,28641
1254.5,1.323631,612289,29062
1257.96,1.327155,619125,29149
1261.41,1.322665,624551,29710
1264.86,1.331486,629900,29362
1268.31,1.329379,634345,29713
1271.75,1.332777,638574,29678
1276.33,1.329393,642499,30094
1279.76,1.333815,645905,29947
1283.19,1.330912,648307,30260
1286.61,1.330895,650446,30361
1290.03,1.335336,652132,30130
1293.44,1.326092,653907,30862
1296.85,1.334006,655963,30400
1301.39,1.328710,657349,30838
1304.8,1.331532,657558,30648
1308.19,1.332008,658515,30659
1311.58,1.341490,658804,30010
1314.97,1.334678,659011,30494
1318.36,1.335603,658272,30395
1321.73,1.334839,658022,30437
1326.23,1.333342,657870,30535
1329.6,1.333365,656482,30469
1332.97,1.334019,654926,30351
1336.33,1.328216,653727,30703
1339.69,1.336301,652497,30080
1343.04,1.331527,649913,30292
1346.39,1.331995,647671,30155
1349.73,1.334494,645338,29874
1354.18,1.331276,641175,29902
1357.52,1.331502,638376,29756
1360.85,1.331490,635805,29637
1364.17,1.330615,633413,29585
1367.49,1.330019,631026,29514
1370.81,1.325033,628050,29714
1374.12,1.331414,625034,29140
1378.54,1.333401,620272,28786
1381.84,1.330500,616892,28821
1385.14,1.333095,613613,28497
1388.43,1.324601,611526,28961
1391.72,1.331628,610663,28456
1395.01,1.326328,610634,28804
1398.29,1.328641,611700,28701
1402.66,1.333542,614051,28488
1405.93,1.329278,616268,28873
1409.2,1.332101,617795,28757
1412.46,1.330207,618872,28933
1415.72,1.334881,619795,28666
1418.98,1.328338,620495,29134
1422.23,1.334953,621087,28721
1426.56,1.332516,621375,28896
1429.8,1.336716,621616,28629
1433.04,1.329928,622129,29104
1436.27,1.336547,621526,28636
1439.5,1.326985,621113,29254
1442.72,1.332048,620921,28906
1445.94,1.331923,620270,28884
1450.23,1.336230,618860,28534
1453.44,1.335078,617697,28556
1456.64,1.335639,616264,28453
1459.85,1.337196,614413,28266
1463.04,1.338278,612307,28099
1466.24,1.333213,610032,28323
1469.43,1.342778,607345,27584
1473.67,1.331577,603789,28139
1476.85,1.337212,601175,27656
1480.02,1.338490,597737,27417
1483.19,1.339440,594479,27208
1486.36,1.333295,591232,27445
1489.52,1.340454,587853,26842
1492.68,1.344864,583875,26391
1496.89,1.344818,578062,26131
1500.03,1.337445,574159,26399
1503.18,1.341971,570285,25949
1506.32,1.336815,565444,26036
1509.45,1.336624,560571,25823
1512.58,1.350308,555821,24810
1515.71,1.336742,550344,25345
1519.87,1.334219,543983,25198
1522.99,1.344953,538764,24347
1526.1,1.342364,533692,24262
1529.21,1.345320,527902,23836
1532.32,1.340397,521886,23833
1535.42,1.344287,515888,23349
1538.51,1.339495,509987,23338
1541.6,1.333438,503936,23385
1545.72,1.349179,494694,22139
1548.8,1.326123,488378,23048
1551.88,1.336464,481832,22204
1554.95,1.334676,474989,21979
1558.02,1.339765,467818,21395
1561.08,1.330221,460730,21539
1564.15,1.328065,454170,21338
1568.22,1.338398,444181,20378
1571.27,1.340660,436947,19942
1574.32,1.330775,429598,20058
1577.36,1.335741,422039,19481
1580.4,1.343513,414375,18788
1583.43,1.335024,406354,18788
1586.46,1.336316,398475,18369
1590.49,1.334416,388982,18010
1593.51,1.329441,380708,17830
1596.53,1.330118,372727,17429
1599.54,1.341159,365060,16642
1602.55,1.330456,357543,16706
1605.55,1.319556,349495,16745
1608.55,1.318716,341154,16377
1612.54,1.329307,330877,15501
1615.53,1.330730,322904,15078
1618.51,1.321107,315116,15044
1621.49,1.317859,307217,14777
1624.47,1.314433,299481,14519
1627.44,1.317255,292112,14070
1630.41,1.315643,284245,13742
1634.36,1.319578,274079,13131
1637.32,1.326832,266916,12576
1640.27,1.315819,259612,12546
1643.22,1.304918,251804,12478
1646.16,1.306086,244348,12076
1649.1,1.313959,236703,11488
1652.04,1.304261,228171,11324
1655.95,1.316521,215408,10393
1658.88,1.295339,204937,10382
1661.8,1.300615,193395,9679
1664.72,1.278908,179728,9456
1667.63,1.268475,163642,8819
1670.54,1.232908,146312,8558
1673.44,1.257357,128451,7102
1677.31,1.205146,105080,6552
1680.21,1.183412,88906,5828
1683.1,1.155838,75033,5241
1685.99,1.214751,63520,3874
1688.87,1.158379,53714,3730
1691.75,1.205234,45653,2846
1694.62,1.246822,39137,2217
1697.49,1.256534,33776,1871
1701.31,1.312826,28175,1371