File: ML/samples/unknown/Column 1_078266_20241121_165338.csv
Method:,Column 1,,
Host Date-Time:,21/11/24 @ 16:53:38,,
Header Version:,1,,
System Temp (C):,34.33,,
Detector Temp (C):,32.09,,
Humidity (%):,2.45,,
Lamp PD:,3802,,
Shift Vector Coefficients:,-10.5391,0.0761263,-0.000134223,,
Pixel to Wavelength Coefficients:,1775.68,-0.916766,-0.000235065,,
Serial Number:,5510004,,
Scan Config Name:,Column 1,,
Scan Config Type:,Slew,,
Section 1,,
Start wavelength (nm):,900,,
End wavelength (nm):,1700,,
Pattern Pixel Width (nm):,   7.03,,,,
Exposure (ms):,  0.635,,,,
Digital Resolution:,228,,
Num Repeats:,6,,
PGA Gain:,64,,
Total Measurement Time in sec:,  2.728,,
Wavelength (nm),Absorbance (AU),Reference Signal (unitless),Sample Signal (unitless)
901.51,1.311586,108485,5294
905.376,1.312148,121306,5912
909.237,1.329919,131909,6171
913.095,1.312948,143299,6971
916.948,1.310319,156982,7683
922.079,1.318506,179937,8642
925.923,1.319400,200504,9610
929.762,1.324266,222660,10553
933.597,1.321449,244426,11660
937.427,1.326598,263972,12444
941.254,1.308906,281845,13839
945.076,1.314579,297271,14407
950.165,1.308308,315605,15518
953.978,1.306612,328029,16192
957.786,1.318880,340470,16338
961.59,1.312543,352317,17155
965.389,1.318901,363056,17421
969.185,1.308735,373162,18330
972.976,1.308416,382632,18809
976.763,1.308399,391202,19231
981.806,1.310077,400190,19597
985.583,1.314154,406088,19700
989.355,1.312643,410162,19967
993.124,1.318357,412868,19836
996.888,1.315704,414263,20025
1000.65,1.315717,415476,20083
1004.4,1.311802,415479,20265
1009.41,1.303888,414358,20582
1013.15,1.307177,412923,20356
1016.89,1.308079,411526,20245
1020.63,1.317107,409066,19710
1024.36,1.307480,406777,20039
1028.09,1.310636,404427,19779
1031.82,1.306632,401911,19838
1036.78,1.308251,398410,19592
1040.49,1.317272,396204,19083
1044.2,1.307843,394236,19405
1047.91,1.305710,392042,19392
1051.61,1.307928,389823,19184
1055.31,1.310454,388234,18995
1059,1.315474,387599,18746
1063.92,1.305215,386688,19149
1067.61,1.302897,386598,19247
1071.29,1.307669,387377,19075
1074.96,1.323388,388536,18452
1078.63,1.321998,389855,18574
1082.3,1.316943,391215,18857
1085.96,1.314279,393215,19070
1090.84,1.313651,396270,19246
1094.49,1.310343,398760,19515
1098.14,1.324926,400987,18976
1101.79,1.321140,403477,19261
1105.43,1.315044,406116,19661
1109.06,1.323235,407701,19369
1112.7,1.315728,409859,19811
1117.53,1.325294,412494,19504
1121.15,1.323420,414909,19703
1124.77,1.319951,416559,19940
1128.38,1.321546,418532,19961
1131.99,1.321284,419956,20041
1135.6,1.316522,421946,20358
1139.2,1.318253,423881,20370
1143.99,1.322051,426786,20331
1147.58,1.305775,428617,21198
1151.17,1.330006,431169,20167
1154.75,1.320762,433579,20716
1158.33,1.317055,436264,21023
1161.91,1.324469,439132,20803
1165.48,1.329813,442389,20701
1169.04,1.316369,446101,21531
1173.79,1.320094,451929,21626
1177.34,1.325280,456026,21563
1180.9,1.319990,461306,22080
1184.44,1.311612,467657,22820
1187.99,1.322623,473969,22549
1191.52,1.320991,479856,22915
1195.06,1.318070,487372,23431
1199.76,1.313886,497347,24142
1203.29,1.322867,504311,23979
1206.81,1.320466,511507,24456
1210.33,1.324050,519078,24614
1213.84,1.326426,527163,24861
1217.35,1.320065,534208,25565
1220.85,1.328675,540472,25357
1225.51,1.328367,549929,25819
1229.01,1.332200,556888,25916
1232.5,1.322925,562180,26727
1235.98,1.323851,567975,26945
1239.46,1.327040,574815,27070
1242.94,1.327423,582782,27421
1246.41,1.326271,591476,27904
1251.03,1.327592,604016,28409
1254.5,1.325818,612289,28916
1257.96,1.326559,619125,29189
1261.41,1.331421,624551,29117
1264.86,1.335349,629900,29102
1268.31,1.326683,634345,29898
1271.75,1.326515,638574,30109
1276.33,1.328081,642499,30185
1279.76,1.329199,645905,30267
1283.19,1.333416,648307,30086
1286.61,1.332271,650446,30265
1290.03,1.330121,652132,30494
1293.44,1.330718,653907,30535
1296.85,1.327610,655963,30851
1301.39,1.336712,657349,30275
1304.8,1.334846,657558,30415
1308.19,1.339826,658515,30112
1311.58,1.330685,658804,30766
1314.97,1.334109,659011,30534
1318.36,1.338269,658272,30209
1321.73,1.335924,658022,30361
1326.23,1.336253,657870,30331
1329.6,1.334635,656482,30380
1332.97,1.332334,654926,30469
1336.33,1.333538,653727,30329
1339.69,1.330963,652497,30452
1343.04,1.337722,649913,29863
1346.39,1.335901,647671,29885
1349.73,1.332029,645338,30044
1354.18,1.332556,641175,29814
1357.52,1.327189,638376,30053
1360.85,1.333105,635805,29527
1364.17,1.336036,633413,29218
1367.49,1.330019,631026,29514
1370.81,1.327496,628050,29546
1374.12,1.332967,625034,29036
1378.54,1.325092,620272,29342
1381.84,1.330922,616892,28793
1385.14,1.331164,613613,28624
1388.43,1.327596,611526,28762
1391.72,1.333647,610663,28324
1395.01,1.332340,610634,28408
1398.29,1.329414,611700,28650
1402.66,1.328706,614051,28807
1405.93,1.330377,616268,28800
1409.2,1.326862,617795,29106
1412.46,1.330012,618872,28946
1415.72,1.331636,619795,28881
1418.98,1.337087,620495,28553
1422.23,1.328052,621087,29181
1426.56,1.332787,621375,28878
1429.8,1.332054,621616,28938
1433.04,1.335499,622129,28733
1436.27,1.334867,621526,28747
1439.5,1.334956,621113,28722
1442.72,1.331808,620921,28922
1445.94,1.337660,620270,28505
1450.23,1.332864,618860,28756
1453.44,1.329127,617697,28950
1456.64,1.341958,616264,28042
1459.85,1.330700,614413,28692
1463.04,1.335567,612307,28275
1466.24,1.335242,610032,28191
1469.43,1.342448,607345,27605
1473.67,1.334783,603789,27932
1476.85,1.337746,601175,27622
1480.02,1.338617,597737,27409
1483.19,1.332536,594479,27644
1486.36,1.338420,591232,27123
1489.52,1.337776,587853,27008
1492.68,1.333896,583875,27066
1496.89,1.338516,578062,26513
1500.03,1.338169,574159,26355
1503.18,1.339734,570285,26083
1506.32,1.336865,565444,26033
1509.45,1.344344,560571,25368
1512.58,1.337952,555821,25526
1515.71,1.341411,550344,25074
1519.87,1.344544,543983,24606
1522.99,1.335810,538764,24865
1526.1,1.336744,533692,24578
1529.21,1.334843,527902,24418
1532.32,1.334299,521886,24170
1535.42,1.338614,515888,23656
1538.51,1.343440,509987,23127
1541.6,1.333810,503936,23365
1545.72,1.337603,494694,22737
1548.8,1.334033,488378,22632
1551.88,1.345616,481832,21741
1554.95,1.338686,474989,21777
1558.02,1.329415,467818,21911
1561.08,1.338855,460730,21115
1564.15,1.335123,454170,20994
1568.22,1.346248,444181,20013
1571.27,1.339051,436947,20016
1574.32,1.336046,429598,19816
1577.36,1.335006,422039,19514
1580.4,1.328988,414375,19427
1583.43,1.340256,406354,18563
1586.46,1.330631,398475,18611
1590.49,1.328667,388982,18250
1593.51,1.333405,380708,17668
1596.53,1.347091,372727,16761
1599.54,1.340194,365060,16679
1602.55,1.327606,357543,16816
1605.55,1.328200,349495,16415
1608.55,1.323114,341154,16212
1612.54,1.327155,330877,15578
1615.53,1.319920,322904,15458
1618.51,1.327417,315116,14827
1621.49,1.334546,307217,14220
1624.47,1.320821,299481,14307
1627.44,1.334187,292112,13532
1630.41,1.319165,284245,13631
1634.36,1.331923,274079,12763
1637.32,1.324181,266916,12653
1640.27,1.314437,259612,12586
1643.22,1.318205,251804,12102
1646.16,1.319971,244348,11696
1649.1,1.319744,236703,11336
1652.04,1.302195,228171,11378
1655.95,1.312031,215408,10501
1658.88,1.304001,204937,10177
1661.8,1.294599,193395,9814
1664.72,1.286600,179728,9290
1667.63,1.273976,163642,8708
1670.54,1.255617,146312,8122
1673.44,1.234720,128451,7482
1677.31,1.236190,105080,6100
1680.21,1.254063,88906,4953
1683.1,1.226307,75033,4456
1685.99,1.237535,63520,3676
1688.87,1.189758,53714,3470
1691.75,1.188178,45653,2960
1694.62,1.245843,39137,2222
1697.49,1.179136,33776,2236
1701.31,1.272905,28175,1503