File: ML/samples/unknown/Column 1_078771_20241121_172123.csv
Method:,Column 1,,
Host Date-Time:,21/11/24 @ 17:21:23,,
Header Version:,1,,
System Temp (C):,36.69,,
Detector Temp (C):,35.11,,
Humidity (%):,1.08,,
Lamp PD:,3798,,
Shift Vector Coefficients:,-10.5391,0.0761263,-0.000134223,,
Pixel to Wavelength Coefficients:,1775.68,-0.916766,-0.000235065,,
Serial Number:,5510004,,
Scan Config Name:,Column 1,,
Scan Config Type:,Slew,,
Section 1,,
Start wavelength (nm):,900,,
End wavelength (nm):,1700,,
Pattern Pixel Width (nm):,   7.03,,,,
Exposure (ms):,  0.635,,,,
Digital Resolution:,228,,
Num Repeats:,6,,
PGA Gain:,64,,
Total Measurement Time in sec:,  2.719,,
Wavelength (nm),Absorbance (AU),Reference Signal (unitless),Sample Signal (unitless)
901.51,1.322973,108485,5157
905.376,1.316059,121306,5859
909.237,1.301983,131909,6581
913.095,1.339670,143299,6555
916.948,1.313155,156982,7633
922.079,1.306268,179937,8889
925.923,1.317551,200504,9651
929.762,1.323239,222660,10578
933.597,1.326770,244426,11518
937.427,1.328872,263972,12379
941.254,1.316823,281845,13589
945.076,1.307315,297271,14650
950.165,1.313290,315605,15341
953.978,1.316514,328029,15827
957.786,1.311971,340470,16600
961.59,1.313176,352317,17130
965.389,1.313746,363056,17629
969.185,1.314219,373162,18100
972.976,1.298215,382632,19256
976.763,1.304264,391202,19415
981.806,1.309235,400190,19635
985.583,1.302646,406088,20229
989.355,1.308443,410162,20161
993.124,1.301186,412868,20636
996.888,1.307987,414263,20384
1000.65,1.307110,415476,20485
1004.4,1.305843,415479,20545
1009.41,1.302792,414358,20634
1013.15,1.303100,412923,20548
1016.89,1.307715,411526,20262
1020.63,1.300633,409066,20472
1024.36,1.304328,406777,20185
1028.09,1.305919,404427,19995
1031.82,1.306260,401911,19855
1036.78,1.309450,398410,19538
1040.49,1.310207,396204,19396
1044.2,1.303811,394236,19586
1047.91,1.310937,392042,19160
1051.61,1.300032,389823,19536
1055.31,1.307583,388234,19121
1059,1.308169,387599,19064
1063.92,1.314406,386688,18748
1067.61,1.314652,386598,18733
1071.29,1.309998,387377,18973
1074.96,1.312763,388536,18909
1078.63,1.306811,389855,19235
1082.3,1.310020,391215,19160
1085.96,1.314553,393215,19058
1090.84,1.307311,396270,19529
1094.49,1.312038,398760,19439
1098.14,1.315642,400987,19386
1101.79,1.310384,403477,19744
1105.43,1.315752,406116,19629
1109.06,1.307881,407701,20066
1112.7,1.315640,409859,19815
1117.53,1.309400,412494,20231
1121.15,1.310992,414909,20275
1124.77,1.321982,416559,19847
1128.38,1.316506,418532,20194
1131.99,1.320656,419956,20070
1135.6,1.313418,421946,20504
1139.2,1.315172,423881,20515
1143.99,1.322543,426786,20308
1147.58,1.327794,428617,20150
1151.17,1.318006,431169,20732
1154.75,1.317691,433579,20863
1158.33,1.311880,436264,21275
1161.91,1.308061,439132,21604
1165.48,1.314357,442389,21451
1169.04,1.314196,446101,21639
1173.79,1.311780,451929,22044
1177.34,1.310646,456026,22302
1180.9,1.321330,461306,22012
1184.44,1.310433,467657,22882
1187.99,1.311649,473969,23126
1191.52,1.313382,479856,23320
1195.06,1.313369,487372,23686
1199.76,1.312234,497347,24234
1203.29,1.318740,504311,24208
1206.81,1.315048,511507,24763
1210.33,1.323574,519078,24641
1213.84,1.325136,527163,24935
1217.35,1.321511,534208,25480
1220.85,1.312768,540472,26303
1225.51,1.320764,549929,26275
1229.01,1.317180,556888,26828
1232.5,1.316682,562180,27114
1235.98,1.317960,567975,27313
1239.46,1.320780,574815,27463
1242.94,1.314857,582782,28226
1246.41,1.325462,591476,27956
1251.03,1.319295,604016,28957
1254.5,1.324529,612289,29002
1257.96,1.323077,619125,29424
1261.41,1.320245,624551,29876
1264.86,1.324167,629900,29861
1268.31,1.321184,634345,30279
1271.75,1.327410,638574,30047
1276.33,1.328268,642499,30172
1279.76,1.323030,645905,30700
1283.19,1.322638,648307,30842
1286.61,1.359923,650446,28398
1290.03,1.323899,652132,30934
1293.44,1.325909,653907,30875
1296.85,1.327610,655963,30851
1301.39,1.329259,657349,30799
1304.8,1.328623,657558,30854
1308.19,1.330777,658515,30746
1311.58,1.326988,658804,31029
1314.97,1.327601,659011,30995
1318.36,1.326470,658272,31041
1321.73,1.327355,658022,30966
1326.23,1.333285,657870,30539
1329.6,1.327110,656482,30911
1332.97,1.329705,654926,30654
1336.33,1.325241,653727,30914
1339.69,1.333365,652497,30284
1343.04,1.329653,649913,30423
1346.39,1.327796,647671,30448
1349.73,1.325430,645338,30504
1354.18,1.322534,641175,30510
1357.52,1.324897,638376,30212
1360.85,1.327101,635805,29938
1364.17,1.327238,633413,29816
1367.49,1.325438,631026,29827
1370.81,1.324128,628050,29776
1374.12,1.324143,625034,29632
1378.54,1.323202,620272,29470
1381.84,1.323164,616892,29312
1385.14,1.321724,613613,29253
1388.43,1.322895,611526,29075
1391.72,1.316584,610663,29459
1395.01,1.327098,610634,28753
1398.29,1.328218,611700,28729
1402.66,1.329476,614051,28756
1405.93,1.336818,616268,28376
1409.2,1.328596,617795,28990
1412.46,1.330733,618872,28898
1415.72,1.323399,619795,29434
1418.98,1.326093,620495,29285
1422.23,1.326300,621087,29299
1426.56,1.329715,621375,29083
1429.8,1.327426,621616,29248
1433.04,1.335726,622129,28718
1436.27,1.332036,621526,28935
1439.5,1.332017,621113,28917
1442.72,1.332951,620921,28846
1445.94,1.331938,620270,28883
1450.23,1.328521,618860,29045
1453.44,1.328048,617697,29022
1456.64,1.330043,616264,28822
1459.85,1.333250,614413,28524
1463.04,1.331683,612307,28529
1466.24,1.333014,610032,28336
1469.43,1.334899,607345,28089
1473.67,1.327154,603789,28427
1476.85,1.330063,601175,28115
1480.02,1.329818,597737,27970
1483.19,1.330420,594479,27779
1486.36,1.330928,591232,27595
1489.52,1.332756,587853,27322
1492.68,1.328871,583875,27381
1496.89,1.335447,578062,26701
1500.03,1.330719,574159,26811
1503.18,1.357701,570285,25026
1506.32,1.331181,565444,26376
1509.45,1.326533,560571,26430
1512.58,1.331568,555821,25904
1515.71,1.331547,550344,25650
1519.87,1.338654,543983,24942
1522.99,1.333511,538764,24997
1526.1,1.329177,533692,25010
1529.21,1.335947,527902,24356
1532.32,1.326817,521886,24590
1535.42,1.332598,515888,23986
1538.51,1.336417,509987,23504
1541.6,1.327645,503936,23699
1545.72,1.328699,494694,23208
1548.8,1.331164,488378,22782
1551.88,1.327617,481832,22661
1554.95,1.327717,474989,22334
1558.02,1.323587,467818,22207
1561.08,1.339102,460730,21103
1564.15,1.329533,454170,21266
1568.22,1.332367,444181,20663
1571.27,1.334476,436947,20228
1574.32,1.333272,429598,19943
1577.36,1.335429,422039,19495
1580.4,1.336247,414375,19105
1583.43,1.330380,406354,18990
1586.46,1.331706,398475,18565
1590.49,1.329119,388982,18231
1593.51,1.326020,380708,17971
1596.53,1.327287,372727,17543
1599.54,1.327392,365060,17178
1602.55,1.317421,357543,17215
1605.55,1.328041,349495,16421
1608.55,1.318584,341154,16382
1612.54,1.334975,330877,15300
1615.53,1.317958,322904,15528
1618.51,1.325663,315116,14887
1621.49,1.316392,307217,14827
1624.47,1.321367,299481,14289
1627.44,1.310183,292112,14301
1630.41,1.323423,284245,13498
1634.36,1.320041,274079,13117
1637.32,1.309767,266916,13080
1640.27,1.319225,259612,12448
1643.22,1.306312,251804,12438
1646.16,1.316200,244348,11798
1649.1,1.314073,236703,11485
1652.04,1.288851,228171,11733
1655.95,1.306361,215408,10639
1658.88,1.296932,204937,10344
1661.8,1.298734,193395,9721
1664.72,1.270539,179728,9640
1667.63,1.255522,163642,9086
1670.54,1.233670,146312,8543
1673.44,1.217758,128451,7780
1677.31,1.195899,105080,6693
1680.21,1.152287,88906,6261
1683.1,1.174203,75033,5024
1685.99,1.150954,63520,4487
1688.87,1.182682,53714,3527
1691.75,1.122028,45653,3447
1694.62,1.214008,39137,2391
1697.49,1.123091,33776,2544
1701.31,1.084750,28175,2318