File: ML/samples/unknown/Column 1_078531_20241121_170715.csv
Method:,Column 1,,
Host Date-Time:,21/11/24 @ 17:7:15,,
Header Version:,1,,
System Temp (C):,35.57,,
Detector Temp (C):,34.06,,
Humidity (%):,1.77,,
Lamp PD:,3799,,
Shift Vector Coefficients:,-10.5391,0.0761263,-0.000134223,,
Pixel to Wavelength Coefficients:,1775.68,-0.916766,-0.000235065,,
Serial Number:,5510004,,
Scan Config Name:,Column 1,,
Scan Config Type:,Slew,,
Section 1,,
Start wavelength (nm):,900,,
End wavelength (nm):,1700,,
Pattern Pixel Width (nm):,   7.03,,,,
Exposure (ms):,  0.635,,,,
Digital Resolution:,228,,
Num Repeats:,6,,
PGA Gain:,64,,
Total Measurement Time in sec:,  2.729,,
Wavelength (nm),Absorbance (AU),Reference Signal (unitless),Sample Signal (unitless)
901.51,1.342083,108485,4935
905.376,1.310535,121306,5934
909.237,1.327743,131909,6202
913.095,1.336633,143299,6601
916.948,1.318479,156982,7540
922.079,1.341519,179937,8196
925.923,1.331311,200504,9350
929.762,1.332073,222660,10365
933.597,1.326997,244426,11512
937.427,1.320636,263972,12616
941.254,1.314878,281845,13650
945.076,1.319887,297271,14232
950.165,1.313432,315605,15336
953.978,1.302474,328029,16347
957.786,1.314043,340470,16521
961.59,1.311329,352317,17203
965.389,1.303472,363056,18051
969.185,1.310658,373162,18249
972.976,1.313012,382632,18611
976.763,1.304510,391202,19404
981.806,1.312410,400190,19492
985.583,1.299203,406088,20390
989.355,1.314605,410162,19877
993.124,1.306778,412868,20372
996.888,1.308242,414263,20372
1000.65,1.301130,415476,20769
1004.4,1.300904,415479,20780
1009.41,1.305897,414358,20487
1013.15,1.307796,412923,20327
1016.89,1.315653,411526,19895
1020.63,1.306614,409066,20192
1024.36,1.300344,406777,20371
1028.09,1.307507,404427,19922
1031.82,1.313517,401911,19526
1036.78,1.306548,398410,19669
1040.49,1.302528,396204,19742
1044.2,1.308627,394236,19370
1047.91,1.299948,392042,19651
1051.61,1.307770,389823,19191
1055.31,1.304122,388234,19274
1059,1.309195,387599,19019
1063.92,1.297237,386688,19504
1067.61,1.309788,386598,18944
1071.29,1.307191,387377,19096
1074.96,1.313383,388536,18882
1078.63,1.313867,389855,18925
1082.3,1.310224,391215,19151
1085.96,1.315351,393215,19023
1090.84,1.312344,396270,19304
1094.49,1.311390,398760,19468
1098.14,1.312161,400987,19542
1101.79,1.309988,403477,19762
1105.43,1.317259,406116,19561
1109.06,1.315721,407701,19707
1112.7,1.316826,409859,19761
1117.53,1.322099,412494,19648
1121.15,1.321046,414909,19811
1124.77,1.316221,416559,20112
1128.38,1.321612,418532,19958
1131.99,1.315686,419956,20301
1135.6,1.312276,421946,20558
1139.2,1.318402,423881,20363
1143.99,1.316111,426786,20611
1147.58,1.323484,428617,20351
1151.17,1.328716,431169,20227
1154.75,1.313486,433579,21066
1158.33,1.318441,436264,20956
1161.91,1.319034,439132,21065
1165.48,1.318711,442389,21237
1169.04,1.317763,446101,21462
1173.79,1.316494,451929,21806
1177.34,1.315522,456026,22053
1180.9,1.316952,461306,22235
1184.44,1.314246,467657,22682
1187.99,1.320318,473969,22669
1191.52,1.320991,479856,22915
1195.06,1.314011,487372,23651
1199.76,1.324245,497347,23573
1203.29,1.320213,504311,24126
1206.81,1.321551,511507,24395
1210.33,1.317814,519078,24970
1213.84,1.320424,527163,25207
1217.35,1.317321,534208,25727
1220.85,1.346899,540472,24315
1225.51,1.326973,549929,25902
1229.01,1.319533,556888,26683
1232.5,1.318094,562180,27026
1235.98,1.321392,567975,27098
1239.46,1.322539,574815,27352
1242.94,1.320276,582782,27876
1246.41,1.318542,591476,28405
1251.03,1.325473,604016,28548
1254.5,1.323407,612289,29077
1257.96,1.322000,619125,29497
1261.41,1.325746,624551,29500
1264.86,1.319078,629900,30213
1268.31,1.326030,634345,29943
1271.75,1.323482,638574,30320
1276.33,1.324371,642499,30444
1279.76,1.323073,645905,30697
1283.19,1.325067,648307,30670
1286.61,1.321108,650446,31053
1290.03,1.328855,652132,30583
1293.44,1.327643,653907,30752
1296.85,1.326415,655963,30936
1301.39,1.326070,657349,31026
1304.8,1.326614,657558,30997
1308.19,1.329803,658515,30815
1311.58,1.332524,658804,30636
1314.97,1.327391,659011,31010
1318.36,1.327296,658272,30982
1321.73,1.328057,658022,30916
1326.23,1.327550,657870,30945
1329.6,1.331913,656482,30571
1332.97,1.330897,654926,30570
1336.33,1.332237,653727,30420
1339.69,1.329738,652497,30538
1343.04,1.322279,649913,30944
1346.39,1.327226,647671,30488
1349.73,1.323385,645338,30648
1354.18,1.322691,641175,30499
1357.52,1.323333,638376,30321
1360.85,1.323677,635805,30175
1364.17,1.330102,633413,29620
1367.49,1.324696,631026,29878
1370.81,1.325209,628050,29702
1374.12,1.326804,625034,29451
1378.54,1.324575,620272,29377
1381.84,1.329101,616892,28914
1385.14,1.323465,613613,29136
1388.43,1.322671,611526,29090
1391.72,1.321983,610663,29095
1395.01,1.322725,610634,29044
1398.29,1.321394,611700,29184
1402.66,1.326751,614051,28937
1405.93,1.329564,616268,28854
1409.2,1.324585,617795,29259
1412.46,1.333931,618872,28686
1415.72,1.328534,619795,29088
1418.98,1.333391,620495,28797
1422.23,1.330410,621087,29023
1426.56,1.329267,621375,29113
1429.8,1.325396,621616,29385
1433.04,1.329078,622129,29161
1436.27,1.329865,621526,29080
1439.5,1.333854,621113,28795
1442.72,1.326139,620921,29302
1445.94,1.334835,620270,28691
1450.23,1.326477,618860,29182
1453.44,1.332334,617697,28737
1456.64,1.327264,616264,29007
1459.85,1.329339,614413,28782
1463.04,1.333116,612307,28435
1466.24,1.336152,610032,28132
1469.43,1.336634,607345,27977
1473.67,1.331037,603789,28174
1476.85,1.332308,601175,27970
1480.02,1.336073,597737,27570
1483.19,1.336132,594479,27416
1486.36,1.336806,591232,27224
1489.52,1.331677,587853,27390
1492.68,1.329585,583875,27336
1496.89,1.334829,578062,26739
1500.03,1.331205,574159,26781
1503.18,1.334241,570285,26415
1506.32,1.336665,565444,26045
1509.45,1.334677,560571,25939
1512.58,1.330229,555821,25984
1515.71,1.344731,550344,24883
1519.87,1.339159,543983,24913
1522.99,1.331085,538764,25137
1526.1,1.334981,533692,24678
1529.21,1.330543,527902,24661
1532.32,1.328516,521886,24494
1535.42,1.336672,515888,23762
1538.51,1.328907,509987,23914
1541.6,1.336813,503936,23204
1545.72,1.338943,494694,22667
1548.8,1.339207,488378,22364
1551.88,1.341837,481832,21931
1554.95,1.328905,474989,22273
1558.02,1.331222,467818,21820
1561.08,1.333622,460730,21371
1564.15,1.337218,454170,20893
1568.22,1.328038,444181,20870
1571.27,1.339768,436947,19983
1574.32,1.333729,429598,19922
1577.36,1.335630,422039,19486
1580.4,1.324872,414375,19612
1583.43,1.326577,406354,19157
1586.46,1.326220,398475,18801
1590.49,1.323674,388982,18461
1593.51,1.330734,380708,17777
1596.53,1.325928,372727,17598
1599.54,1.324871,365060,17278
1602.55,1.325108,357543,16913
1605.55,1.326010,349495,16498
1608.55,1.327313,341154,16056
1612.54,1.324321,330877,15680
1615.53,1.323673,322904,15325
1618.51,1.318086,315116,15149
1621.49,1.318359,307217,14760
1624.47,1.314762,299481,14508
1627.44,1.314455,292112,14161
1630.41,1.333185,284245,13198
1634.36,1.323665,274079,13008
1637.32,1.319029,266916,12804
1640.27,1.333734,259612,12039
1643.22,1.317560,251804,12120
1646.16,1.313485,244348,11872
1649.1,1.309147,236703,11616
1652.04,1.305951,228171,11280
1655.95,1.314395,215408,10444
1658.88,1.279082,204937,10778
1661.8,1.281995,193395,10103
1664.72,1.291678,179728,9182
1667.63,1.259652,163642,9000
1670.54,1.240587,146312,8408
1673.44,1.218037,128451,7775
1677.31,1.200334,105080,6625
1680.21,1.182816,88906,5836
1683.1,1.195098,75033,4788
1685.99,1.168232,63520,4312
1688.87,1.170420,53714,3628
1691.75,1.144789,45653,3271
1694.62,1.163967,39137,2683
1697.49,1.244403,33776,1924
1701.31,1.244389,28175,1605