File: ML/samples/unknown/Column 1_078330_20241121_165645.csv
Method:,Column 1,,
Host Date-Time:,21/11/24 @ 16:56:45,,
Header Version:,1,,
System Temp (C):,34.75,,
Detector Temp (C):,32.99,,
Humidity (%):,2.25,,
Lamp PD:,3802,,
Shift Vector Coefficients:,-10.5391,0.0761263,-0.000134223,,
Pixel to Wavelength Coefficients:,1775.68,-0.916766,-0.000235065,,
Serial Number:,5510004,,
Scan Config Name:,Column 1,,
Scan Config Type:,Slew,,
Section 1,,
Start wavelength (nm):,900,,
End wavelength (nm):,1700,,
Pattern Pixel Width (nm):,   7.03,,,,
Exposure (ms):,  0.635,,,,
Digital Resolution:,228,,
Num Repeats:,6,,
PGA Gain:,64,,
Total Measurement Time in sec:,  2.727,,
Wavelength (nm),Absorbance (AU),Reference Signal (unitless),Sample Signal (unitless)
901.51,1.342523,108485,4930
905.376,1.315244,121306,5870
909.237,1.319832,131909,6316
913.095,1.307623,143299,7057
916.948,1.305764,156982,7764
922.079,1.319714,179937,8618
925.923,1.337063,200504,9227
929.762,1.319966,222660,10658
933.597,1.321114,244426,11669
937.427,1.328662,263972,12385
941.254,1.317719,281845,13561
945.076,1.314157,297271,14421
950.165,1.319678,315605,15117
953.978,1.320511,328029,15682
957.786,1.311971,340470,16600
961.59,1.323360,352317,16733
965.389,1.304894,363056,17992
969.185,1.311898,373162,18197
972.976,1.318058,382632,18396
976.763,1.320559,391202,18700
981.806,1.316754,400190,19298
985.583,1.311429,406088,19824
989.355,1.306530,410162,20250
993.124,1.306288,412868,20395
996.888,1.306286,414263,20464
1000.65,1.306474,415476,20515
1004.4,1.310412,415479,20330
1009.41,1.307086,414358,20431
1013.15,1.312479,412923,20109
1016.89,1.315043,411526,19923
1020.63,1.307260,409066,20162
1024.36,1.306290,406777,20094
1028.09,1.313876,404427,19632
1031.82,1.306939,401911,19824
1036.78,1.311723,398410,19436
1040.49,1.305951,396204,19587
1044.2,1.316021,394236,19043
1047.91,1.312208,392042,19104
1051.61,1.307521,389823,19202
1055.31,1.316649,388234,18726
1059,1.311530,387599,18917
1063.92,1.307010,386688,19070
1067.61,1.327212,386598,18199
1071.29,1.315921,387377,18716
1074.96,1.310701,388536,18999
1078.63,1.312836,389855,18970
1082.3,1.319414,391215,18750
1085.96,1.324557,393215,18624
1090.84,1.316640,396270,19114
1094.49,1.321501,398760,19020
1098.14,1.319400,400987,19219
1101.79,1.318017,403477,19400
1105.43,1.315111,406116,19658
1109.06,1.316648,407701,19665
1112.7,1.317441,409859,19733
1117.53,1.314627,412494,19989
1121.15,1.318838,414909,19912
1124.77,1.307901,416559,20501
1128.38,1.320395,418532,20014
1131.99,1.319857,419956,20107
1135.6,1.316906,421946,20340
1139.2,1.322926,423881,20152
1143.99,1.316469,426786,20594
1147.58,1.323676,428617,20342
1151.17,1.324528,431169,20423
1154.75,1.318462,433579,20826
1158.33,1.317117,436264,21020
1161.91,1.318601,439132,21086
1165.48,1.317629,442389,21290
1169.04,1.321707,446101,21268
1173.79,1.317072,451929,21777
1177.34,1.315680,456026,22045
1180.9,1.316347,461306,22266
1184.44,1.311269,467657,22838
1187.99,1.315175,473969,22939
1191.52,1.323805,479856,22767
1195.06,1.327400,487372,22933
1199.76,1.318134,497347,23907
1203.29,1.321024,504311,24081
1206.81,1.327935,511507,24039
1210.33,1.328074,519078,24387
1213.84,1.320837,527163,25183
1217.35,1.324762,534208,25290
1220.85,1.325978,540472,25515
1225.51,1.328283,549929,25824
1229.01,1.322899,556888,26477
1232.5,1.322730,562180,26739
1235.98,1.323416,567975,26972
1239.46,1.324496,574815,27229
1242.94,1.323827,582782,27649
1246.41,1.326131,591476,27913
1251.03,1.325518,604016,28545
1254.5,1.332066,612289,28503
1257.96,1.325296,619125,29274
1261.41,1.327797,624551,29361
1264.86,1.326486,629900,29702
1268.31,1.327541,634345,29839
1271.75,1.335787,638574,29473
1276.33,1.332841,642499,29856
1279.76,1.335545,645905,29828
1283.19,1.336851,648307,29849
1286.61,1.333550,650446,30176
1290.03,1.332778,652132,30308
1293.44,1.335293,653907,30215
1296.85,1.336355,655963,30236
1301.39,1.331848,657349,30616
1304.8,1.334361,657558,30449
1308.19,1.333768,658515,30535
1311.58,1.338419,658804,30223
1314.97,1.333327,659011,30589
1318.36,1.331465,658272,30686
1321.73,1.335753,658022,30373
1326.23,1.332887,657870,30567
1329.6,1.335565,656482,30315
1332.97,1.330244,654926,30616
1336.33,1.333682,653727,30319
1339.69,1.331905,652497,30386
1343.04,1.329525,649913,30432
1346.39,1.328981,647671,30365
1349.73,1.337236,645338,29686
1354.18,1.332396,641175,29825
1357.52,1.334020,638376,29584
1360.85,1.327929,635805,29881
1364.17,1.326917,633413,29838
1367.49,1.331080,631026,29442
1370.81,1.331794,628050,29255
1374.12,1.329303,625034,29282
1378.54,1.333356,620272,28789
1381.84,1.326107,616892,29114
1385.14,1.331741,613613,28586
1388.43,1.329821,611526,28615
1391.72,1.327496,610663,28728
1395.01,1.333259,610634,28348
1398.29,1.329611,611700,28637
1402.66,1.325163,614051,29043
1405.93,1.329594,616268,28852
1409.2,1.329226,617795,28948
1412.46,1.333326,618872,28726
1415.72,1.336566,619795,28555
1418.98,1.333180,620495,28811
1422.23,1.331354,621087,28960
1426.56,1.336942,621375,28603
1429.8,1.334507,621616,28775
1433.04,1.333043,622129,28896
1436.27,1.333871,621526,28813
1439.5,1.334669,621113,28741
1442.72,1.336427,620921,28616
1445.94,1.339033,620270,28415
1450.23,1.338243,618860,28402
1453.44,1.340881,617697,28177
1456.64,1.338042,616264,28296
1459.85,1.338304,614413,28194
1463.04,1.338479,612307,28086
1466.24,1.331179,610032,28456
1469.43,1.335936,607345,28022
1473.67,1.338484,603789,27695
1476.85,1.337180,601175,27658
1480.02,1.340443,597737,27294
1483.19,1.337465,594479,27332
1486.36,1.339398,591232,27062
1489.52,1.341880,587853,26754
1492.68,1.339337,583875,26729
1496.89,1.334099,578062,26784
1500.03,1.340333,574159,26224
1503.18,1.340084,570285,26062
1506.32,1.339912,565444,25851
1509.45,1.339780,560571,25636
1512.58,1.338327,555821,25504
1515.71,1.333073,550344,25560
1519.87,1.337732,543983,24995
1522.99,1.330930,538764,25146
1526.1,1.341399,533692,24316
1529.21,1.334648,527902,24429
1532.32,1.341126,521886,23793
1535.42,1.333776,515888,23921
1538.51,1.341248,509987,23244
1541.6,1.331455,503936,23492
1545.72,1.332533,494694,23004
1548.8,1.339517,488378,22348
1551.88,1.334493,481832,22305
1554.95,1.336557,474989,21884
1558.02,1.340984,467818,21335
1561.08,1.348526,460730,20650
1564.15,1.324820,454170,21498
1568.22,1.339081,444181,20346
1571.27,1.335594,436947,20176
1574.32,1.337056,429598,19770
1577.36,1.329346,422039,19770
1580.4,1.326469,414375,19540
1583.43,1.327235,406354,19128
1586.46,1.347766,398475,17891
1590.49,1.326222,388982,18353
1593.51,1.334956,380708,17605
1596.53,1.333621,372727,17289
1599.54,1.327948,365060,17156
1602.55,1.329547,357543,16741
1605.55,1.330348,349495,16334
1608.55,1.335808,341154,15745
1612.54,1.334833,330877,15305
1615.53,1.327144,322904,15203
1618.51,1.319666,315116,15094
1621.49,1.325898,307217,14506
1624.47,1.313297,299481,14557
1627.44,1.321380,292112,13937
1630.41,1.318147,284245,13663
1634.36,1.331039,274079,12789
1637.32,1.313200,266916,12977
1640.27,1.316929,259612,12514
1643.22,1.324677,251804,11923
1646.16,1.318156,244348,11745
1649.1,1.314527,236703,11473
1652.04,1.327377,228171,10737
1655.95,1.316187,215408,10401
1658.88,1.294545,204937,10401
1661.8,1.297262,193395,9754
1664.72,1.278954,179728,9455
1667.63,1.275075,163642,8686
1670.54,1.245000,146312,8323
1673.44,1.241329,128451,7369
1677.31,1.223491,105080,6281
1680.21,1.188659,88906,5758
1683.1,1.246659,75033,4252
1685.99,1.197713,63520,4029
1688.87,1.171139,53714,3622
1691.75,1.112310,45653,3525
1694.62,1.126462,39137,2925
1697.49,1.140329,33776,2445
1701.31,1.173172,28175,1891