File: ML/samples/unknown/Column 1_078101_20241121_164531.csv
Method:,Column 1,,
Host Date-Time:,21/11/24 @ 16:45:31,,
Header Version:,1,,
System Temp (C):,32.39,,
Detector Temp (C):,27.49,,
Humidity (%):,4.15,,
Lamp PD:,3807,,
Shift Vector Coefficients:,-10.5391,0.0761263,-0.000134223,,
Pixel to Wavelength Coefficients:,1775.68,-0.916766,-0.000235065,,
Serial Number:,5510004,,
Scan Config Name:,Column 1,,
Scan Config Type:,Slew,,
Section 1,,
Start wavelength (nm):,900,,
End wavelength (nm):,1700,,
Pattern Pixel Width (nm):,   7.03,,,,
Exposure (ms):,  0.635,,,,
Digital Resolution:,228,,
Num Repeats:,6,,
PGA Gain:,64,,
Total Measurement Time in sec:,  2.674,,
Wavelength (nm),Absorbance (AU),Reference Signal (unitless),Sample Signal (unitless)
901.51,1.300890,108485,5426
905.376,1.313693,121306,5891
909.237,1.293940,131909,6704
913.095,1.284962,143299,7435
916.948,1.314237,156982,7614
922.079,1.300058,179937,9017
925.923,1.317956,200504,9642
929.762,1.322664,222660,10592
933.597,1.301218,244426,12216
937.427,1.313094,263972,12837
941.254,1.317239,281845,13576
945.076,1.299704,297271,14909
950.165,1.299745,315605,15827
953.978,1.305861,328029,16220
957.786,1.310456,340470,16658
961.59,1.312062,352317,17174
965.389,1.315227,363056,17569
969.185,1.324219,373162,17688
972.976,1.322281,382632,18218
976.763,1.304197,391202,19418
981.806,1.304047,400190,19871
985.583,1.308220,406088,19971
989.355,1.306380,410162,20257
993.124,1.306564,412868,20382
996.888,1.314448,414263,20083
1000.65,1.323573,415476,19723
1004.4,1.310946,415479,20305
1009.41,1.311358,414358,20231
1013.15,1.312738,412923,20097
1016.89,1.313976,411526,19972
1020.63,1.307928,409066,20131
1024.36,1.308500,406777,19992
1028.09,1.307703,404427,19913
1031.82,1.311630,401911,19611
1036.78,1.316916,398410,19205
1040.49,1.315387,396204,19166
1044.2,1.306636,394236,19459
1047.91,1.319822,392042,18772
1051.61,1.305535,389823,19290
1055.31,1.313552,388234,18860
1059,1.305511,387599,19181
1063.92,1.318058,386688,18591
1067.61,1.312917,386598,18808
1071.29,1.310914,387377,18933
1074.96,1.319288,388536,18627
1078.63,1.318481,389855,18725
1082.3,1.313456,391215,19009
1085.96,1.321791,393215,18743
1090.84,1.320038,396270,18965
1094.49,1.309765,398760,19541
1098.14,1.317348,400987,19310
1101.79,1.316163,403477,19483
1105.43,1.326141,406116,19165
1109.06,1.319995,407701,19514
1112.7,1.318918,409859,19666
1117.53,1.318314,412494,19820
1121.15,1.315449,414909,20068
1124.77,1.320671,416559,19907
1128.38,1.312375,418532,20387
1131.99,1.326363,419956,19808
1135.6,1.307841,421946,20769
1139.2,1.325195,423881,20047
1143.99,1.315185,426786,20655
1147.58,1.325902,428617,20238
1151.17,1.315021,431169,20875
1154.75,1.325844,433579,20475
1158.33,1.323066,436264,20734
1161.91,1.325263,439132,20765
1165.48,1.320207,442389,21164
1169.04,1.322095,446101,21249
1173.79,1.321160,451929,21573
1177.34,1.318129,456026,21921
1180.9,1.316698,461306,22248
1184.44,1.319602,467657,22404
1187.99,1.319628,473969,22705
1191.52,1.316372,479856,23160
1195.06,1.326681,487372,22971
1199.76,1.321087,497347,23745
1203.29,1.325848,504311,23815
1206.81,1.326600,511507,24113
1210.33,1.325075,519078,24556
1213.84,1.325519,527163,24913
1217.35,1.329093,534208,25039
1220.85,1.322536,540472,25718
1225.51,1.332627,549929,25567
1229.01,1.324361,556888,26388
1232.5,1.323104,562180,26716
1235.98,1.323400,567975,26973
1239.46,1.328615,574815,26972
1242.94,1.319249,582782,27942
1246.41,1.325478,591476,27955
1251.03,1.325731,604016,28531
1254.5,1.325368,612289,28946
1257.96,1.323579,619125,29390
1261.41,1.326763,624551,29431
1264.86,1.326808,629900,29680
1268.31,1.327512,634345,29841
1271.75,1.332777,638574,29678
1276.33,1.329104,642499,30114
1279.76,1.332281,645905,30053
1283.19,1.335471,648307,29944
1286.61,1.329424,650446,30464
1290.03,1.331433,652132,30402
1293.44,1.332314,653907,30423
1296.85,1.336571,655963,30221
1301.39,1.333340,657349,30511
1304.8,1.331943,657558,30619
1308.19,1.329226,658515,30856
1311.58,1.328896,658804,30893
1314.97,1.332519,659011,30646
1318.36,1.335589,658272,30396
1321.73,1.332363,658022,30611
1326.23,1.333570,657870,30519
1329.6,1.331956,656482,30568
1332.97,1.327486,654926,30811
1336.33,1.325017,653727,30930
1339.69,1.325084,652497,30867
1343.04,1.337867,649913,29853
1346.39,1.331765,647671,30171
1349.73,1.328603,645338,30282
1354.18,1.334074,641175,29710
1357.52,1.328839,638376,29939
1360.85,1.331197,635805,29657
1364.17,1.326161,633413,29890
1367.49,1.328154,631026,29641
1370.81,1.328879,628050,29452
1374.12,1.332608,625034,29060
1378.54,1.328615,620272,29105
1381.84,1.331420,616892,28760
1385.14,1.331924,613613,28574
1388.43,1.323957,611526,29004
1391.72,1.325099,610663,28887
1395.01,1.327476,610634,28728
1398.29,1.325641,611700,28900
1402.66,1.330111,614051,28714
1405.93,1.326833,616268,29036
1409.2,1.332463,617795,28733
1412.46,1.328365,618872,29056
1415.72,1.331155,619795,28913
1418.98,1.335568,620495,28653
1422.23,1.331369,621087,28959
1426.56,1.333253,621375,28847
1429.8,1.334658,621616,28765
1433.04,1.328245,622129,29217
1436.27,1.337732,621526,28558
1439.5,1.334261,621113,28768
1442.72,1.335321,620921,28689
1445.94,1.336807,620270,28561
1450.23,1.331477,618860,28848
1453.44,1.330675,617697,28847
1456.64,1.334237,616264,28545
1459.85,1.338550,614413,28178
1463.04,1.337398,612307,28156
1466.24,1.333367,610032,28313
1469.43,1.337629,607345,27913
1473.67,1.336450,603789,27825
1476.85,1.338470,601175,27576
1480.02,1.337731,597737,27465
1483.19,1.335041,594479,27485
1486.36,1.342862,591232,26847
1489.52,1.338339,587853,26973
1492.68,1.342026,583875,26564
1496.89,1.336538,578062,26634
1500.03,1.334902,574159,26554
1503.18,1.337658,570285,26208
1506.32,1.335533,565444,26113
1509.45,1.339171,560571,25672
1512.58,1.341883,555821,25296
1515.71,1.336006,550344,25388
1519.87,1.342221,543983,24738
1522.99,1.341524,538764,24540
1526.1,1.333944,533692,24737
1529.21,1.334825,527902,24419
1532.32,1.339541,521886,23880
1535.42,1.344231,515888,23352
1538.51,1.339551,509987,23335
1541.6,1.341290,503936,22966
1545.72,1.333781,494694,22938
1548.8,1.336516,488378,22503
1551.88,1.339015,481832,22074
1554.95,1.334340,474989,21996
1558.02,1.332698,467818,21746
1561.08,1.344841,460730,20826
1564.15,1.340514,454170,20735
1568.22,1.342703,444181,20177
1571.27,1.334433,436947,20230
1574.32,1.337847,429598,19734
1577.36,1.340133,422039,19285
1580.4,1.335860,414375,19122
1583.43,1.339649,406354,18589
1586.46,1.332995,398475,18510
1590.49,1.327146,388982,18314
1593.51,1.334463,380708,17625
1596.53,1.333923,372727,17277
1599.54,1.332248,365060,16987
1602.55,1.332645,357543,16622
1605.55,1.337750,349495,16058
1608.55,1.322311,341154,16242
1612.54,1.328104,330877,15544
1615.53,1.329866,322904,15108
1618.51,1.333078,315116,14635
1621.49,1.335402,307217,14192
1624.47,1.317796,299481,14407
1627.44,1.322066,292112,13915
1630.41,1.319707,284245,13614
1634.36,1.316513,274079,13224
1637.32,1.329221,266916,12507
1640.27,1.320728,259612,12405
1643.22,1.318349,251804,12098
1646.16,1.327349,244348,11499
1649.1,1.328060,236703,11121
1652.04,1.324234,228171,10815
1655.95,1.301288,215408,10764
1658.88,1.323240,204937,9736
1661.8,1.314474,193395,9375
1664.72,1.325606,179728,8492
1667.63,1.300664,163642,8189
1670.54,1.312922,146312,7118
1673.44,1.309052,128451,6305
1677.31,1.284964,105080,5452
1680.21,1.319318,88906,4262
1683.1,1.241077,75033,4307
1685.99,1.264588,63520,3454
1688.87,1.259383,53714,2956
1691.75,1.393708,45653,1844
1694.62,1.247606,39137,2213
1697.49,1.262612,33776,1845
1701.31,1.324708,28175,1334