File: ML/samples/unknown/Column 1_078903_20241121_172745.csv
Method:,Column 1,,
Host Date-Time:,21/11/24 @ 17:27:45,,
Header Version:,1,,
System Temp (C):,37.06,,
Detector Temp (C):,36.33,,
Humidity (%):,0.53,,
Lamp PD:,3796,,
Shift Vector Coefficients:,-10.5391,0.0761263,-0.000134223,,
Pixel to Wavelength Coefficients:,1775.68,-0.916766,-0.000235065,,
Serial Number:,5510004,,
Scan Config Name:,Column 1,,
Scan Config Type:,Slew,,
Section 1,,
Start wavelength (nm):,900,,
End wavelength (nm):,1700,,
Pattern Pixel Width (nm):,   7.03,,,,
Exposure (ms):,  0.635,,,,
Digital Resolution:,228,,
Num Repeats:,6,,
PGA Gain:,64,,
Total Measurement Time in sec:,  2.716,,
Wavelength (nm),Absorbance (AU),Reference Signal (unitless),Sample Signal (unitless)
901.51,1.321292,108485,5177
905.376,1.306238,121306,5993
909.237,1.321210,131909,6296
913.095,1.328809,143299,6721
916.948,1.303477,156982,7805
922.079,1.323002,179937,8553
925.923,1.338949,200504,9187
929.762,1.330108,222660,10412
933.597,1.320407,244426,11688
937.427,1.315741,263972,12759
941.254,1.328943,281845,13215
945.076,1.325631,297271,14045
950.165,1.317872,315605,15180
953.978,1.308520,328029,16121
957.786,1.307183,340470,16784
961.59,1.313024,352317,17136
965.389,1.309700,363056,17794
969.185,1.298850,373162,18752
972.976,1.308808,382632,18792
976.763,1.302478,391202,19495
981.806,1.308197,400190,19682
985.583,1.298735,406088,20412
989.355,1.304711,410162,20335
993.124,1.300807,412868,20654
996.888,1.304063,414263,20569
1000.65,1.308086,415476,20439
1004.4,1.313736,415479,20175
1009.41,1.300337,414358,20751
1013.15,1.299542,412923,20717
1016.89,1.313693,411526,19985
1020.63,1.313421,409066,19878
1024.36,1.317921,406777,19563
1028.09,1.295616,404427,20475
1031.82,1.310502,401911,19662
1036.78,1.311790,398410,19433
1040.49,1.308486,396204,19473
1044.2,1.305722,394236,19500
1047.91,1.314716,392042,18994
1051.61,1.312068,389823,19002
1055.31,1.305973,388234,19192
1059,1.305874,387599,19165
1063.92,1.305782,386688,19124
1067.61,1.302536,386598,19263
1071.29,1.314300,387377,18786
1074.96,1.310312,388536,19016
1078.63,1.320714,389855,18629
1082.3,1.307038,391215,19292
1085.96,1.310177,393215,19251
1090.84,1.313177,396270,19267
1094.49,1.315177,398760,19299
1098.14,1.323053,400987,19058
1101.79,1.306072,403477,19941
1105.43,1.318104,406116,19523
1109.06,1.300073,407701,20430
1112.7,1.317221,409859,19743
1117.53,1.324693,412494,19531
1121.15,1.308472,414909,20393
1124.77,1.306421,416559,20571
1128.38,1.322396,418532,19922
1131.99,1.310561,419956,20542
1135.6,1.314224,421946,20466
1139.2,1.315850,423881,20483
1143.99,1.315479,426786,20641
1147.58,1.312380,428617,20878
1151.17,1.323784,431169,20458
1154.75,1.317671,433579,20864
1158.33,1.317282,436264,21012
1161.91,1.316280,439132,21199
1165.48,1.312801,442389,21528
1169.04,1.322749,446101,21217
1173.79,1.322874,451929,21488
1177.34,1.316922,456026,21982
1180.9,1.311305,461306,22526
1184.44,1.314514,467657,22668
1187.99,1.315005,473969,22948
1191.52,1.308199,479856,23600
1195.06,1.322429,487372,23197
1199.76,1.318389,497347,23893
1203.29,1.317557,504311,24274
1206.81,1.320040,511507,24480
1210.33,1.320046,519078,24842
1213.84,1.318361,527163,25327
1217.35,1.319538,534208,25596
1220.85,1.315767,540472,26122
1225.51,1.324516,549929,26049
1229.01,1.319745,556888,26670
1232.5,1.316394,562180,27132
1235.98,1.311364,567975,27731
1239.46,1.323159,574815,27313
1242.94,1.315396,582782,28191
1246.41,1.317733,591476,28458
1251.03,1.320090,604016,28904
1254.5,1.315386,612289,29619
1257.96,1.331557,619125,28855
1261.41,1.316944,624551,30104
1264.86,1.323470,629900,29909
1268.31,1.323947,634345,30087
1271.75,1.323683,638574,30306
1276.33,1.319167,642499,30811
1279.76,1.328626,645905,30307
1283.19,1.321780,648307,30903
1286.61,1.324083,650446,30841
1290.03,1.330862,652132,30442
1293.44,1.328194,653907,30713
1296.85,1.325266,655963,31018
1301.39,1.326364,657349,31005
1304.8,1.331036,657558,30683
1308.19,1.329156,658515,30861
1311.58,1.323115,658804,31307
1314.97,1.331768,659011,30699
1318.36,1.328419,658272,30902
1321.73,1.327538,658022,30953
1326.23,1.330041,657870,30768
1329.6,1.329886,656482,30714
1332.97,1.329096,654926,30697
1336.33,1.327650,653727,30743
1339.69,1.332034,652497,30377
1343.04,1.328157,649913,30528
1346.39,1.326514,647671,30538
1349.73,1.328818,645338,30267
1354.18,1.329465,641175,30027
1357.52,1.320336,638376,30531
1360.85,1.326652,635805,29969
1364.17,1.326437,633413,29871
1367.49,1.324362,631026,29901
1370.81,1.323763,628050,29801
1374.12,1.317626,625034,30080
1378.54,1.322628,620272,29509
1381.84,1.319916,616892,29532
1385.14,1.326816,613613,28912
1388.43,1.327822,611526,28747
1391.72,1.322730,610663,29045
1395.01,1.327536,610634,28724
1398.29,1.319019,611700,29344
1402.66,1.322524,614051,29220
1405.93,1.323258,616268,29276
1409.2,1.335284,617795,28547
1412.46,1.334552,618872,28645
1415.72,1.334896,619795,28665
1418.98,1.327683,620495,29178
1422.23,1.333368,621087,28826
1426.56,1.326042,621375,29330
1429.8,1.332715,621616,28894
1433.04,1.335258,622129,28749
1436.27,1.329701,621526,29091
1439.5,1.333869,621113,28794
1442.72,1.332033,620921,28907
1445.94,1.328374,620270,29121
1450.23,1.331612,618860,28839
1453.44,1.332515,617697,28725
1456.64,1.333416,616264,28599
1459.85,1.336153,614413,28334
1463.04,1.335736,612307,28264
1466.24,1.332111,610032,28395
1469.43,1.330224,607345,28393
1473.67,1.337841,603789,27736
1476.85,1.335722,601175,27751
1480.02,1.336042,597737,27572
1483.19,1.338706,594479,27254
1486.36,1.329953,591232,27657
1489.52,1.330663,587853,27454
1492.68,1.331256,583875,27231
1496.89,1.336245,578062,26652
1500.03,1.327733,574159,26996
1503.18,1.335839,570285,26318
1506.32,1.329537,565444,26476
1509.45,1.336237,560571,25846
1512.58,1.339674,555821,25425
1515.71,1.336588,550344,25354
1519.87,1.332533,543983,25296
1522.99,1.339476,538764,24656
1526.1,1.336285,533692,24604
1529.21,1.337627,527902,24262
1532.32,1.337202,521886,24009
1535.42,1.337038,515888,23742
1538.51,1.329779,509987,23866
1541.6,1.330606,503936,23538
1545.72,1.332590,494694,23001
1548.8,1.336921,488378,22482
1551.88,1.328384,481832,22621
1554.95,1.332980,474989,22065
1558.02,1.333557,467818,21703
1561.08,1.325867,460730,21756
1564.15,1.334875,454170,21006
1568.22,1.336124,444181,20485
1571.27,1.331566,436947,20364
1574.32,1.336616,429598,19790
1577.36,1.329763,422039,19751
1580.4,1.335225,414375,19150
1583.43,1.336042,406354,18744
1586.46,1.327933,398475,18727
1590.49,1.327265,388982,18309
1593.51,1.331785,380708,17734
1596.53,1.318101,372727,17918
1599.54,1.316876,365060,17599
1602.55,1.318507,357543,17172
1605.55,1.326168,349495,16492
1608.55,1.324321,341154,16167
1612.54,1.333983,330877,15335
1615.53,1.323503,322904,15331
1618.51,1.313893,315116,15296
1621.49,1.327908,307217,14439
1624.47,1.327797,299481,14079
1627.44,1.316916,292112,14081
1630.41,1.315043,284245,13761
1634.36,1.309186,274079,13449
1637.32,1.322947,266916,12689
1640.27,1.325657,259612,12265
1643.22,1.313778,251804,12226
1646.16,1.312644,244348,11895
1649.1,1.305313,236703,11719
1652.04,1.313799,228171,11078
1655.95,1.298273,215408,10839
1658.88,1.279042,204937,10779
1661.8,1.283200,193395,10075
1664.72,1.254876,179728,9994
1667.63,1.242202,163642,9369
1670.54,1.232096,146312,8574
1673.44,1.193813,128451,8221
1677.31,1.163946,105080,7204
1680.21,1.188358,88906,5762
1683.1,1.129319,75033,5571
1685.99,1.113069,63520,4896
1688.87,1.096114,53714,4305
1691.75,1.121273,45653,3453
1694.62,1.127800,39137,2916
1697.49,1.142109,33776,2435
1701.31,1.135786,28175,2061