File: ML/samples/unknown/Column 1_078038_20241121_164226.csv
Method:,Column 1,,
Host Date-Time:,21/11/24 @ 16:42:26,,
Header Version:,1,,
System Temp (C):,30.46,,
Detector Temp (C):,25.28,,
Humidity (%):,5.85,,
Lamp PD:,3811,,
Shift Vector Coefficients:,-10.5391,0.0761263,-0.000134223,,
Pixel to Wavelength Coefficients:,1775.68,-0.916766,-0.000235065,,
Serial Number:,5510004,,
Scan Config Name:,Column 1,,
Scan Config Type:,Slew,,
Section 1,,
Start wavelength (nm):,900,,
End wavelength (nm):,1700,,
Pattern Pixel Width (nm):,   7.03,,,,
Exposure (ms):,  0.635,,,,
Digital Resolution:,228,,
Num Repeats:,6,,
PGA Gain:,64,,
Total Measurement Time in sec:,  2.706,,
Wavelength (nm),Absorbance (AU),Reference Signal (unitless),Sample Signal (unitless)
901.51,1.315956,108485,5241
905.376,1.330529,121306,5667
909.237,1.329637,131909,6175
913.095,1.316451,143299,6915
916.948,1.310149,156982,7686
922.079,1.310490,179937,8803
925.923,1.306971,200504,9889
929.762,1.320986,222660,10633
933.597,1.322120,244426,11642
937.427,1.303293,263972,13130
941.254,1.307027,281845,13899
945.076,1.311515,297271,14509
950.165,1.310919,315605,15425
953.978,1.302182,328029,16358
957.786,1.306744,340470,16801
961.59,1.309868,352317,17261
965.389,1.321651,363056,17311
969.185,1.312256,373162,18182
972.976,1.296729,382632,19322
976.763,1.310981,391202,19117
981.806,1.309833,400190,19608
985.583,1.309483,406088,19913
989.355,1.303794,410162,20378
993.124,1.309172,412868,20260
996.888,1.311388,414263,20225
1000.65,1.316020,415476,20069
1004.4,1.309111,415479,20391
1009.41,1.312993,414358,20155
1013.15,1.310840,412923,20185
1016.89,1.306580,411526,20315
1020.63,1.307583,409066,20147
1024.36,1.315155,406777,19688
1028.09,1.305550,404427,20012
1031.82,1.313561,401911,19524
1036.78,1.320732,398410,19037
1040.49,1.305176,396204,19622
1044.2,1.308649,394236,19369
1047.91,1.313985,392042,19026
1051.61,1.309062,389823,19134
1055.31,1.319627,388234,18598
1059,1.312588,387599,18871
1063.92,1.309431,386688,18964
1067.61,1.317770,386598,18599
1071.29,1.308604,387377,19034
1074.96,1.325985,388536,18342
1078.63,1.320364,389855,18644
1082.3,1.303831,391215,19435
1085.96,1.316815,393215,18959
1090.84,1.320909,396270,18927
1094.49,1.318883,398760,19135
1098.14,1.318880,400987,19242
1101.79,1.302493,403477,20106
1105.43,1.320490,406116,19416
1109.06,1.320307,407701,19500
1112.7,1.321710,409859,19540
1117.53,1.319016,412494,19788
1121.15,1.317575,414909,19970
1124.77,1.315315,416559,20154
1128.38,1.317303,418532,20157
1131.99,1.320289,419956,20087
1135.6,1.315797,421946,20392
1139.2,1.327780,423881,19928
1143.99,1.323335,426786,20271
1147.58,1.320761,428617,20479
1151.17,1.331020,431169,20120
1154.75,1.315491,433579,20969
1158.33,1.322501,436264,20761
1161.91,1.327906,439132,20639
1165.48,1.324227,442389,20969
1169.04,1.324123,446101,21150
1173.79,1.314329,451929,21915
1177.34,1.320772,456026,21788
1180.9,1.319558,461306,22102
1184.44,1.316762,467657,22551
1187.99,1.315668,473969,22913
1191.52,1.321029,479856,22913
1195.06,1.323798,487372,23124
1199.76,1.328131,497347,23363
1203.29,1.315113,504311,24411
1206.81,1.329238,511507,23967
1210.33,1.321921,519078,24735
1213.84,1.324979,527163,24944
1217.35,1.326775,534208,25173
1220.85,1.325535,540472,25541
1225.51,1.332457,549929,25577
1229.01,1.326821,556888,26239
1232.5,1.323250,562180,26707
1235.98,1.327688,567975,26708
1239.46,1.324241,574815,27245
1242.94,1.318798,582782,27971
1246.41,1.327736,591476,27810
1251.03,1.325777,604016,28528
1254.5,1.324184,612289,29025
1257.96,1.327274,619125,29141
1261.41,1.328730,624551,29298
1264.86,1.330437,629900,29433
1268.31,1.327934,634345,29812
1271.75,1.327309,638574,30054
1276.33,1.331229,642499,29967
1279.76,1.328568,645905,30311
1283.19,1.331084,648307,30248
1286.61,1.331181,650446,30341
1290.03,1.330221,652132,30487
1293.44,1.331416,653907,30486
1296.85,1.330406,655963,30653
1301.39,1.337085,657349,30249
1304.8,1.332198,657558,30601
1308.19,1.331640,658515,30685
1311.58,1.337758,658804,30269
1314.97,1.336605,659011,30359
1318.36,1.333224,658272,30562
1321.73,1.331767,658022,30653
1326.23,1.340672,657870,30024
1329.6,1.332084,656482,30559
1332.97,1.334535,654926,30315
1336.33,1.334269,653727,30278
1339.69,1.332348,652497,30355
1343.04,1.328570,649913,30499
1346.39,1.330471,647671,30261
1349.73,1.335236,645338,29823
1354.18,1.329580,641175,30019
1357.52,1.331327,638376,29768
1360.85,1.331504,635805,29636
1364.17,1.336364,633413,29196
1367.49,1.330873,631026,29456
1370.81,1.331305,628050,29288
1374.12,1.335984,625034,28835
1378.54,1.328450,620272,29116
1381.84,1.333661,616892,28612
1385.14,1.328442,613613,28804
1388.43,1.327973,611526,28737
1391.72,1.327980,610663,28696
1395.01,1.327808,610634,28706
1398.29,1.332197,611700,28467
1402.66,1.328390,614051,28828
1405.93,1.332660,616268,28649
1409.2,1.334478,617795,28600
1412.46,1.329008,618872,29013
1415.72,1.336414,619795,28565
1418.98,1.330745,620495,28973
1422.23,1.331204,621087,28970
1426.56,1.335366,621375,28707
1429.8,1.332549,621616,28905
1433.04,1.333178,622129,28887
1436.27,1.339713,621526,28428
1439.5,1.327862,621113,29195
1442.72,1.336200,620921,28631
1445.94,1.335305,620270,28660
1450.23,1.336489,618860,28517
1453.44,1.329412,617697,28931
1456.64,1.338933,616264,28238
1459.85,1.337119,614413,28271
1463.04,1.336089,612307,28241
1466.24,1.340403,610032,27858
1469.43,1.331051,607345,28339
1473.67,1.341331,603789,27514
1476.85,1.338942,601175,27546
1480.02,1.340650,597737,27281
1483.19,1.338770,594479,27250
1486.36,1.341844,591232,26910
1489.52,1.341215,587853,26795
1492.68,1.341667,583875,26586
1496.89,1.336408,578062,26642
1500.03,1.342908,574159,26069
1503.18,1.340902,570285,26013
1506.32,1.342237,565444,25713
1509.45,1.339560,560571,25649
1512.58,1.335678,555821,25660
1515.71,1.338717,550344,25230
1519.87,1.341134,543983,24800
1522.99,1.333354,538764,25006
1526.1,1.342131,533692,24275
1529.21,1.344828,527902,23863
1532.32,1.339832,521886,23864
1535.42,1.337093,515888,23739
1538.51,1.341080,509987,23253
1541.6,1.343736,503936,22837
1545.72,1.332496,494694,23006
1548.8,1.340782,488378,22283
1551.88,1.341164,481832,21965
1554.95,1.335685,474989,21928
1558.02,1.335643,467818,21599
1561.08,1.337295,460730,21191
1564.15,1.338738,454170,20820
1568.22,1.334220,444181,20575
1571.27,1.335680,436947,20172
1574.32,1.338376,429598,19710
1577.36,1.331460,422039,19674
1580.4,1.339006,414375,18984
1583.43,1.336970,406354,18704
1586.46,1.330375,398475,18622
1590.49,1.346495,388982,17516
1593.51,1.330563,380708,17784
1596.53,1.335560,372727,17212
1599.54,1.349006,365060,16344
1602.55,1.322445,357543,17017
1605.55,1.321141,349495,16684
1608.55,1.332155,341154,15878
1612.54,1.328943,330877,15514
1615.53,1.337025,322904,14861
1618.51,1.318804,315116,15124
1621.49,1.332291,307217,14294
1624.47,1.336648,299481,13795
1627.44,1.326647,292112,13769
1630.41,1.326167,284245,13413
1634.36,1.327252,274079,12901
1637.32,1.327108,266916,12568
1640.27,1.328464,259612,12186
1643.22,1.319283,251804,12072
1646.16,1.317897,244348,11752
1649.1,1.337176,236703,10890
1652.04,1.318212,228171,10966
1655.95,1.314229,215408,10448
1658.88,1.314190,204937,9941
1661.8,1.316284,193395,9336
1664.72,1.330595,179728,8395
1667.63,1.346486,163642,7369
1670.54,1.331050,146312,6827
1673.44,1.334805,128451,5942
1677.31,1.363604,105080,4549
1680.21,1.381082,88906,3697
1683.1,1.340085,75033,3429
1685.99,1.310989,63520,3104
1688.87,1.300497,53714,2689
1691.75,1.315470,45653,2208
1694.62,1.339977,39137,1789
1697.49,1.323675,33776,1603
1701.31,1.507360,28175,876