File: ML/samples/unknown/Column 1_078780_20241121_172149.csv
Method:,Column 1,,
Host Date-Time:,21/11/24 @ 17:21:49,,
Header Version:,1,,
System Temp (C):,36.78,,
Detector Temp (C):,35.19,,
Humidity (%):,1.08,,
Lamp PD:,3798,,
Shift Vector Coefficients:,-10.5391,0.0761263,-0.000134223,,
Pixel to Wavelength Coefficients:,1775.68,-0.916766,-0.000235065,,
Serial Number:,5510004,,
Scan Config Name:,Column 1,,
Scan Config Type:,Slew,,
Section 1,,
Start wavelength (nm):,900,,
End wavelength (nm):,1700,,
Pattern Pixel Width (nm):,   7.03,,,,
Exposure (ms):,  0.635,,,,
Digital Resolution:,228,,
Num Repeats:,6,,
PGA Gain:,64,,
Total Measurement Time in sec:,  2.704,,
Wavelength (nm),Absorbance (AU),Reference Signal (unitless),Sample Signal (unitless)
901.51,1.310848,108485,5303
905.376,1.351167,121306,5404
909.237,1.303569,131909,6557
913.095,1.332313,143299,6667
916.948,1.339725,156982,7180
922.079,1.319261,179937,8627
925.923,1.313787,200504,9735
929.762,1.318543,222660,10693
933.597,1.322754,244426,11625
937.427,1.308618,263972,12970
941.254,1.314591,281845,13659
945.076,1.313044,297271,14458
950.165,1.320570,315605,15086
953.978,1.311955,328029,15994
957.786,1.318375,340470,16357
961.59,1.306659,352317,17389
965.389,1.311853,363056,17706
969.185,1.309921,373162,18280
972.976,1.307562,382632,18846
976.763,1.303414,391202,19453
981.806,1.307558,400190,19711
985.583,1.308721,406088,19948
989.355,1.307604,410162,20200
993.124,1.308936,412868,20271
996.888,1.303219,414263,20609
1000.65,1.312035,415476,20254
1004.4,1.306308,415479,20523
1009.41,1.307873,414358,20394
1013.15,1.310883,412923,20183
1016.89,1.305278,411526,20376
1020.63,1.306055,409066,20218
1024.36,1.315420,406777,19676
1028.09,1.307093,404427,19941
1031.82,1.298349,401911,20220
1036.78,1.316712,398410,19214
1040.49,1.306750,396204,19551
1044.2,1.300211,394236,19749
1047.91,1.300921,392042,19607
1051.61,1.307725,389823,19193
1055.31,1.308424,388234,19084
1059,1.303050,387599,19290
1063.92,1.317894,386688,18598
1067.61,1.312802,386598,18813
1071.29,1.313307,387377,18829
1074.96,1.307739,388536,19129
1078.63,1.305121,389855,19310
1082.3,1.307106,391215,19289
1085.96,1.308353,393215,19332
1090.84,1.311714,396270,19332
1094.49,1.307769,398760,19631
1098.14,1.311695,400987,19563
1101.79,1.312545,403477,19646
1105.43,1.307208,406116,20019
1109.06,1.316537,407701,19670
1112.7,1.312104,409859,19977
1117.53,1.316652,412494,19896
1121.15,1.309132,414909,20362
1124.77,1.314454,416559,20194
1128.38,1.321264,418532,19974
1131.99,1.308747,419956,20628
1135.6,1.311875,421946,20577
1139.2,1.313651,423881,20587
1143.99,1.311688,426786,20822
1147.58,1.311113,428617,20939
1151.17,1.317797,431169,20742
1154.75,1.319694,433579,20767
1158.33,1.317551,436264,20999
1161.91,1.311897,439132,21414
1165.48,1.311129,442389,21611
1169.04,1.321156,446101,21295
1173.79,1.305890,451929,22345
1177.34,1.319797,456026,21837
1180.9,1.311768,461306,22502
1184.44,1.316531,467657,22563
1187.99,1.309869,473969,23221
1191.52,1.313159,479856,23332
1195.06,1.316516,487372,23515
1199.76,1.312898,497347,24197
1203.29,1.317110,504311,24299
1206.81,1.316999,511507,24652
1210.33,1.317519,519078,24987
1213.84,1.324144,527163,24992
1217.35,1.315721,534208,25822
1220.85,1.323737,540472,25647
1225.51,1.323600,549929,26104
1229.01,1.322031,556888,26530
1232.5,1.313745,562180,27298
1235.98,1.317070,567975,27369
1239.46,1.318997,574815,27576
1242.94,1.319995,582782,27894
1246.41,1.319124,591476,28367
1251.03,1.324227,604016,28630
1254.5,1.324933,612289,28975
1257.96,1.323815,619125,29374
1261.41,1.320086,624551,29887
1264.86,1.324487,629900,29839
1268.31,1.320840,634345,30303
1271.75,1.321496,638574,30459
1276.33,1.320564,642499,30712
1279.76,1.328153,645905,30340
1283.19,1.326357,648307,30579
1286.61,1.328954,650446,30497
1290.03,1.325616,652132,30812
1293.44,1.322086,653907,31148
1296.85,1.323672,655963,31132
1301.39,1.327093,657349,30953
1304.8,1.324797,657558,31127
1308.19,1.323646,658515,31255
1311.58,1.326765,658804,31045
1314.97,1.328316,659011,30944
1318.36,1.327506,658272,30967
1321.73,1.325997,658022,31063
1326.23,1.326414,657870,31026
1329.6,1.325259,656482,31043
1332.97,1.328955,654926,30707
1336.33,1.324820,653727,30944
1339.69,1.329113,652497,30582
1343.04,1.327489,649913,30575
1346.39,1.329711,647671,30314
1349.73,1.322196,645338,30732
1354.18,1.327934,641175,30133
1357.52,1.324696,638376,30226
1360.85,1.325219,635805,30068
1364.17,1.323351,633413,30084
1367.49,1.318075,631026,30337
1370.81,1.320164,628050,30049
1374.12,1.327941,625034,29374
1378.54,1.323984,620272,29417
1381.84,1.320711,616892,29478
1385.14,1.322571,613613,29196
1388.43,1.327188,611526,28789
1391.72,1.323898,610663,28967
1395.01,1.320666,610634,29182
1398.29,1.325505,611700,28909
1402.66,1.325118,614051,29046
1405.93,1.328556,616268,28921
1409.2,1.326191,617795,29151
1412.46,1.336802,618872,28497
1415.72,1.326954,619795,29194
1418.98,1.332111,620495,28882
1422.23,1.329259,621087,29100
1426.56,1.328373,621375,29173
1429.8,1.324998,621616,29412
1433.04,1.330600,622129,29059
1436.27,1.329716,621526,29090
1439.5,1.326110,621113,29313
1442.72,1.330369,620921,29018
1445.94,1.331052,620270,28942
1450.23,1.324325,618860,29327
1453.44,1.332470,617697,28728
1456.64,1.330585,616264,28786
1459.85,1.331548,614413,28636
1463.04,1.330057,612307,28636
1466.24,1.330432,610032,28505
1469.43,1.336479,607345,27987
1473.67,1.329959,603789,28244
1476.85,1.331905,601175,27996
1480.02,1.336058,597737,27571
1483.19,1.329857,594479,27815
1486.36,1.336790,591232,27225
1489.52,1.323198,587853,27930
1492.68,1.332550,583875,27150
1496.89,1.328669,578062,27121
1500.03,1.336180,574159,26476
1503.18,1.333798,570285,26442
1506.32,1.338537,565444,25933
1509.45,1.336170,560571,25850
1512.58,1.334445,555821,25733
1515.71,1.335032,550344,25445
1519.87,1.333892,543983,25217
1522.99,1.330308,538764,25182
1526.1,1.335262,533692,24662
1529.21,1.334683,527902,24427
1532.32,1.332953,521886,24245
1535.42,1.329243,515888,24172
1538.51,1.328798,509987,23920
1541.6,1.332529,503936,23434
1545.72,1.336993,494694,22769
1548.8,1.333362,488378,22667
1551.88,1.328154,481832,22633
1554.95,1.337530,474989,21835
1558.02,1.336872,467818,21538
1561.08,1.328129,460730,21643
1564.15,1.329880,454170,21249
1568.22,1.327871,444181,20878
1571.27,1.337773,436947,20075
1574.32,1.327346,429598,20217
1577.36,1.329302,422039,19772
1580.4,1.331746,414375,19304
1583.43,1.333985,406354,18833
1586.46,1.327215,398475,18758
1590.49,1.322993,388982,18490
1593.51,1.324163,380708,18048
1596.53,1.324745,372727,17646
1599.54,1.316926,365060,17597
1602.55,1.330092,357543,16720
1605.55,1.315297,349495,16910
1608.55,1.330217,341154,15949
1612.54,1.319227,330877,15865
1615.53,1.313201,322904,15699
1618.51,1.334743,315116,14579
1621.49,1.323866,307217,14574
1624.47,1.308255,299481,14727
1627.44,1.322878,292112,13889
1630.41,1.315769,284245,13738
1634.36,1.312525,274079,13346
1637.32,1.317100,266916,12861
1640.27,1.307183,259612,12798
1643.22,1.295723,251804,12745
1646.16,1.314914,244348,11833
1649.1,1.310720,236703,11574
1652.04,1.310091,228171,11173
1655.95,1.294245,215408,10940
1658.88,1.294378,204937,10405
1661.8,1.270583,193395,10372
1664.72,1.285759,179728,9308
1667.63,1.266952,163642,8850
1670.54,1.236219,146312,8493
1673.44,1.203373,128451,8042
1677.31,1.179723,105080,6947
1680.21,1.153607,88906,6242
1683.1,1.158998,75033,5203
1685.99,1.165521,63520,4339
1688.87,1.153171,53714,3775
1691.75,1.206610,45653,2837
1694.62,1.132894,39137,2882
1697.49,1.123091,33776,2544
1701.31,1.169969,28175,1905