File: ML/samples/unknown/Column 1_078832_20241121_172419.csv
Method:,Column 1,,
Host Date-Time:,21/11/24 @ 17:24:19,,
Header Version:,1,,
System Temp (C):,37.4,,
Detector Temp (C):,35.74,,
Humidity (%):,1.03,,
Lamp PD:,3797,,
Shift Vector Coefficients:,-10.5391,0.0761263,-0.000134223,,
Pixel to Wavelength Coefficients:,1775.68,-0.916766,-0.000235065,,
Serial Number:,5510004,,
Scan Config Name:,Column 1,,
Scan Config Type:,Slew,,
Section 1,,
Start wavelength (nm):,900,,
End wavelength (nm):,1700,,
Pattern Pixel Width (nm):,   7.03,,,,
Exposure (ms):,  0.635,,,,
Digital Resolution:,228,,
Num Repeats:,6,,
PGA Gain:,64,,
Total Measurement Time in sec:,  2.718,,
Wavelength (nm),Absorbance (AU),Reference Signal (unitless),Sample Signal (unitless)
901.51,1.320035,108485,5192
905.376,1.325803,121306,5729
909.237,1.335728,131909,6089
913.095,1.322969,143299,6812
916.948,1.332051,156982,7308
922.079,1.336042,179937,8300
925.923,1.334154,200504,9289
929.762,1.347338,222660,10007
933.597,1.320444,244426,11687
937.427,1.313873,263972,12814
941.254,1.317911,281845,13555
945.076,1.311994,297271,14493
950.165,1.324067,315605,14965
953.978,1.306961,328029,16179
957.786,1.310743,340470,16647
961.59,1.307284,352317,17364
965.389,1.320299,363056,17365
969.185,1.304069,373162,18528
972.976,1.306411,382632,18896
976.763,1.304443,391202,19407
981.806,1.304440,400190,19853
985.583,1.306354,406088,20057
989.355,1.308918,410162,20139
993.124,1.307418,412868,20342
996.888,1.304295,414263,20558
1000.65,1.305438,415476,20564
1004.4,1.309345,415479,20380
1009.41,1.313856,414358,20115
1013.15,1.301623,412923,20618
1016.89,1.307072,411526,20292
1020.63,1.306593,409066,20193
1024.36,1.309022,406777,19968
1028.09,1.297125,404427,20404
1031.82,1.311542,401911,19615
1036.78,1.313268,398410,19367
1040.49,1.301517,396204,19788
1044.2,1.309479,394236,19332
1047.91,1.315174,392042,18974
1051.61,1.304276,389823,19346
1055.31,1.305001,388234,19235
1059,1.306373,387599,19143
1063.92,1.306396,386688,19097
1067.61,1.312409,386598,18830
1071.29,1.301543,387377,19346
1074.96,1.310861,388536,18992
1078.63,1.309552,389855,19114
1082.3,1.317035,391215,18853
1085.96,1.317319,393215,18937
1090.84,1.308113,396270,19493
1094.49,1.312105,398760,19436
1098.14,1.322506,400987,19082
1101.79,1.323673,403477,19149
1105.43,1.316217,406116,19608
1109.06,1.318064,407701,19601
1112.7,1.317155,409859,19746
1117.53,1.319323,412494,19774
1121.15,1.316749,414909,20008
1124.77,1.310579,416559,20375
1128.38,1.320373,418532,20015
1131.99,1.322434,419956,19988
1135.6,1.318146,421946,20282
1139.2,1.321141,423881,20235
1143.99,1.318520,426786,20497
1147.58,1.310823,428617,20953
1151.17,1.315250,431169,20864
1154.75,1.312889,433579,21095
1158.33,1.316312,436264,21059
1161.91,1.316813,439132,21173
1165.48,1.315066,442389,21416
1169.04,1.313715,446101,21663
1173.79,1.318410,451929,21710
1177.34,1.322250,456026,21714
1180.9,1.319341,461306,22113
1184.44,1.317648,467657,22505
1187.99,1.313645,473969,23020
1191.52,1.309618,479856,23523
1195.06,1.314470,487372,23626
1199.76,1.317826,497347,23924
1203.29,1.320663,504311,24101
1206.81,1.321035,511507,24424
1210.33,1.314885,519078,25139
1213.84,1.319254,527163,25275
1217.35,1.323185,534208,25382
1220.85,1.322637,540472,25712
1225.51,1.321409,549929,26236
1229.01,1.318769,556888,26730
1232.5,1.316410,562180,27131
1235.98,1.319968,567975,27187
1239.46,1.315999,574815,27767
1242.94,1.317527,582782,28053
1246.41,1.321827,591476,28191
1251.03,1.321083,604016,28838
1254.5,1.324349,612289,29014
1257.96,1.319842,619125,29644
1261.41,1.325010,624551,29550
1264.86,1.322976,629900,29943
1268.31,1.323254,634345,30135
1271.75,1.321995,638574,30424
1276.33,1.325042,642499,30397
1279.76,1.327452,645905,30389
1283.19,1.331702,648307,30205
1286.61,1.323956,650446,30850
1290.03,1.321394,652132,31113
1293.44,1.321194,653907,31212
1296.85,1.326429,655963,30935
1301.39,1.323210,657349,31231
1304.8,1.330047,657558,30753
1308.19,1.327372,658515,30988
1311.58,1.327773,658804,30973
1314.97,1.325602,659011,31138
1318.36,1.323153,658272,31279
1321.73,1.327271,658022,30972
1326.23,1.324682,657870,31150
1329.6,1.327602,656482,30876
1332.97,1.334578,654926,30312
1336.33,1.328753,653727,30665
1339.69,1.328403,652497,30632
1343.04,1.323445,649913,30861
1346.39,1.331606,647671,30182
1349.73,1.330183,645338,30172
1354.18,1.321809,641175,30561
1357.52,1.324452,638376,30243
1360.85,1.326130,635805,30005
1364.17,1.324132,633413,30030
1367.49,1.323027,631026,29993
1370.81,1.327231,628050,29564
1374.12,1.328754,625034,29319
1378.54,1.319548,620272,29719
1381.84,1.325049,616892,29185
1385.14,1.319060,613613,29433
1388.43,1.327203,611526,28788
1391.72,1.325084,610663,28888
1395.01,1.323368,610634,29001
1398.29,1.324380,611700,28984
1402.66,1.327427,614051,28892
1405.93,1.330257,616268,28808
1409.2,1.324155,617795,29288
1412.46,1.334113,618872,28674
1415.72,1.330495,619795,28957
1418.98,1.332472,620495,28858
1422.23,1.328827,621087,29129
1426.56,1.333765,621375,28813
1429.8,1.328675,621616,29164
1433.04,1.325932,622129,29373
1436.27,1.332967,621526,28873
1439.5,1.332664,621113,28874
1442.72,1.329711,620921,29062
1445.94,1.328837,620270,29090
1450.23,1.333559,618860,28710
1453.44,1.333530,617697,28658
1456.64,1.332839,616264,28637
1459.85,1.331715,614413,28625
1463.04,1.325981,612307,28906
1466.24,1.334180,610032,28260
1469.43,1.333109,607345,28205
1473.67,1.332937,603789,28051
1476.85,1.332029,601175,27988
1480.02,1.332091,597737,27824
1483.19,1.331343,594479,27720
1486.36,1.330597,591232,27616
1489.52,1.334301,587853,27225
1492.68,1.330062,583875,27306
1496.89,1.332206,578062,26901
1500.03,1.329006,574159,26917
1503.18,1.331897,570285,26558
1506.32,1.335134,565444,26137
1509.45,1.332340,560571,26079
1512.58,1.334242,555821,25745
1515.71,1.335185,550344,25436
1519.87,1.327210,543983,25608
1522.99,1.335670,538764,24873
1526.1,1.334102,533692,24728
1529.21,1.336750,527902,24311
1532.32,1.341199,521886,23789
1535.42,1.332236,515888,24006
1538.51,1.338417,509987,23396
1541.6,1.338575,503936,23110
1545.72,1.329598,494694,23160
1548.8,1.328390,488378,22928
1551.88,1.330000,481832,22537
1554.95,1.337530,474989,21835
1558.02,1.327950,467818,21985
1561.08,1.333195,460730,21392
1564.15,1.331067,454170,21191
1568.22,1.327684,444181,20887
1571.27,1.325887,436947,20632
1574.32,1.323901,429598,20378
1577.36,1.339705,422039,19304
1580.4,1.330398,414375,19364
1583.43,1.323910,406354,19275
1586.46,1.331847,398475,18559
1590.49,1.317461,388982,18727
1593.51,1.325416,380708,17996
1596.53,1.331641,372727,17368
1599.54,1.329597,365060,17091
1602.55,1.316816,357543,17239
1605.55,1.319763,349495,16737
1608.55,1.317895,341154,16408
1612.54,1.322689,330877,15739
1615.53,1.310829,322904,15785
1618.51,1.322263,315116,15004
1621.49,1.317947,307217,14774
1624.47,1.314163,299481,14528
1627.44,1.314272,292112,14167
1630.41,1.309679,284245,13932
1634.36,1.313078,274079,13329
1637.32,1.313468,266916,12969
1640.27,1.308270,259612,12766
1643.22,1.296166,251804,12732
1646.16,1.304685,244348,12115
1649.1,1.294986,236703,12001
1652.04,1.291190,228171,11670
1655.95,1.293729,215408,10953
1658.88,1.283822,204937,10661
1661.8,1.295175,193395,9801
1664.72,1.251284,179728,10077
1667.63,1.233937,163642,9549
1670.54,1.219664,146312,8823
1673.44,1.200896,128451,8088
1677.31,1.186782,105080,6835
1680.21,1.142073,88906,6410
1683.1,1.140612,75033,5428
1685.99,1.129613,63520,4713
1688.87,1.173303,53714,3604
1691.75,1.190384,45653,2945
1694.62,1.189639,39137,2529
1697.49,1.209711,33776,2084
1701.31,1.164757,28175,1928