File: ML/samples/unknown/Column 1_078942_20241121_172937.csv
Method:,Column 1,,
Host Date-Time:,21/11/24 @ 17:29:37,,
Header Version:,1,,
System Temp (C):,37.65,,
Detector Temp (C):,36.6,,
Humidity (%):,0.48,,
Lamp PD:,3795,,
Shift Vector Coefficients:,-10.5391,0.0761263,-0.000134223,,
Pixel to Wavelength Coefficients:,1775.68,-0.916766,-0.000235065,,
Serial Number:,5510004,,
Scan Config Name:,Column 1,,
Scan Config Type:,Slew,,
Section 1,,
Start wavelength (nm):,900,,
End wavelength (nm):,1700,,
Pattern Pixel Width (nm):,   7.03,,,,
Exposure (ms):,  0.635,,,,
Digital Resolution:,228,,
Num Repeats:,6,,
PGA Gain:,64,,
Total Measurement Time in sec:,  2.717,,
Wavelength (nm),Absorbance (AU),Reference Signal (unitless),Sample Signal (unitless)
901.51,1.313889,108485,5266
905.376,1.346054,121306,5468
909.237,1.316954,131909,6358
913.095,1.323798,143299,6799
916.948,1.354803,156982,6935
922.079,1.312914,179937,8754
925.923,1.331823,200504,9339
929.762,1.321068,222660,10631
933.597,1.326921,244426,11514
937.427,1.325169,263972,12485
941.254,1.313829,281845,13683
945.076,1.318120,297271,14290
950.165,1.316701,315605,15221
953.978,1.313451,328029,15939
957.786,1.305556,340470,16847
961.59,1.308687,352317,17308
965.389,1.317631,363056,17472
969.185,1.310873,373162,18240
972.976,1.310383,382632,18724
976.763,1.309960,391202,19162
981.806,1.304090,400190,19869
985.583,1.317385,406088,19554
989.355,1.314015,410162,19904
993.124,1.301438,412868,20624
996.888,1.311796,414263,20206
1000.65,1.301235,415476,20764
1004.4,1.303608,415479,20651
1009.41,1.304775,414358,20540
1013.15,1.309744,412923,20236
1016.89,1.312825,411526,20025
1020.63,1.309051,409066,20079
1024.36,1.302203,406777,20284
1028.09,1.312572,404427,19691
1031.82,1.314385,401911,19487
1036.78,1.303950,398410,19787
1040.49,1.300728,396204,19824
1044.2,1.304854,394236,19539
1047.91,1.302053,392042,19556
1051.61,1.312342,389823,18990
1055.31,1.312402,388234,18910
1059,1.298214,387599,19506
1063.92,1.315705,386688,18692
1067.61,1.306317,386598,19096
1071.29,1.320118,387377,18536
1074.96,1.314189,388536,18847
1078.63,1.316330,389855,18818
1082.3,1.319484,391215,18747
1085.96,1.315762,393215,19005
1090.84,1.314486,396270,19209
1094.49,1.318452,398760,19154
1098.14,1.316786,400987,19335
1101.79,1.314361,403477,19564
1105.43,1.319753,406116,19449
1109.06,1.317399,407701,19631
1112.7,1.310260,409859,20062
1117.53,1.302669,412494,20547
1121.15,1.310115,414909,20316
1124.77,1.321675,416559,19861
1128.38,1.313677,418532,20326
1131.99,1.318627,419956,20164
1135.6,1.328219,421946,19817
1139.2,1.316891,423881,20434
1143.99,1.323335,426786,20271
1147.58,1.319998,428617,20515
1151.17,1.318048,431169,20730
1154.75,1.315656,433579,20961
1158.33,1.324619,436264,20660
1161.91,1.319735,439132,21031
1165.48,1.317649,442389,21289
1169.04,1.317864,446101,21457
1173.79,1.316574,451929,21802
1177.34,1.315995,456026,22029
1180.9,1.312695,461306,22454
1184.44,1.313519,467657,22720
1187.99,1.328049,473969,22269
1191.52,1.321105,479856,22909
1195.06,1.314967,487372,23599
1199.76,1.322443,497347,23671
1203.29,1.327968,504311,23699
1206.81,1.318853,511507,24547
1210.33,1.330772,519078,24236
1213.84,1.313179,527163,25631
1217.35,1.318335,534208,25667
1220.85,1.318569,540472,25954
1225.51,1.321690,549929,26219
1229.01,1.321687,556888,26551
1232.5,1.322682,562180,26742
1235.98,1.324674,567975,26894
1239.46,1.325183,574815,27186
1242.94,1.321133,582782,27821
1246.41,1.320166,591476,28299
1251.03,1.320166,604016,28899
1254.5,1.324918,612289,28976
1257.96,1.324807,619125,29307
1261.41,1.328493,624551,29314
1264.86,1.326983,629900,29668
1268.31,1.327439,634345,29846
1271.75,1.325104,638574,30207
1276.33,1.328513,642499,30155
1279.76,1.320829,645905,30856
1283.19,1.328879,648307,30402
1286.61,1.327178,650446,30622
1290.03,1.327098,652132,30707
1293.44,1.327388,653907,30770
1296.85,1.327286,655963,30874
1301.39,1.328456,657349,30856
1304.8,1.327919,657558,30904
1308.19,1.329156,658515,30861
1311.58,1.330318,658804,30792
1314.97,1.330935,659011,30758
1318.36,1.325882,658272,31083
1321.73,1.328127,658022,30911
1326.23,1.327844,657870,30924
1329.6,1.328729,656482,30796
1332.97,1.331878,654926,30501
1336.33,1.332152,653727,30426
1339.69,1.330065,652497,30515
1343.04,1.332044,649913,30256
1346.39,1.328852,647671,30374
1349.73,1.324222,645338,30589
1354.18,1.331102,641175,29914
1357.52,1.331283,638376,29771
1360.85,1.327537,635805,29908
1364.17,1.322587,633413,30137
1367.49,1.325321,631026,29835
1370.81,1.325267,628050,29698
1374.12,1.322314,625034,29757
1378.54,1.330904,620272,28952
1381.84,1.327257,616892,29037
1385.14,1.329015,613613,28766
1388.43,1.324886,611526,28942
1391.72,1.325611,610663,28853
1395.01,1.324958,610634,28895
1398.29,1.325250,611700,28926
1402.66,1.322673,614051,29210
1405.93,1.336054,616268,28426
1409.2,1.323695,617795,29319
1412.46,1.328993,618872,29014
1415.72,1.330165,619795,28979
1418.98,1.331525,620495,28921
1422.23,1.327844,621087,29195
1426.56,1.331735,621375,28948
1429.8,1.334311,621616,28788
1433.04,1.331108,622129,29025
1436.27,1.327764,621526,29221
1439.5,1.331177,621113,28973
1442.72,1.327683,620921,29198
1445.94,1.333852,620270,28756
1450.23,1.335393,618860,28589
1453.44,1.337274,617697,28412
1456.64,1.330013,616264,28824
1459.85,1.333402,614413,28514
1463.04,1.333880,612307,28385
1466.24,1.338769,610032,27963
1469.43,1.331450,607345,28313
1473.67,1.338061,603789,27722
1476.85,1.330295,601175,28100
1480.02,1.332465,597737,27800
1483.19,1.339999,594479,27173
1486.36,1.335452,591232,27309
1489.52,1.332391,587853,27345
1492.68,1.335584,583875,26961
1496.89,1.334342,578062,26769
1500.03,1.338120,574159,26358
1503.18,1.339518,570285,26096
1506.32,1.333691,565444,26224
1509.45,1.332256,560571,26084
1512.58,1.326054,555821,26235
1515.71,1.340390,550344,25133
1519.87,1.339334,543983,24903
1522.99,1.337280,538764,24781
1526.1,1.336285,533692,24604
1529.21,1.333671,527902,24484
1532.32,1.339123,521886,23903
1535.42,1.335231,515888,23841
1538.51,1.335826,509987,23536
1541.6,1.337843,503936,23149
1545.72,1.331741,494694,23046
1548.8,1.335821,488378,22539
1551.88,1.333657,481832,22348
1554.95,1.333886,474989,22019
1558.02,1.327891,467818,21988
1561.08,1.338814,460730,21117
1564.15,1.339719,454170,20773
1568.22,1.333040,444181,20631
1571.27,1.325509,436947,20650
1574.32,1.334253,429598,19898
1577.36,1.329060,422039,19783
1580.4,1.332895,414375,19253
1583.43,1.332029,406354,18918
1586.46,1.334664,398475,18439
1590.49,1.334295,388982,18015
1593.51,1.328006,380708,17889
1596.53,1.324130,372727,17671
1599.54,1.331252,365060,17026
1602.55,1.329858,357543,16729
1605.55,1.319919,349495,16731
1608.55,1.320523,341154,16309
1612.54,1.321477,330877,15783
1615.53,1.327287,322904,15198
1618.51,1.315144,315116,15252
1621.49,1.327337,307217,14458
1624.47,1.327458,299481,14090
1627.44,1.314946,292112,14145
1630.41,1.324616,284245,13461
1634.36,1.312557,274079,13345
1637.32,1.321239,266916,12739
1640.27,1.323326,259612,12331
1643.22,1.327308,251804,11851
1646.16,1.318933,244348,11724
1649.1,1.318214,236703,11376
1652.04,1.296506,228171,11528
1655.95,1.313398,215408,10468
1658.88,1.298235,204937,10313
1661.8,1.281007,193395,10126
1664.72,1.277304,179728,9491
1667.63,1.257294,163642,9049
1670.54,1.233670,146312,8543
1673.44,1.203050,128451,8048
1677.31,1.180912,105080,6928
1680.21,1.144996,88906,6367
1683.1,1.148688,75033,5328
1685.99,1.132665,63520,4680
1688.87,1.125753,53714,4021
1691.75,1.148121,45653,3246
1694.62,1.219308,39137,2362
1697.49,1.109976,33776,2622
1701.31,1.179185,28175,1865