File: ML/samples/unknown/Column 1_078971_20241121_173101.csv
Method:,Column 1,,
Host Date-Time:,21/11/24 @ 17:31:1,,
Header Version:,1,,
System Temp (C):,37.74,,
Detector Temp (C):,36.89,,
Humidity (%):,0.59,,
Lamp PD:,3795,,
Shift Vector Coefficients:,-10.5391,0.0761263,-0.000134223,,
Pixel to Wavelength Coefficients:,1775.68,-0.916766,-0.000235065,,
Serial Number:,5510004,,
Scan Config Name:,Column 1,,
Scan Config Type:,Slew,,
Section 1,,
Start wavelength (nm):,900,,
End wavelength (nm):,1700,,
Pattern Pixel Width (nm):,   7.03,,,,
Exposure (ms):,  0.635,,,,
Digital Resolution:,228,,
Num Repeats:,6,,
PGA Gain:,64,,
Total Measurement Time in sec:,  2.722,,
Wavelength (nm),Absorbance (AU),Reference Signal (unitless),Sample Signal (unitless)
901.51,1.305962,108485,5363
905.376,1.307981,121306,5969
909.237,1.311591,131909,6437
913.095,1.306026,143299,7083
916.948,1.312018,156982,7653
922.079,1.334059,179937,8338
925.923,1.314010,200504,9730
929.762,1.323814,222660,10564
933.597,1.314466,244426,11849
937.427,1.315333,263972,12771
941.254,1.326551,281845,13288
945.076,1.322672,297271,14141
950.165,1.312188,315605,15380
953.978,1.309599,328029,16081
957.786,1.302192,340470,16978
961.59,1.312315,352317,17164
965.389,1.308725,363056,17834
969.185,1.313045,373162,18149
972.976,1.315093,382632,18522
976.763,1.301454,391202,19541
981.806,1.315114,400190,19371
985.583,1.304820,406088,20128
989.355,1.308077,410162,20178
993.124,1.308208,412868,20305
996.888,1.302945,414263,20622
1000.65,1.313453,415476,20188
1004.4,1.303776,415479,20643
1009.41,1.308022,414358,20387
1013.15,1.301833,412923,20608
1016.89,1.305172,411526,20381
1020.63,1.303506,409066,20337
1024.36,1.303833,406777,20208
1028.09,1.302457,404427,20155
1031.82,1.320625,401911,19209
1036.78,1.314166,398410,19327
1040.49,1.301078,396204,19808
1044.2,1.307619,394236,19415
1047.91,1.302853,392042,19520
1051.61,1.301635,389823,19464
1055.31,1.301135,388234,19407
1059,1.310407,387599,18966
1063.92,1.307352,386688,19055
1067.61,1.304705,386598,19167
1071.29,1.312938,387377,18845
1074.96,1.309673,388536,19044
1078.63,1.310507,389855,19072
1082.3,1.312019,391215,19072
1085.96,1.316174,393215,18987
1090.84,1.314713,396270,19199
1094.49,1.314300,398760,19338
1098.14,1.314166,400987,19452
1101.79,1.317234,403477,19435
1105.43,1.313831,406116,19716
1109.06,1.318662,407701,19574
1112.7,1.317353,409859,19737
1117.53,1.311056,412494,20154
1121.15,1.307281,414909,20449
1124.77,1.318256,416559,20018
1128.38,1.321742,418532,19952
1131.99,1.318390,419956,20175
1135.6,1.315989,421946,20383
1139.2,1.318274,423881,20369
1143.99,1.315395,426786,20645
1147.58,1.324980,428617,20281
1151.17,1.323551,431169,20469
1154.75,1.310282,433579,21222
1158.33,1.316023,436264,21073
1161.91,1.315093,439132,21257
1165.48,1.313548,442389,21491
1169.04,1.322013,446101,21253
1173.79,1.308600,451929,22206
1177.34,1.316488,456026,22004
1180.9,1.312347,461306,22472
1184.44,1.312965,467657,22749
1187.99,1.320030,473969,22684
1191.52,1.314165,479856,23278
1195.06,1.317218,487372,23477
1199.76,1.312826,497347,24201
1203.29,1.319224,504311,24181
1206.81,1.313054,511507,24877
1210.33,1.313677,519078,25209
1213.84,1.318636,527163,25311
1217.35,1.320506,534208,25539
1220.85,1.318686,540472,25947
1225.51,1.323217,549929,26127
1229.01,1.328512,556888,26137
1232.5,1.320511,562180,26876
1235.98,1.318230,567975,27296
1239.46,1.317425,574815,27676
1242.94,1.319109,582782,27951
1246.41,1.318252,591476,28424
1251.03,1.325975,604016,28515
1254.5,1.322065,612289,29167
1257.96,1.324570,619125,29323
1261.41,1.322490,624551,29722
1264.86,1.323078,629900,29936
1268.31,1.325668,634345,29968
1271.75,1.322924,638574,30359
1276.33,1.322975,642499,30542
1279.76,1.328110,645905,30343
1283.19,1.324204,648307,30731
1286.61,1.324590,650446,30805
1290.03,1.330919,652132,30438
1293.44,1.325010,653907,30939
1296.85,1.323143,655963,31170
1301.39,1.322960,657349,31249
1304.8,1.322001,657558,31328
1308.19,1.327190,658515,31001
1311.58,1.327745,658804,30975
1314.97,1.327839,659011,30978
1318.36,1.327478,658272,30969
1321.73,1.325899,658022,31070
1326.23,1.329730,657870,30790
1329.6,1.326366,656482,30964
1332.97,1.329464,654926,30671
1336.33,1.323503,653727,31038
1339.69,1.327766,652497,30677
1343.04,1.324770,649913,30767
1346.39,1.328381,647671,30407
1349.73,1.330140,645338,30175
1354.18,1.324632,641175,30363
1357.52,1.325789,638376,30150
1360.85,1.327624,635805,29902
1364.17,1.329941,633413,29631
1367.49,1.321019,631026,30132
1370.81,1.321670,628050,29945
1374.12,1.320785,625034,29862
1378.54,1.323187,620272,29471
1381.84,1.330515,616892,28820
1385.14,1.327673,613613,28855
1388.43,1.326119,611526,28860
1391.72,1.325039,610663,28891
1395.01,1.325590,610634,28853
1398.29,1.327101,611700,28803
1402.66,1.323879,614051,29129
1405.93,1.331479,616268,28727
1409.2,1.328357,617795,29006
1412.46,1.324392,618872,29323
1415.72,1.327624,619795,29149
1418.98,1.330610,620495,28982
1422.23,1.327027,621087,29250
1426.56,1.333148,621375,28854
1429.8,1.335171,621616,28731
1433.04,1.323955,622129,29507
1436.27,1.329940,621526,29075
1439.5,1.330099,621113,29045
1442.72,1.332154,620921,28899
1445.94,1.333098,620270,28806
1450.23,1.331552,618860,28843
1453.44,1.331534,617697,28790
1456.64,1.334480,616264,28529
1459.85,1.330321,614413,28717
1463.04,1.331804,612307,28521
1466.24,1.334626,610032,28231
1469.43,1.333294,607345,28193
1473.67,1.329037,603789,28304
1476.85,1.329986,601175,28120
1480.02,1.337636,597737,27471
1483.19,1.328268,594479,27917
1486.36,1.338500,591232,27118
1489.52,1.327040,587853,27684
1492.68,1.328522,583875,27403
1496.89,1.334164,578062,26780
1500.03,1.336607,574159,26450
1503.18,1.337062,570285,26244
1506.32,1.331922,565444,26331
1509.45,1.329204,560571,26268
1512.58,1.338838,555821,25474
1515.71,1.332055,550344,25620
1519.87,1.334754,543983,25167
1522.99,1.336597,538764,24820
1526.1,1.336003,533692,24620
1529.21,1.338541,527902,24211
1532.32,1.330453,521886,24385
1535.42,1.333812,515888,23919
1538.51,1.328018,509987,23963
1541.6,1.325725,503936,23804
1545.72,1.336002,494694,22821
1548.8,1.332042,488378,22736
1551.88,1.339093,481832,22070
1554.95,1.327912,474989,22324
1558.02,1.329514,467818,21906
1561.08,1.327888,460730,21655
1564.15,1.330350,454170,21226
1568.22,1.320303,444181,21245
1571.27,1.326266,436947,20614
1574.32,1.327474,429598,20211
1577.36,1.330336,422039,19725
1580.4,1.325536,414375,19582
1583.43,1.334308,406354,18819
1586.46,1.329234,398475,18671
1590.49,1.332779,388982,18078
1593.51,1.321883,380708,18143
1596.53,1.326174,372727,17588
1599.54,1.324218,365060,17304
1602.55,1.323928,357543,16959
1605.55,1.326774,349495,16469
1608.55,1.314520,341154,16536
1612.54,1.318843,330877,15879
1615.53,1.319611,322904,15469
1618.51,1.314347,315116,15280
1621.49,1.327668,307217,14447
1624.47,1.319275,299481,14358
1627.44,1.324225,292112,13846
1630.41,1.314917,284245,13765
1634.36,1.313894,274079,13304
1637.32,1.323255,266916,12680
1640.27,1.312853,259612,12632
1643.22,1.299075,251804,12647
1646.16,1.302504,244348,12176
1649.1,1.316462,236703,11422
1652.04,1.299834,228171,11440
1655.95,1.279914,215408,11307
1658.88,1.291632,204937,10471
1661.8,1.283502,193395,10068
1664.72,1.257623,179728,9931
1667.63,1.247612,163642,9253
1670.54,1.235657,146312,8504
1673.44,1.204130,128451,8028
1677.31,1.159687,105080,7275
1680.21,1.171867,88906,5985
1683.1,1.118616,75033,5710
1685.99,1.112626,63520,4901
1688.87,1.138355,53714,3906
1691.75,1.145187,45653,3268
1694.62,1.173458,39137,2625
1697.49,1.157540,33776,2350
1701.31,1.057167,28175,2470