File: ML/samples/unknown/Column 1_078590_20241121_171010.csv
Method:,Column 1,,
Host Date-Time:,21/11/24 @ 17:10:10,,
Header Version:,1,,
System Temp (C):,36.63,,
Detector Temp (C):,34.75,,
Humidity (%):,1.17,,
Lamp PD:,3798,,
Shift Vector Coefficients:,-10.5391,0.0761263,-0.000134223,,
Pixel to Wavelength Coefficients:,1775.68,-0.916766,-0.000235065,,
Serial Number:,5510004,,
Scan Config Name:,Column 1,,
Scan Config Type:,Slew,,
Section 1,,
Start wavelength (nm):,900,,
End wavelength (nm):,1700,,
Pattern Pixel Width (nm):,   7.03,,,,
Exposure (ms):,  0.635,,,,
Digital Resolution:,228,,
Num Repeats:,6,,
PGA Gain:,64,,
Total Measurement Time in sec:,  2.733,,
Wavelength (nm),Absorbance (AU),Reference Signal (unitless),Sample Signal (unitless)
901.51,1.319951,108485,5193
905.376,1.297912,121306,6109
909.237,1.306427,131909,6514
913.095,1.320679,143299,6848
916.948,1.359020,156982,6868
922.079,1.323866,179937,8536
925.923,1.329457,200504,9390
929.762,1.315870,222660,10759
933.597,1.321933,244426,11647
937.427,1.328802,263972,12381
941.254,1.315929,281845,13617
945.076,1.319399,297271,14248
950.165,1.314282,315605,15306
953.978,1.298165,328029,16510
957.786,1.301043,340470,17023
961.59,1.307309,352317,17363
965.389,1.306393,363056,17930
969.185,1.309993,373162,18277
972.976,1.308046,382632,18825
976.763,1.300344,391202,19591
981.806,1.308882,400190,19651
985.583,1.300504,406088,20329
989.355,1.306187,410162,20266
993.124,1.306586,412868,20381
996.888,1.307199,414263,20421
1000.65,1.300357,415476,20806
1004.4,1.305526,415479,20560
1009.41,1.299041,414358,20813
1013.15,1.300004,412923,20695
1016.89,1.305321,411526,20374
1020.63,1.307066,409066,20171
1024.36,1.298345,406777,20465
1028.09,1.310965,404427,19764
1031.82,1.302427,401911,20031
1036.78,1.309450,398410,19538
1040.49,1.307951,396204,19497
1044.2,1.306078,394236,19484
1047.91,1.306046,392042,19377
1051.61,1.301256,389823,19481
1055.31,1.307152,388234,19140
1059,1.305285,387599,19191
1063.92,1.300859,386688,19342
1067.61,1.299279,386598,19408
1071.29,1.306646,387377,19120
1074.96,1.302750,388536,19350
1078.63,1.305053,389855,19313
1082.3,1.301446,391215,19542
1085.96,1.304573,393215,19501
1090.84,1.310682,396270,19378
1094.49,1.309987,398760,19531
1098.14,1.310476,400987,19618
1101.79,1.304398,403477,20018
1105.43,1.302311,406116,20246
1109.06,1.316736,407701,19661
1112.7,1.313869,409859,19896
1117.53,1.316063,412494,19923
1121.15,1.313225,414909,20171
1124.77,1.317064,416559,20073
1128.38,1.314939,418532,20267
1131.99,1.310899,419956,20526
1135.6,1.321025,421946,20148
1139.2,1.320562,423881,20262
1143.99,1.317166,426786,20561
1147.58,1.311176,428617,20936
1151.17,1.321582,431169,20562
1154.75,1.317151,433579,20889
1158.33,1.320643,436264,20850
1161.91,1.311391,439132,21439
1165.48,1.319899,442389,21179
1169.04,1.313975,446101,21650
1173.79,1.318050,451929,21728
1177.34,1.316409,456026,22008
1180.9,1.314537,461306,22359
1184.44,1.312183,467657,22790
1187.99,1.308319,473969,23304
1191.52,1.315604,479856,23201
1195.06,1.313938,487372,23655
1199.76,1.314174,497347,24126
1203.29,1.318973,504311,24195
1206.81,1.314750,511507,24780
1210.33,1.340723,519078,23687
1213.84,1.320424,527163,25207
1217.35,1.313640,534208,25946
1220.85,1.321187,540472,25798
1225.51,1.319625,549929,26344
1229.01,1.320283,556888,26637
1232.5,1.323169,562180,26712
1235.98,1.318151,567975,27301
1239.46,1.318666,574815,27597
1242.94,1.320073,582782,27889
1246.41,1.317824,591476,28452
1251.03,1.317902,604016,29050
1254.5,1.323317,612289,29083
1257.96,1.319490,619125,29668
1261.41,1.322534,624551,29719
1264.86,1.329185,629900,29518
1268.31,1.323600,634345,30111
1271.75,1.323167,638574,30342
1276.33,1.323103,642499,30533
1279.76,1.318919,645905,30992
1283.19,1.329422,648307,30364
1286.61,1.325225,650446,30760
1290.03,1.322120,652132,31061
1293.44,1.328321,653907,30704
1296.85,1.334950,655963,30334
1301.39,1.328639,657349,30843
1304.8,1.326755,657558,30987
1308.19,1.323327,658515,31278
1311.58,1.328657,658804,30910
1314.97,1.327013,659011,31037
1318.36,1.322514,658272,31325
1321.73,1.324768,658022,31151
1326.23,1.328083,657870,30907
1329.6,1.329787,656482,30721
1332.97,1.327783,654926,30790
1336.33,1.330186,653727,30564
1339.69,1.329525,652497,30553
1343.04,1.324474,649913,30788
1346.39,1.323185,647671,30773
1349.73,1.321194,645338,30803
1354.18,1.320844,641175,30629
1357.52,1.324768,638376,30221
1360.85,1.322771,635805,30238
1364.17,1.324725,633413,29989
1367.49,1.321668,631026,30087
1370.81,1.328054,628050,29508
1374.12,1.321367,625034,29822
1378.54,1.326501,620272,29247
1381.84,1.325988,616892,29122
1385.14,1.325437,613613,29004
1388.43,1.317330,611526,29450
1391.72,1.322551,610663,29057
1395.01,1.330357,610634,28538
1398.29,1.323662,611700,29032
1402.66,1.326946,614051,28924
1405.93,1.327596,616268,28985
1409.2,1.326057,617795,29160
1412.46,1.331139,618872,28871
1415.72,1.322794,619795,29475
1418.98,1.328995,620495,29090
1422.23,1.330290,621087,29031
1426.56,1.331061,621375,28993
1429.8,1.331439,621616,28979
1433.04,1.325991,622129,29369
1436.27,1.328746,621526,29155
1439.5,1.332649,621113,28875
1442.72,1.331718,620921,28928
1445.94,1.329898,620270,29019
1450.23,1.336778,618860,28498
1453.44,1.330539,617697,28856
1456.64,1.327579,616264,28986
1459.85,1.332520,614413,28572
1463.04,1.330284,612307,28621
1466.24,1.327138,610032,28722
1469.43,1.339641,607345,27784
1473.67,1.328715,603789,28325
1476.85,1.333895,601175,27868
1480.02,1.331202,597737,27881
1483.19,1.330217,594479,27792
1486.36,1.331164,591232,27580
1489.52,1.331613,587853,27394
1492.68,1.331895,583875,27191
1496.89,1.333597,578062,26815
1500.03,1.333743,574159,26625
1503.18,1.330998,570285,26613
1506.32,1.329127,565444,26501
1509.45,1.330578,560571,26185
1512.58,1.339145,555821,25456
1515.71,1.335185,550344,25436
1519.87,1.335203,543983,25141
1522.99,1.332660,538764,25046
1526.1,1.329820,533692,24973
1529.21,1.332113,527902,24572
1532.32,1.331219,521886,24342
1535.42,1.329530,515888,24156
1538.51,1.328889,509987,23915
1541.6,1.330071,503936,23567
1545.72,1.331157,494694,23077
1548.8,1.330440,488378,22820
1551.88,1.335917,481832,22232
1554.95,1.333886,474989,22019
1558.02,1.331999,467818,21781
1561.08,1.330463,460730,21527
1564.15,1.329737,454170,21256
1568.22,1.331464,444181,20706
1571.27,1.321969,436947,20819
1574.32,1.326251,429598,20268
1577.36,1.327220,422039,19867
1580.4,1.330960,414375,19339
1583.43,1.326985,406354,19139
1586.46,1.327400,398475,18750
1590.49,1.320090,388982,18614
1593.51,1.322865,380708,18102
1596.53,1.324769,372727,17645
1599.54,1.326180,365060,17226
1602.55,1.332959,357543,16610
1605.55,1.325011,349495,16536
1608.55,1.323543,341154,16196
1612.54,1.315330,330877,16008
1615.53,1.319667,322904,15467
1618.51,1.313127,315116,15323
1621.49,1.319184,307217,14732
1624.47,1.311303,299481,14624
1627.44,1.307428,292112,14392
1630.41,1.320889,284245,13577
1634.36,1.309767,274079,13431
1637.32,1.314742,266916,12931
1640.27,1.323115,259612,12337
1643.22,1.318816,251804,12085
1646.16,1.304255,244348,12127
1649.1,1.312337,236703,11531
1652.04,1.315252,228171,11041
1655.95,1.301207,215408,10766
1658.88,1.291508,204937,10474
1661.8,1.303631,193395,9612
1664.72,1.269504,179728,9663
1667.63,1.254376,163642,9110
1670.54,1.237294,146312,8472
1673.44,1.224225,128451,7665
1677.31,1.186654,105080,6837
1680.21,1.178963,88906,5888
1683.1,1.199841,75033,4736
1685.99,1.136112,63520,4643
1688.87,1.202715,53714,3368
1691.75,1.174743,45653,3053
1694.62,1.173624,39137,2624
1697.49,1.155512,33776,2361
1701.31,1.200176,28175,1777