File: ML/samples/unknown/Column 1_078986_20241121_173144.csv
Method:,Column 1,,
Host Date-Time:,21/11/24 @ 17:31:44,,
Header Version:,1,,
System Temp (C):,37.61,,
Detector Temp (C):,36.96,,
Humidity (%):,0.64,,
Lamp PD:,3795,,
Shift Vector Coefficients:,-10.5391,0.0761263,-0.000134223,,
Pixel to Wavelength Coefficients:,1775.68,-0.916766,-0.000235065,,
Serial Number:,5510004,,
Scan Config Name:,Column 1,,
Scan Config Type:,Slew,,
Section 1,,
Start wavelength (nm):,900,,
End wavelength (nm):,1700,,
Pattern Pixel Width (nm):,   7.03,,,,
Exposure (ms):,  0.635,,,,
Digital Resolution:,228,,
Num Repeats:,6,,
PGA Gain:,64,,
Total Measurement Time in sec:,  2.715,,
Wavelength (nm),Absorbance (AU),Reference Signal (unitless),Sample Signal (unitless)
901.51,1.299771,108485,5440
905.376,1.333528,121306,5628
909.237,1.325996,131909,6227
913.095,1.298248,143299,7211
916.948,1.306828,156982,7745
922.079,1.313460,179937,8743
925.923,1.323577,200504,9518
929.762,1.327778,222660,10468
933.597,1.332922,244426,11356
937.427,1.308250,263972,12981
941.254,1.316184,281845,13609
945.076,1.318759,297271,14269
950.165,1.313687,315605,15327
953.978,1.316678,328029,15821
957.786,1.310378,340470,16661
961.59,1.303970,352317,17497
965.389,1.308895,363056,17827
969.185,1.302501,373162,18595
972.976,1.300091,382632,19173
976.763,1.310573,391202,19135
981.806,1.302759,400190,19930
985.583,1.310882,406088,19849
989.355,1.305652,410162,20291
993.124,1.295956,412868,20886
996.888,1.305967,414263,20479
1000.65,1.304278,415476,20619
1004.4,1.312918,415479,20213
1009.41,1.305749,414358,20494
1013.15,1.302255,412923,20588
1016.89,1.310230,411526,20145
1020.63,1.301058,409066,20452
1024.36,1.301347,406777,20324
1028.09,1.296806,404427,20419
1031.82,1.306982,401911,19822
1036.78,1.309050,398410,19556
1040.49,1.308464,396204,19474
1044.2,1.301202,394236,19704
1047.91,1.303098,392042,19509
1051.61,1.299587,389823,19556
1055.31,1.298525,388234,19524
1059,1.308032,387599,19070
1063.92,1.308653,386688,18998
1067.61,1.305340,386598,19139
1071.29,1.310983,387377,18930
1074.96,1.310975,388536,18987
1078.63,1.306901,389855,19231
1082.3,1.307241,391215,19283
1085.96,1.302152,393215,19610
1090.84,1.306267,396270,19576
1094.49,1.304441,398760,19782
1098.14,1.310653,400987,19610
1101.79,1.310142,403477,19755
1105.43,1.305346,406116,20105
1109.06,1.320218,407701,19504
1112.7,1.309071,409859,20117
1117.53,1.308136,412494,20290
1121.15,1.308195,414909,20406
1124.77,1.312287,416559,20295
1128.38,1.312802,418532,20367
1131.99,1.314469,419956,20358
1135.6,1.309832,421946,20674
1139.2,1.304054,423881,21047
1143.99,1.318732,426786,20487
1147.58,1.309230,428617,21030
1151.17,1.314356,431169,20907
1154.75,1.311573,433579,21159
1158.33,1.315632,436264,21092
1161.91,1.316833,439132,21172
1165.48,1.313265,442389,21505
1169.04,1.309505,446101,21874
1173.79,1.316235,451929,21819
1177.34,1.312089,456026,22228
1180.9,1.310246,461306,22581
1184.44,1.311574,467657,22822
1187.99,1.308469,473969,23296
1191.52,1.316279,479856,23165
1195.06,1.323253,487372,23153
1199.76,1.311751,497347,24261
1203.29,1.312877,504311,24537
1206.81,1.326204,511507,24135
1210.33,1.319452,519078,24876
1213.84,1.314571,527163,25549
1217.35,1.316158,534208,25796
1220.85,1.320884,540472,25816
1225.51,1.315948,549929,26568
1229.01,1.317309,556888,26820
1232.5,1.325402,562180,26575
1235.98,1.323513,567975,26966
1239.46,1.314500,574815,27863
1242.94,1.317140,582782,28078
1246.41,1.318695,591476,28395
1251.03,1.322139,604016,28768
1254.5,1.322214,612289,29157
1257.96,1.321677,619125,29519
1261.41,1.329338,624551,29257
1264.86,1.319063,629900,30214
1268.31,1.319967,634345,30364
1271.75,1.319632,638574,30590
1276.33,1.326172,642499,30318
1279.76,1.324703,645905,30582
1283.19,1.320097,648307,31023
1286.61,1.323858,650446,30857
1290.03,1.330962,652132,30435
1293.44,1.326190,653907,30855
1296.85,1.321779,655963,31268
1301.39,1.324366,657349,31148
1304.8,1.327049,657558,30966
1308.19,1.329254,658515,30854
1311.58,1.323295,658804,31294
1314.97,1.326244,659011,31092
1318.36,1.322251,658272,31344
1321.73,1.330409,658022,30749
1326.23,1.325128,657870,31118
1329.6,1.326071,656482,30985
1332.97,1.329394,654926,30676
1336.33,1.327650,653727,30743
1339.69,1.324255,652497,30926
1343.04,1.326439,649913,30649
1346.39,1.325576,647671,30604
1349.73,1.325658,645338,30488
1354.18,1.324189,641175,30394
1357.52,1.326423,638376,30106
1360.85,1.329355,635805,29783
1364.17,1.322846,633413,30119
1367.49,1.323708,631026,29946
1370.81,1.326805,628050,29593
1374.12,1.326067,625034,29501
1378.54,1.322775,620272,29499
1381.84,1.325347,616892,29165
1385.14,1.324524,613613,29065
1388.43,1.316505,611526,29506
1391.72,1.322835,610663,29038
1395.01,1.324898,610634,28899
1398.29,1.322302,611700,29123
1402.66,1.325642,614051,29011
1405.93,1.325772,616268,29107
1409.2,1.321405,617795,29474
1412.46,1.328410,618872,29053
1415.72,1.330240,619795,28974
1418.98,1.334372,620495,28732
1422.23,1.331834,621087,28928
1426.56,1.324165,621375,29457
1429.8,1.332790,621616,28889
1433.04,1.329585,622129,29127
1436.27,1.333103,621526,28864
1439.5,1.332513,621113,28884
1442.72,1.331763,620921,28925
1445.94,1.328449,620270,29116
1450.23,1.331251,618860,28863
1453.44,1.327599,617697,29052
1456.64,1.327159,616264,29014
1459.85,1.334317,614413,28454
1463.04,1.333024,612307,28441
1466.24,1.332233,610032,28387
1469.43,1.327525,607345,28570
1473.67,1.324550,603789,28598
1476.85,1.329646,601175,28142
1480.02,1.325999,597737,28217
1483.19,1.334094,594479,27545
1486.36,1.330173,591232,27643
1489.52,1.327511,587853,27654
1492.68,1.330746,583875,27263
1496.89,1.330128,578062,27030
1500.03,1.332602,574159,26695
1503.18,1.330053,570285,26671
1506.32,1.333078,565444,26261
1509.45,1.332940,560571,26043
1512.58,1.334698,555821,25718
1515.71,1.333788,550344,25518
1519.87,1.335704,543983,25112
1522.99,1.330446,538764,25174
1526.1,1.324273,533692,25294
1529.21,1.333795,527902,24477
1532.32,1.330881,521886,24361
1535.42,1.334612,515888,23875
1538.51,1.335163,509987,23572
1541.6,1.336494,503936,23221
1545.72,1.338521,494694,22689
1548.8,1.329604,488378,22864
1551.88,1.331447,481832,22462
1554.95,1.323267,474989,22564
1558.02,1.323216,467818,22226
1561.08,1.323459,460730,21877
1564.15,1.336097,454170,20947
1568.22,1.330291,444181,20762
1571.27,1.317982,436947,21011
1574.32,1.329326,429598,20125
1577.36,1.327680,422039,19846
1580.4,1.333572,414375,19223
1583.43,1.327712,406354,19107
1586.46,1.326266,398475,18799
1590.49,1.327170,388982,18313
1593.51,1.328467,380708,17870
1596.53,1.328502,372727,17494
1599.54,1.322215,365060,17384
1602.55,1.323570,357543,16973
1605.55,1.319063,349495,16764
1608.55,1.312346,341154,16619
1612.54,1.309188,330877,16236
1615.53,1.313672,322904,15682
1618.51,1.320386,315116,15069
1621.49,1.311093,307217,15009
1624.47,1.316802,299481,14440
1627.44,1.311460,292112,14259
1630.41,1.314475,284245,13779
1634.36,1.310091,274079,13421
1637.32,1.329499,266916,12499
1640.27,1.311480,259612,12672
1643.22,1.305963,251804,12448
1646.16,1.303433,244348,12150
1649.1,1.307878,236703,11650
1652.04,1.315764,228171,11028
1655.95,1.284315,215408,11193
1658.88,1.284965,204937,10633
1661.8,1.259626,193395,10637
1664.72,1.287817,179728,9264
1667.63,1.238969,163642,9439
1670.54,1.205523,146312,9115
1673.44,1.185390,128451,8382
1677.31,1.163766,105080,7207
1680.21,1.155490,88906,6215
1683.1,1.142778,75033,5401
1685.99,1.111741,63520,4911
1688.87,1.087722,53714,4389
1691.75,1.060898,45653,3968
1694.62,1.055777,39137,3442
1697.49,1.101934,33776,2671
1701.31,1.091358,28175,2283