File: ML/samples/unknown/Column 1_078110_20241121_164557.csv
Method:,Column 1,,
Host Date-Time:,21/11/24 @ 16:45:57,,
Header Version:,1,,
System Temp (C):,32.57,,
Detector Temp (C):,27.84,,
Humidity (%):,4.1,,
Lamp PD:,3807,,
Shift Vector Coefficients:,-10.5391,0.0761263,-0.000134223,,
Pixel to Wavelength Coefficients:,1775.68,-0.916766,-0.000235065,,
Serial Number:,5510004,,
Scan Config Name:,Column 1,,
Scan Config Type:,Slew,,
Section 1,,
Start wavelength (nm):,900,,
End wavelength (nm):,1700,,
Pattern Pixel Width (nm):,   7.03,,,,
Exposure (ms):,  0.635,,,,
Digital Resolution:,228,,
Num Repeats:,6,,
PGA Gain:,64,,
Total Measurement Time in sec:,  2.723,,
Wavelength (nm),Absorbance (AU),Reference Signal (unitless),Sample Signal (unitless)
901.51,1.341203,108485,4945
905.376,1.301338,121306,6061
909.237,1.338447,131909,6051
913.095,1.318402,143299,6884
916.948,1.360413,156982,6846
922.079,1.302958,179937,8957
925.923,1.309128,200504,9840
929.762,1.332450,222660,10356
933.597,1.305183,244426,12105
937.427,1.319605,263972,12646
941.254,1.309471,281845,13821
945.076,1.317604,297271,14307
950.165,1.308028,315605,15528
953.978,1.321065,328029,15662
957.786,1.301349,340470,17011
961.59,1.306484,352317,17396
965.389,1.308554,363056,17841
969.185,1.303273,373162,18562
972.976,1.315657,382632,18498
976.763,1.313830,391202,18992
981.806,1.307183,400190,19728
985.583,1.300590,406088,20325
989.355,1.301859,410162,20469
993.124,1.307930,412868,20318
996.888,1.320129,414263,19822
1000.65,1.311821,415476,20264
1004.4,1.318955,415479,19934
1009.41,1.308065,414358,20385
1013.15,1.309594,412923,20243
1016.89,1.308831,411526,20210
1020.63,1.302419,409066,20388
1024.36,1.300771,406777,20351
1028.09,1.310636,404427,19779
1031.82,1.310237,401911,19674
1036.78,1.311478,398410,19447
1040.49,1.322976,396204,18834
1044.2,1.320330,394236,18855
1047.91,1.311572,392042,19132
1051.61,1.312503,389823,18983
1055.31,1.308083,388234,19099
1059,1.317331,387599,18666
1063.92,1.314383,386688,18749
1067.61,1.310109,386598,18930
1071.29,1.315480,387377,18735
1074.96,1.322025,388536,18510
1078.63,1.320178,389855,18652
1082.3,1.313342,391215,19014
1085.96,1.314416,393215,19064
1090.84,1.316708,396270,19111
1094.49,1.317523,398760,19195
1098.14,1.318903,400987,19241
1101.79,1.318263,403477,19389
1105.43,1.316239,406116,19607
1109.06,1.314995,407701,19740
1112.7,1.323179,409859,19474
1117.53,1.318314,412494,19820
1121.15,1.324701,414909,19645
1124.77,1.322639,416559,19817
1128.38,1.321111,418532,19981
1131.99,1.321957,419956,20010
1135.6,1.321176,421946,20141
1139.2,1.321270,423881,20229
1143.99,1.320814,426786,20389
1147.58,1.320612,428617,20486
1151.17,1.327109,431169,20302
1154.75,1.322653,433579,20626
1158.33,1.322857,436264,20744
1161.91,1.319281,439132,21053
1165.48,1.320884,442389,21131
1169.04,1.321013,446101,21302
1173.79,1.324352,451929,21415
1177.34,1.321271,456026,21763
1180.9,1.320600,461306,22049
1184.44,1.321778,467657,22292
1187.99,1.326006,473969,22374
1191.52,1.328176,479856,22539
1195.06,1.329069,487372,22845
1199.76,1.320338,497347,23786
1203.29,1.322560,504311,23996
1206.81,1.328369,511507,24015
1210.33,1.329823,519078,24289
1213.84,1.322773,527163,25071
1217.35,1.325122,534208,25269
1220.85,1.327068,540472,25451
1225.51,1.324999,549929,26020
1229.01,1.324674,556888,26369
1232.5,1.327417,562180,26452
1235.98,1.326065,567975,26808
1239.46,1.324417,574815,27234
1242.94,1.320743,582782,27846
1246.41,1.327143,591476,27848
1251.03,1.325579,604016,28541
1254.5,1.328606,612289,28731
1257.96,1.331843,619125,28836
1261.41,1.331138,624551,29136
1264.86,1.330570,629900,29424
1268.31,1.328357,634345,29783
1271.75,1.332089,638574,29725
1276.33,1.326387,642499,30303
1279.76,1.328583,645905,30310
1283.19,1.331113,648307,30246
1286.61,1.334544,650446,30107
1290.03,1.333768,652132,30239
1293.44,1.330704,653907,30536
1296.85,1.328865,655963,30762
1301.39,1.334237,657349,30448
1304.8,1.334518,657558,30438
1308.19,1.335392,658515,30421
1311.58,1.333205,658804,30588
1314.97,1.334764,659011,30488
1318.36,1.336018,658272,30366
1321.73,1.336783,658022,30301
1326.23,1.330521,657870,30734
1329.6,1.335021,656482,30353
1332.97,1.330939,654926,30567
1336.33,1.332766,653727,30383
1339.69,1.336070,652497,30096
1343.04,1.331871,649913,30268
1346.39,1.336556,647671,29840
1349.73,1.328990,645338,30255
1354.18,1.329754,641175,30007
1357.52,1.329115,638376,29920
1360.85,1.332869,635805,29543
1364.17,1.328594,633413,29723
1367.49,1.331360,631026,29423
1370.81,1.333251,628050,29157
1374.12,1.335051,625034,28897
1378.54,1.329451,620272,29049
1381.84,1.334238,616892,28574
1385.14,1.328397,613613,28807
1388.43,1.329199,611526,28656
1391.72,1.326590,610663,28788
1395.01,1.329901,610634,28568
1398.29,1.329156,611700,28667
1402.66,1.330262,614051,28704
1405.93,1.326459,616268,29061
1409.2,1.340272,617795,28221
1412.46,1.336573,618872,28512
1415.72,1.330000,619795,28990
1418.98,1.330206,620495,29009
1422.23,1.339696,621087,28409
1426.56,1.335442,621375,28702
1429.8,1.338464,621616,28514
1433.04,1.338077,622129,28563
1436.27,1.339392,621526,28449
1439.5,1.340755,621113,28341
1442.72,1.337217,620921,28564
1445.94,1.334003,620270,28746
1450.23,1.340697,618860,28242
1453.44,1.336266,617697,28478
1456.64,1.338902,616264,28240
1459.85,1.339291,614413,28130
1463.04,1.331804,612307,28521
1466.24,1.341120,610032,27812
1469.43,1.331803,607345,28290
1473.67,1.338860,603789,27671
1476.85,1.339447,601175,27514
1480.02,1.337225,597737,27497
1483.19,1.339663,594479,27194
1486.36,1.335532,591232,27304
1489.52,1.340535,587853,26837
1492.68,1.337246,583875,26858
1496.89,1.339532,578062,26451
1500.03,1.339357,574159,26283
1503.18,1.340018,570285,26066
1506.32,1.340148,565444,25837
1509.45,1.347109,560571,25207
1512.58,1.340906,555821,25353
1515.71,1.338562,550344,25239
1519.87,1.339369,543983,24901
1522.99,1.339388,538764,24661
1526.1,1.335439,533692,24652
1529.21,1.338397,527902,24219
1532.32,1.342479,521886,23719
1535.42,1.337917,515888,23694
1538.51,1.337509,509987,23445
1541.6,1.339478,503936,23062
1545.72,1.341209,494694,22549
1548.8,1.334110,488378,22628
1551.88,1.339251,481832,22062
1554.95,1.332134,474989,22108
1558.02,1.335181,467818,21622
1561.08,1.335291,460730,21289
1564.15,1.336906,454170,20908
1568.22,1.340706,444181,20270
1571.27,1.341161,436947,19919
1574.32,1.339589,429598,19655
1577.36,1.335518,422039,19491
1580.4,1.330152,414375,19375
1583.43,1.336854,406354,18709
1586.46,1.336528,398475,18360
1590.49,1.336277,388982,17933
1593.51,1.329879,380708,17812
1596.53,1.338090,372727,17112
1599.54,1.335996,365060,16841
1602.55,1.336160,357543,16488
1605.55,1.335080,349495,16157
1608.55,1.334733,341154,15784
1612.54,1.330963,330877,15442
1615.53,1.341225,322904,14718
1618.51,1.326569,315116,14856
1621.49,1.340202,307217,14036
1624.47,1.325214,299481,14163
1627.44,1.326363,292112,13778
1630.41,1.322684,284245,13521
1634.36,1.319181,274079,13143
1637.32,1.325006,266916,12629
1640.27,1.317172,259612,12507
1643.22,1.324313,251804,11933
1646.16,1.333396,244348,11340
1649.1,1.309933,236703,11595
1652.04,1.311414,228171,11139
1655.95,1.304203,215408,10692
1658.88,1.317127,204937,9874
1661.8,1.306124,193395,9557
1664.72,1.317700,179728,8648
1667.63,1.301407,163642,8175
1670.54,1.316968,146312,7052
1673.44,1.296694,128451,6487
1677.31,1.286960,105080,5427
1680.21,1.273978,88906,4731
1683.1,1.289115,75033,3856
1685.99,1.295594,63520,3216
1688.87,1.251665,53714,3009
1691.75,1.290625,45653,2338
1694.62,1.196737,39137,2488
1697.49,1.301493,33776,1687
1701.31,1.261217,28175,1544