File: ML/samples/unknown/Column 1_078752_20241121_172028.csv
Method:,Column 1,,
Host Date-Time:,21/11/24 @ 17:20:28,,
Header Version:,1,,
System Temp (C):,36.57,,
Detector Temp (C):,34.78,,
Humidity (%):,1.37,,
Lamp PD:,3798,,
Shift Vector Coefficients:,-10.5391,0.0761263,-0.000134223,,
Pixel to Wavelength Coefficients:,1775.68,-0.916766,-0.000235065,,
Serial Number:,5510004,,
Scan Config Name:,Column 1,,
Scan Config Type:,Slew,,
Section 1,,
Start wavelength (nm):,900,,
End wavelength (nm):,1700,,
Pattern Pixel Width (nm):,   7.03,,,,
Exposure (ms):,  0.635,,,,
Digital Resolution:,228,,
Num Repeats:,6,,
PGA Gain:,64,,
Total Measurement Time in sec:,  2.724,,
Wavelength (nm),Absorbance (AU),Reference Signal (unitless),Sample Signal (unitless)
901.51,1.323984,108485,5145
905.376,1.328770,121306,5690
909.237,1.323145,131909,6268
913.095,1.306271,143299,7079
916.948,1.341908,156982,7144
922.079,1.318406,179937,8644
925.923,1.325361,200504,9479
929.762,1.332660,222660,10351
933.597,1.336995,244426,11250
937.427,1.313297,263972,12831
941.254,1.320739,281845,13467
945.076,1.307938,297271,14629
950.165,1.301009,315605,15781
953.978,1.301360,328029,16389
957.786,1.306976,340470,16792
961.59,1.305836,352317,17422
965.389,1.309383,363056,17807
969.185,1.310206,373162,18268
972.976,1.300386,382632,19160
976.763,1.294684,391202,19848
981.806,1.306897,400190,19741
985.583,1.305467,406088,20098
989.355,1.301265,410162,20497
993.124,1.303380,412868,20532
996.888,1.308882,414263,20342
1000.65,1.295170,415476,21056
1004.4,1.304872,415479,20591
1009.41,1.306215,414358,20472
1013.15,1.309208,412923,20261
1016.89,1.310834,411526,20117
1020.63,1.303485,409066,20338
1024.36,1.311508,406777,19854
1028.09,1.303817,404427,20092
1031.82,1.307640,401911,19792
1036.78,1.303512,398410,19807
1040.49,1.320791,396204,18929
1044.2,1.311010,394236,19264
1047.91,1.300944,392042,19606
1051.61,1.305108,389823,19309
1055.31,1.307560,388234,19122
1059,1.307645,387599,19087
1063.92,1.312049,386688,18850
1067.61,1.312202,386598,18839
1071.29,1.305784,387377,19158
1074.96,1.303199,388536,19330
1078.63,1.316445,389855,18813
1082.3,1.304099,391215,19423
1085.96,1.316471,393215,18974
1090.84,1.313876,396270,19236
1094.49,1.312977,398760,19397
1098.14,1.309348,400987,19669
1101.79,1.314095,403477,19576
1105.43,1.308142,406116,19976
1109.06,1.310856,407701,19929
1112.7,1.303601,409859,20372
1117.53,1.319851,412494,19750
1121.15,1.311399,414909,20256
1124.77,1.314261,416559,20203
1128.38,1.303165,418532,20824
1131.99,1.308705,419956,20630
1135.6,1.319175,421946,20234
1139.2,1.307638,423881,20874
1143.99,1.319496,426786,20451
1147.58,1.309313,428617,21026
1151.17,1.321772,431169,20553
1154.75,1.318129,433579,20842
1158.33,1.314316,436264,21156
1161.91,1.310682,439132,21474
1165.48,1.313224,442389,21507
1169.04,1.312613,446101,21718
1173.79,1.314467,451929,21908
1177.34,1.306055,456026,22539
1180.9,1.316698,461306,22248
1184.44,1.318054,467657,22484
1187.99,1.315119,473969,22942
1191.52,1.319496,479856,22994
1195.06,1.318033,487372,23433
1199.76,1.314679,497347,24098
1203.29,1.321367,504311,24062
1206.81,1.312164,511507,24928
1210.33,1.314677,519078,25151
1213.84,1.320889,527163,25180
1217.35,1.325879,534208,25225
1220.85,1.316616,540472,26071
1225.51,1.316848,549929,26513
1229.01,1.318363,556888,26755
1232.5,1.320592,562180,26871
1235.98,1.325741,567975,26828
1239.46,1.322761,574815,27338
1242.94,1.322964,582782,27704
1246.41,1.317184,591476,28494
1251.03,1.321159,604016,28833
1254.5,1.316296,612289,29557
1257.96,1.316601,619125,29866
1261.41,1.323954,624551,29622
1264.86,1.321948,629900,30014
1268.31,1.322017,634345,30221
1271.75,1.322038,638574,30421
1276.33,1.321584,642499,30640
1279.76,1.320913,645905,30850
1283.19,1.326201,648307,30590
1286.61,1.323886,650446,30855
1290.03,1.323310,652132,30976
1293.44,1.324084,653907,31005
1296.85,1.324398,655963,31080
1301.39,1.326434,657349,31000
1304.8,1.323933,657558,31189
1308.19,1.329226,658515,30856
1311.58,1.329417,658804,30856
1314.97,1.327363,659011,31012
1318.36,1.330109,658272,30782
1321.73,1.333556,658022,30527
1326.23,1.331370,657870,30674
1329.6,1.329929,656482,30711
1332.97,1.326839,654926,30857
1336.33,1.328513,653727,30682
1339.69,1.327667,652497,30684
1343.04,1.333035,649913,30187
1346.39,1.326784,647671,30519
1349.73,1.324975,645338,30536
1354.18,1.322349,641175,30523
1357.52,1.325760,638376,30152
1360.85,1.326188,635805,30001
1364.17,1.319858,633413,30327
1367.49,1.323404,631026,29967
1370.81,1.329248,628050,29427
1374.12,1.322840,625034,29721
1378.54,1.324782,620272,29363
1381.84,1.325362,616892,29164
1385.14,1.326021,613613,28965
1388.43,1.323508,611526,29034
1391.72,1.322073,610663,29089
1395.01,1.323788,610634,28973
1398.29,1.327704,611700,28763
1402.66,1.324834,614051,29065
1405.93,1.326384,616268,29066
1409.2,1.326638,617795,29121
1412.46,1.325252,618872,29265
1415.72,1.331756,619795,28873
1418.98,1.329039,620495,29087
1422.23,1.329468,621087,29086
1426.56,1.332246,621375,28914
1429.8,1.332880,621616,28883
1433.04,1.334111,622129,28825
1436.27,1.329865,621526,29080
1439.5,1.330488,621113,29019
1442.72,1.323420,620921,29486
1445.94,1.333445,620270,28783
1450.23,1.334074,618860,28676
1453.44,1.329112,617697,28951
1456.64,1.333963,616264,28563
1459.85,1.330155,614413,28728
1463.04,1.325891,612307,28912
1466.24,1.327259,610032,28714
1469.43,1.326629,607345,28629
1473.67,1.333092,603789,28041
1476.85,1.328967,601175,28186
1480.02,1.327464,597737,28122
1483.19,1.337624,594479,27322
1486.36,1.334404,591232,27375
1489.52,1.329636,587853,27519
1492.68,1.334586,583875,27023
1496.89,1.333014,578062,26851
1500.03,1.333873,574159,26617
1503.18,1.335707,570285,26326
1506.32,1.334835,565444,26155
1509.45,1.339103,560571,25676
1512.58,1.332726,555821,25835
1515.71,1.339165,550344,25204
1519.87,1.333548,543983,25237
1522.99,1.332972,538764,25028
1526.1,1.328795,533692,25032
1529.21,1.331530,527902,24605
1532.32,1.333904,521886,24192
1535.42,1.332543,515888,23989
1538.51,1.329761,509987,23867
1541.6,1.330827,503936,23526
1545.72,1.330988,494694,23086
1548.8,1.335667,488378,22547
1551.88,1.328672,481832,22606
1554.95,1.336874,474989,21868
1558.02,1.332458,467818,21758
1561.08,1.325448,460730,21777
1564.15,1.334875,454170,21006
1568.22,1.333608,444181,20604
1571.27,1.337276,436947,20098
1574.32,1.333904,429598,19914
1577.36,1.329346,422039,19770
1580.4,1.329100,414375,19422
1583.43,1.324181,406354,19263
1586.46,1.320871,398475,19034
1590.49,1.329524,388982,18214
1593.51,1.323177,380708,18089
1596.53,1.325286,372727,17624
1599.54,1.329216,365060,17106
1602.55,1.322701,357543,17007
1605.55,1.320542,349495,16707
1608.55,1.326259,341154,16095
1612.54,1.315791,330877,15991
1615.53,1.314753,322904,15643
1618.51,1.333850,315116,14609
1621.49,1.319184,307217,14732
1624.47,1.319245,299481,14359
1627.44,1.308365,292112,14361
1630.41,1.329254,284245,13318
1634.36,1.319214,274079,13142
1637.32,1.314440,266916,12940
1640.27,1.315612,259612,12552
1643.22,1.306871,251804,12422
1646.16,1.314547,244348,11843
1649.1,1.313733,236703,11494
1652.04,1.315449,228171,11036
1655.95,1.296314,215408,10888
1658.88,1.300135,204937,10268
1661.8,1.302188,193395,9644
1664.72,1.267039,179728,9718
1667.63,1.246675,163642,9273
1670.54,1.240742,146312,8405
1673.44,1.217646,128451,7782
1677.31,1.176298,105080,7002
1680.21,1.155071,88906,6221
1683.1,1.171703,75033,5053
1685.99,1.154063,63520,4455
1688.87,1.151334,53714,3791
1691.75,1.135333,45653,3343
1694.62,1.123207,39137,2947
1697.49,1.082537,33776,2793
1701.31,1.246015,28175,1599