File: ML/samples/unknown/Column 1_078355_20241121_165759.csv
Method:,Column 1,,
Host Date-Time:,21/11/24 @ 16:57:59,,
Header Version:,1,,
System Temp (C):,34.88,,
Detector Temp (C):,33.26,,
Humidity (%):,2.06,,
Lamp PD:,3802,,
Shift Vector Coefficients:,-10.5391,0.0761263,-0.000134223,,
Pixel to Wavelength Coefficients:,1775.68,-0.916766,-0.000235065,,
Serial Number:,5510004,,
Scan Config Name:,Column 1,,
Scan Config Type:,Slew,,
Section 1,,
Start wavelength (nm):,900,,
End wavelength (nm):,1700,,
Pattern Pixel Width (nm):,   7.03,,,,
Exposure (ms):,  0.635,,,,
Digital Resolution:,228,,
Num Repeats:,6,,
PGA Gain:,64,,
Total Measurement Time in sec:,  2.725,,
Wavelength (nm),Absorbance (AU),Reference Signal (unitless),Sample Signal (unitless)
901.51,1.298098,108485,5461
905.376,1.299764,121306,6083
909.237,1.292841,131909,6721
913.095,1.325654,143299,6770
916.948,1.314522,156982,7609
922.079,1.309701,179937,8819
925.923,1.300562,200504,10036
929.762,1.331696,222660,10374
933.597,1.324101,244426,11589
937.427,1.322707,263972,12556
941.254,1.312656,281845,13720
945.076,1.326033,297271,14032
950.165,1.313545,315605,15332
953.978,1.316678,328029,15821
957.786,1.303627,340470,16922
961.59,1.312113,352317,17172
965.389,1.314116,363056,17614
969.185,1.316794,373162,17993
972.976,1.312918,382632,18615
976.763,1.304577,391202,19401
981.806,1.311253,400190,19544
985.583,1.311582,406088,19817
989.355,1.301413,410162,20490
993.124,1.317111,412868,19893
996.888,1.308989,414263,20337
1000.65,1.314767,415476,20127
1004.4,1.300006,415479,20823
1009.41,1.313877,414358,20114
1013.15,1.302994,412923,20553
1016.89,1.310036,411526,20154
1020.63,1.304212,409066,20304
1024.36,1.310525,406777,19899
1028.09,1.309474,404427,19832
1031.82,1.313939,401911,19507
1036.78,1.316509,398410,19223
1040.49,1.313060,396204,19269
1044.2,1.311687,394236,19234
1047.91,1.311867,392042,19119
1051.61,1.320515,389823,18636
1055.31,1.311347,388234,18956
1059,1.312151,387599,18890
1063.92,1.312464,386688,18832
1067.61,1.305885,386598,19115
1071.29,1.309403,387377,18999
1074.96,1.309172,388536,19066
1078.63,1.317393,389855,18772
1082.3,1.312475,391215,19052
1085.96,1.317962,393215,18909
1090.84,1.314306,396270,19217
1094.49,1.322736,398760,18966
1098.14,1.318068,400987,19278
1101.79,1.312059,403477,19668
1105.43,1.317370,406116,19556
1109.06,1.320820,407701,19477
1112.7,1.317706,409859,19721
1117.53,1.317985,412494,19835
1121.15,1.321770,414909,19778
1124.77,1.326911,416559,19623
1128.38,1.316829,418532,20179
1131.99,1.313425,419956,20407
1135.6,1.322385,421946,20085
1139.2,1.321270,423881,20229
1143.99,1.317758,426786,20533
1147.58,1.319300,428617,20548
1151.17,1.314480,431169,20901
1154.75,1.309362,433579,21267
1158.33,1.319811,436264,20890
1161.91,1.322345,439132,20905
1165.48,1.316427,442389,21349
1169.04,1.321911,446101,21258
1173.79,1.316693,451929,21796
1177.34,1.315995,456026,22029
1180.9,1.314964,461306,22337
1184.44,1.311307,467657,22836
1187.99,1.313663,473969,23019
1191.52,1.318082,479856,23069
1195.06,1.318014,487372,23434
1199.76,1.318571,497347,23883
1203.29,1.320790,504311,24094
1206.81,1.326672,511507,24109
1210.33,1.322044,519078,24728
1213.84,1.321752,527163,25130
1217.35,1.324178,534208,25324
1220.85,1.327632,540472,25418
1225.51,1.329951,549929,25725
1229.01,1.330678,556888,26007
1232.5,1.320091,562180,26902
1235.98,1.321841,567975,27070
1239.46,1.315046,574815,27828
1242.94,1.327645,582782,27407
1246.41,1.324330,591476,28029
1251.03,1.324136,604016,28636
1254.5,1.323556,612289,29067
1257.96,1.327468,619125,29128
1261.41,1.326203,624551,29469
1264.86,1.330083,629900,29457
1268.31,1.330067,634345,29666
1271.75,1.328510,638574,29971
1276.33,1.331128,642499,29974
1279.76,1.327667,645905,30374
1283.19,1.325818,648307,30617
1286.61,1.329881,650446,30432
1290.03,1.326759,652132,30731
1293.44,1.329000,653907,30656
1296.85,1.322850,655963,31191
1301.39,1.336239,657349,30308
1304.8,1.329073,657558,30822
1308.19,1.333597,658515,30547
1311.58,1.325940,658804,31104
1314.97,1.328429,659011,30936
1318.36,1.337766,658272,30244
1321.73,1.335410,658022,30397
1326.23,1.328899,657870,30849
1329.6,1.330396,656482,30678
1332.97,1.336344,654926,30189
1336.33,1.341166,653727,29801
1339.69,1.333451,652497,30278
1343.04,1.333943,649913,30124
1346.39,1.332802,647671,30099
1349.73,1.334785,645338,29854
1354.18,1.331305,641175,29900
1357.52,1.326755,638376,30083
1360.85,1.330158,635805,29728
1364.17,1.320574,633413,30277
1367.49,1.325831,631026,29800
1370.81,1.329455,628050,29413
1374.12,1.331653,625034,29124
1378.54,1.327676,620272,29168
1381.84,1.329642,616892,28878
1385.14,1.328713,613613,28786
1388.43,1.325893,611526,28875
1391.72,1.331170,610663,28486
1395.01,1.322142,610634,29083
1398.29,1.323781,611700,29024
1402.66,1.324416,614051,29093
1405.93,1.331812,616268,28705
1409.2,1.328596,617795,28990
1412.46,1.332857,618872,28757
1415.72,1.331636,619795,28881
1418.98,1.328040,620495,29154
1422.23,1.333127,621087,28842
1426.56,1.332456,621375,28900
1429.8,1.331409,621616,28981
1433.04,1.332442,622129,28936
1436.27,1.330552,621526,29034
1439.5,1.336835,621113,28598
1442.72,1.333538,620921,28807
1445.94,1.329644,620270,29036
1450.23,1.339745,618860,28304
1453.44,1.340788,617697,28183
1456.64,1.332400,616264,28666
1459.85,1.328029,614413,28869
1463.04,1.339951,612307,27991
1466.24,1.340559,610032,27848
1469.43,1.338376,607345,27865
1473.67,1.334939,603789,27922
1476.85,1.336851,601175,27679
1480.02,1.339045,597737,27382
1483.19,1.335547,594479,27453
1486.36,1.337892,591232,27156
1489.52,1.336139,587853,27110
1492.68,1.336067,583875,26931
1496.89,1.340107,578062,26416
1500.03,1.342974,574159,26065
1503.18,1.337360,570285,26226
1506.32,1.336049,565444,26082
1509.45,1.338309,560571,25723
1512.58,1.327762,555821,26132
1515.71,1.338528,550344,25241
1519.87,1.339107,543983,24916
1522.99,1.332712,538764,25043
1526.1,1.345202,533692,24104
1529.21,1.337770,527902,24254
1532.32,1.335883,521886,24082
1535.42,1.337276,515888,23729
1538.51,1.336880,509987,23479
1541.6,1.336364,503936,23228
1545.72,1.333043,494694,22977
1548.8,1.329832,488378,22852
1551.88,1.333385,481832,22362
1554.95,1.338845,474989,21769
1558.02,1.335583,467818,21602
1561.08,1.327868,460730,21656
1564.15,1.329921,454170,21247
1568.22,1.333651,444181,20602
1571.27,1.332291,436947,20330
1574.32,1.334558,429598,19884
1577.36,1.334673,422039,19529
1580.4,1.330197,414375,19373
1583.43,1.331112,406354,18958
1586.46,1.324767,398475,18864
1590.49,1.328001,388982,18278
1593.51,1.337628,380708,17497
1596.53,1.316819,372727,17971
1599.54,1.333990,365060,16919
1602.55,1.323723,357543,16967
1605.55,1.322262,349495,16641
1608.55,1.316626,341154,16456
1612.54,1.327880,330877,15552
1615.53,1.319780,322904,15463
1618.51,1.318402,315116,15138
1621.49,1.320956,307217,14672
1624.47,1.316802,299481,14440
1627.44,1.316823,292112,14084
1630.41,1.322845,284245,13516
1634.36,1.315988,274079,13240
1637.32,1.329986,266916,12485
1640.27,1.319504,259612,12440
1643.22,1.318529,251804,12093
1646.16,1.314144,244348,11854
1649.1,1.301550,236703,11821
1652.04,1.316828,228171,11001
1655.95,1.307301,215408,10616
1658.88,1.303318,204937,10193
1661.8,1.281780,193395,10108
1664.72,1.266146,179728,9738
1667.63,1.247049,163642,9265
1670.54,1.246045,146312,8303
1673.44,1.243574,128451,7331
1677.31,1.215815,105080,6393
1680.21,1.203700,88906,5562
1683.1,1.219730,75033,4524
1685.99,1.187381,63520,4126
1688.87,1.196951,53714,3413
1691.75,1.216833,45653,2771
1694.62,1.124979,39137,2935
1697.49,1.218552,33776,2042
1701.31,1.219160,28175,1701