File: ML/samples/unknown/Column 1_078300_20241121_165518.csv
Method:,Column 1,,
Host Date-Time:,21/11/24 @ 16:55:18,,
Header Version:,1,,
System Temp (C):,34.5,,
Detector Temp (C):,32.55,,
Humidity (%):,2.15,,
Lamp PD:,3802,,
Shift Vector Coefficients:,-10.5391,0.0761263,-0.000134223,,
Pixel to Wavelength Coefficients:,1775.68,-0.916766,-0.000235065,,
Serial Number:,5510004,,
Scan Config Name:,Column 1,,
Scan Config Type:,Slew,,
Section 1,,
Start wavelength (nm):,900,,
End wavelength (nm):,1700,,
Pattern Pixel Width (nm):,   7.03,,,,
Exposure (ms):,  0.635,,,,
Digital Resolution:,228,,
Num Repeats:,6,,
PGA Gain:,64,,
Total Measurement Time in sec:,  2.677,,
Wavelength (nm),Absorbance (AU),Reference Signal (unitless),Sample Signal (unitless)
901.51,1.310766,108485,5304
905.376,1.347247,121306,5453
909.237,1.331965,131909,6142
913.095,1.297045,143299,7231
916.948,1.313098,156982,7634
922.079,1.307246,179937,8869
925.923,1.324399,200504,9500
929.762,1.330066,222660,10413
933.597,1.325453,244426,11553
937.427,1.307715,263972,12997
941.254,1.321773,281845,13435
945.076,1.320100,297271,14225
950.165,1.319966,315605,15107
953.978,1.315062,328029,15880
957.786,1.315491,340470,16466
961.59,1.319947,352317,16865
965.389,1.316291,363056,17526
969.185,1.314051,373162,18107
972.976,1.306067,382632,18911
976.763,1.300744,391202,19573
981.806,1.317790,400190,19252
985.583,1.312526,406088,19774
989.355,1.308422,410162,20162
993.124,1.307161,412868,20354
996.888,1.309224,414263,20326
1000.65,1.306453,415476,20516
1004.4,1.306668,415479,20506
1009.41,1.305685,414358,20497
1013.15,1.309187,412923,20262
1016.89,1.303492,411526,20460
1020.63,1.311263,409066,19977
1024.36,1.308500,406777,19992
1028.09,1.306375,404427,19974
1031.82,1.309091,401911,19726
1036.78,1.311723,398410,19436
1040.49,1.310834,396204,19368
1044.2,1.315292,394236,19075
1047.91,1.323423,392042,18617
1051.61,1.309652,389823,19108
1055.31,1.308197,388234,19094
1059,1.311003,387599,18940
1063.92,1.312718,386688,18821
1067.61,1.313587,386598,18779
1071.29,1.306850,387377,19111
1074.96,1.309035,388536,19072
1078.63,1.307896,389855,19187
1082.3,1.311928,391215,19076
1085.96,1.315694,393215,19008
1090.84,1.312231,396270,19309
1094.49,1.317139,398760,19212
1098.14,1.307497,400987,19753
1101.79,1.327454,403477,18983
1105.43,1.315155,406116,19656
1109.06,1.329559,407701,19089
1112.7,1.324542,409859,19413
1117.53,1.313477,412494,20042
1121.15,1.318010,414909,19950
1124.77,1.319146,416559,19977
1128.38,1.309234,418532,20535
1131.99,1.320678,419956,20069
1135.6,1.325946,421946,19921
1139.2,1.320326,423881,20273
1143.99,1.322073,426786,20330
1147.58,1.321610,428617,20439
1151.17,1.324741,431169,20413
1154.75,1.326417,433579,20448
1158.33,1.322355,436264,20768
1161.91,1.316505,439132,21188
1165.48,1.319653,442389,21191
1169.04,1.320952,446101,21305
1173.79,1.327262,451929,21272
1177.34,1.319479,456026,21853
1180.9,1.316698,461306,22248
1184.44,1.322422,467657,22259
1187.99,1.325599,473969,22395
1191.52,1.317349,479856,23108
1195.06,1.323047,487372,23164
1199.76,1.328838,497347,23325
1203.29,1.327749,504311,23711
1206.81,1.321978,511507,24371
1210.33,1.326102,519078,24498
1213.84,1.329125,527163,24707
1217.35,1.319742,534208,25584
1220.85,1.327290,540472,25438
1225.51,1.325016,549929,26019
1229.01,1.323523,556888,26439
1232.5,1.332719,562180,26131
1235.98,1.323883,567975,26943
1239.46,1.329276,574815,26931
1242.94,1.326758,582782,27463
1246.41,1.326551,591476,27886
1251.03,1.325032,604016,28577
1254.5,1.324304,612289,29017
1257.96,1.326277,619125,29208
1261.41,1.333365,624551,28987
1264.86,1.327188,629900,29654
1268.31,1.323182,634345,30140
1271.75,1.334771,638574,29542
1276.33,1.323188,642499,30527
1279.76,1.329371,645905,30255
1283.19,1.328450,648307,30432
1286.61,1.330023,650446,30422
1290.03,1.328557,652132,30604
1293.44,1.331102,653907,30508
1296.85,1.332665,655963,30494
1301.39,1.327739,657349,30907
1304.8,1.331447,657558,30654
1308.19,1.332546,658515,30621
1311.58,1.332836,658804,30614
1314.97,1.329919,659011,30830
1318.36,1.336147,658272,30357
1321.73,1.339443,658022,30116
1326.23,1.333428,657870,30529
1329.6,1.334792,656482,30369
1332.97,1.330528,654926,30596
1336.33,1.337856,653727,30029
1339.69,1.329070,652497,30585
1343.04,1.339237,649913,29759
1346.39,1.328795,647671,30378
1349.73,1.336563,645338,29732
1354.18,1.330957,641175,29924
1357.52,1.330365,638376,29834
1360.85,1.332429,635805,29573
1364.17,1.325493,633413,29936
1367.49,1.329563,631026,29545
1370.81,1.322352,628050,29898
1374.12,1.325111,625034,29566
1378.54,1.333235,620272,28797
1381.84,1.329958,616892,28857
1385.14,1.330073,613613,28696
1388.43,1.327445,611526,28772
1391.72,1.332055,610663,28428
1395.01,1.331775,610634,28445
1398.29,1.326558,611700,28839
1402.66,1.332659,614051,28546
1405.93,1.333419,616268,28599
1409.2,1.322852,617795,29376
1412.46,1.336238,618872,28534
1415.72,1.330554,619795,28953
1418.98,1.329682,620495,29044
1422.23,1.329663,621087,29073
1426.56,1.340173,621375,28391
1429.8,1.337779,621616,28559
1433.04,1.335908,622129,28706
1436.27,1.335048,621526,28735
1439.5,1.331372,621113,28960
1442.72,1.334655,620921,28733
1445.94,1.333098,620270,28806
1450.23,1.335849,618860,28559
1453.44,1.334956,617697,28564
1456.64,1.334419,616264,28533
1459.85,1.339229,614413,28134
1463.04,1.340184,612307,27976
1466.24,1.336276,610032,28124
1469.43,1.340924,607345,27702
1473.67,1.339426,603789,27635
1476.85,1.332169,601175,27979
1480.02,1.338585,597737,27411
1483.19,1.344820,594479,26873
1486.36,1.340057,591232,27021
1489.52,1.337439,587853,27029
1492.68,1.336664,583875,26894
1496.89,1.341887,578062,26308
1500.03,1.342026,574159,26122
1503.18,1.334620,570285,26392
1506.32,1.343777,565444,25622
1509.45,1.340781,560571,25577
1512.58,1.345209,555821,25103
1515.71,1.339441,550344,25188
1519.87,1.348320,543983,24393
1522.99,1.345524,538764,24315
1526.1,1.333575,533692,24758
1529.21,1.341330,527902,24056
1532.32,1.337672,521886,23983
1535.42,1.337551,515888,23714
1538.51,1.341454,509987,23233
1541.6,1.336551,503936,23218
1545.72,1.338502,494694,22690
1548.8,1.332845,488378,22694
1551.88,1.336680,481832,22193
1554.95,1.332566,474989,22086
1558.02,1.332797,467818,21741
1561.08,1.326547,460730,21722
1564.15,1.336698,454170,20918
1568.22,1.334706,444181,20552
1571.27,1.338553,436947,20039
1574.32,1.340319,429598,19622
1577.36,1.331019,422039,19694
1580.4,1.330421,414375,19363
1583.43,1.333616,406354,18849
1586.46,1.338853,398475,18262
1590.49,1.338048,388982,17860
1593.51,1.333503,380708,17664
1596.53,1.327386,372727,17539
1599.54,1.330156,365060,17069
1602.55,1.318432,357543,17175
1605.55,1.330934,349495,16312
1608.55,1.334843,341154,15780
1612.54,1.326932,330877,15586
1615.53,1.321581,322904,15399
1618.51,1.318689,315116,15128
1621.49,1.316421,307217,14826
1624.47,1.338541,299481,13735
1627.44,1.331340,292112,13621
1630.41,1.329221,284245,13319
1634.36,1.321766,274079,13065
1637.32,1.334778,266916,12348
1640.27,1.326934,259612,12229
1643.22,1.316272,251804,12156
1646.16,1.321161,244348,11664
1649.1,1.322010,236703,11277
1652.04,1.309508,228171,11188
1655.95,1.313149,215408,10474
1658.88,1.302765,204937,10206
1661.8,1.296106,193395,9780
1664.72,1.289791,179728,9222
1667.63,1.277180,163642,8644
1670.54,1.259160,146312,8056
1673.44,1.244048,128451,7323
1677.31,1.217244,105080,6372
1680.21,1.180515,88906,5867
1683.1,1.203247,75033,4699
1685.99,1.224845,63520,3785
1688.87,1.174389,53714,3595
1691.75,1.241334,45653,2619
1694.62,1.231994,39137,2294
1697.49,1.152031,33776,2380
1701.31,1.256739,28175,1560