File: ML/samples/unknown/Column 1_078701_20241121_171801.csv
Method:,Column 1,,
Host Date-Time:,21/11/24 @ 17:18:1,,
Header Version:,1,,
System Temp (C):,35.46,,
Detector Temp (C):,34.36,,
Humidity (%):,1.66,,
Lamp PD:,3799,,
Shift Vector Coefficients:,-10.5391,0.0761263,-0.000134223,,
Pixel to Wavelength Coefficients:,1775.68,-0.916766,-0.000235065,,
Serial Number:,5510004,,
Scan Config Name:,Column 1,,
Scan Config Type:,Slew,,
Section 1,,
Start wavelength (nm):,900,,
End wavelength (nm):,1700,,
Pattern Pixel Width (nm):,   7.03,,,,
Exposure (ms):,  0.635,,,,
Digital Resolution:,228,,
Num Repeats:,6,,
PGA Gain:,64,,
Total Measurement Time in sec:,  2.729,,
Wavelength (nm),Absorbance (AU),Reference Signal (unitless),Sample Signal (unitless)
901.51,1.308887,108485,5327
905.376,1.310242,121306,5938
909.237,1.302775,131909,6569
913.095,1.327197,143299,6746
916.948,1.329385,156982,7353
922.079,1.334528,179937,8329
925.923,1.334950,200504,9272
929.762,1.302358,222660,11099
933.597,1.315383,244426,11824
937.427,1.308986,263972,12959
941.254,1.304006,281845,13996
945.076,1.320009,297271,14228
950.165,1.317415,315605,15196
953.978,1.310573,328029,16045
957.786,1.299896,340470,17068
961.59,1.312467,352317,17158
965.389,1.305450,363056,17969
969.185,1.308664,373162,18333
972.976,1.308462,382632,18807
976.763,1.302122,391202,19511
981.806,1.304746,400190,19839
985.583,1.300034,406088,20351
989.355,1.304284,410162,20355
993.124,1.303401,412868,20531
996.888,1.304169,414263,20564
1000.65,1.309107,415476,20391
1004.4,1.307028,415479,20489
1009.41,1.305177,414358,20521
1013.15,1.310453,412923,20203
1016.89,1.298112,411526,20715
1020.63,1.310590,409066,20008
1024.36,1.301818,406777,20302
1028.09,1.308162,404427,19892
1031.82,1.311165,401911,19632
1036.78,1.305159,398410,19732
1040.49,1.309111,396204,19445
1044.2,1.305544,394236,19508
1047.91,1.294501,392042,19899
1051.61,1.302127,389823,19442
1055.31,1.299549,388234,19478
1059,1.301455,387599,19361
1063.92,1.307694,386688,19040
1067.61,1.313495,386598,18783
1071.29,1.315017,387377,18755
1074.96,1.311341,388536,18971
1078.63,1.303012,389855,19404
1082.3,1.306858,391215,19300
1085.96,1.314393,393215,19065
1090.84,1.307311,396270,19529
1094.49,1.304639,398760,19773
1098.14,1.310896,400987,19599
1101.79,1.313585,403477,19599
1105.43,1.310277,406116,19878
1109.06,1.315787,407701,19704
1112.7,1.316804,409859,19762
1117.53,1.321547,412494,19673
1121.15,1.316402,414909,20024
1124.77,1.315294,416559,20155
1128.38,1.312375,418532,20387
1131.99,1.320202,419956,20091
1135.6,1.317162,421946,20328
1139.2,1.310980,423881,20714
1143.99,1.315269,426786,20651
1147.58,1.309726,428617,21006
1151.17,1.319917,431169,20641
1154.75,1.313548,433579,21063
1158.33,1.314727,436264,21136
1161.91,1.321992,439132,20922
1165.48,1.312659,442389,21535
1169.04,1.312114,446101,21743
1173.79,1.313438,451929,21960
1177.34,1.312715,456026,22196
1180.9,1.313334,461306,22421
1184.44,1.315109,467657,22637
1187.99,1.314098,473969,22996
1191.52,1.317725,479856,23088
1195.06,1.313387,487372,23685
1199.76,1.316141,497347,24017
1203.29,1.321295,504311,24066
1206.81,1.318995,511507,24539
1210.33,1.322571,519078,24698
1213.84,1.320734,527163,25189
1217.35,1.314427,534208,25899
1220.85,1.317650,540472,26009
1225.51,1.318900,549929,26388
1229.01,1.320217,556888,26641
1232.5,1.311824,562180,27419
1235.98,1.316515,567975,27404
1239.46,1.322031,574815,27384
1242.94,1.317155,582782,28077
1246.41,1.320366,591476,28286
1251.03,1.312775,604016,29395
1254.5,1.321410,612289,29211
1257.96,1.321133,619125,29556
1261.41,1.322680,624551,29709
1264.86,1.324153,629900,29862
1268.31,1.324192,634345,30070
1271.75,1.322538,638574,30386
1276.33,1.322449,642499,30579
1279.76,1.324944,645905,30565
1283.19,1.329064,648307,30389
1286.61,1.325098,650446,30769
1290.03,1.325108,652132,30848
1293.44,1.327671,653907,30750
1296.85,1.327343,655963,30870
1301.39,1.330813,657349,30689
1304.8,1.330131,657558,30747
1308.19,1.322328,658515,31350
1311.58,1.327535,658804,30990
1314.97,1.326090,659011,31103
1318.36,1.327969,658272,30934
1321.73,1.327229,658022,30975
1326.23,1.325757,657870,31073
1329.6,1.331658,656482,30589
1332.97,1.326206,654926,30902
1336.33,1.328782,653727,30663
1339.69,1.328800,652497,30604
1343.04,1.321788,649913,30979
1346.39,1.326642,647671,30529
1349.73,1.329363,645338,30229
1354.18,1.324417,641175,30378
1357.52,1.322989,638376,30345
1360.85,1.321094,635805,30355
1364.17,1.323626,633413,30065
1367.49,1.320803,631026,30147
1370.81,1.323326,628050,29831
1374.12,1.327660,625034,29393
1378.54,1.323011,620272,29483
1381.84,1.327871,616892,28996
1385.14,1.326186,613613,28954
1388.43,1.322895,611526,29075
1391.72,1.327995,610663,28695
1395.01,1.321769,610634,29108
1398.29,1.319167,611700,29334
1402.66,1.327322,614051,28899
1405.93,1.322206,616268,29347
1409.2,1.324333,617795,29276
1412.46,1.327439,618872,29118
1415.72,1.330900,619795,28930
1418.98,1.324568,620495,29388
1422.23,1.325855,621087,29329
1426.56,1.331450,621375,28967
1429.8,1.329644,621616,29099
1433.04,1.326939,622129,29305
1436.27,1.329119,621526,29130
1439.5,1.327104,621113,29246
1442.72,1.329950,620921,29046
1445.94,1.330872,620270,28954
1450.23,1.320330,618860,29598
1453.44,1.328048,617697,29022
1456.64,1.326426,616264,29063
1459.85,1.335708,614413,28363
1463.04,1.334646,612307,28335
1466.24,1.334642,610032,28230
1469.43,1.328469,607345,28508
1473.67,1.328700,603789,28326
1476.85,1.332759,601175,27941
1480.02,1.333639,597737,27725
1483.19,1.337449,594479,27333
1486.36,1.326107,591232,27903
1489.52,1.338162,587853,26984
1492.68,1.328474,583875,27406
1496.89,1.336359,578062,26645
1500.03,1.331838,574159,26742
1503.18,1.334587,570285,26394
1506.32,1.334005,565444,26205
1509.45,1.334862,560571,25928
1512.58,1.338327,555821,25504
1515.71,1.328342,550344,25840
1519.87,1.337680,543983,24998
1522.99,1.335321,538764,24893
1526.1,1.339936,533692,24398
1529.21,1.332060,527902,24575
1532.32,1.330489,521886,24383
1535.42,1.331079,515888,24070
1538.51,1.338232,509987,23406
1541.6,1.331548,503936,23487
1545.72,1.332873,494694,22986
1548.8,1.330459,488378,22819
1551.88,1.332861,481832,22389
1554.95,1.332291,474989,22100
1558.02,1.327674,467818,21999
1561.08,1.330645,460730,21518
1564.15,1.334131,454170,21042
1568.22,1.324432,444181,21044
1571.27,1.339030,436947,20017
1574.32,1.326316,429598,20265
1577.36,1.335118,422039,19509
1580.4,1.334998,414375,19160
1583.43,1.325264,406354,19215
1586.46,1.327446,398475,18748
1590.49,1.329596,388982,18211
1593.51,1.325923,380708,17975
1596.53,1.323688,372727,17689
1599.54,1.328303,365060,17142
1602.55,1.328718,357543,16773
1605.55,1.334033,349495,16196
1608.55,1.322873,341154,16221
1612.54,1.315004,330877,16020
1615.53,1.318966,322904,15492
1618.51,1.317571,315116,15167
1621.49,1.313560,307217,14924
1624.47,1.326996,299481,14105
1627.44,1.330321,292112,13653
1630.41,1.320537,284245,13588
1634.36,1.320903,274079,13091
1637.32,1.306756,266916,13171
1640.27,1.317137,259612,12508
1643.22,1.319859,251804,12056
1646.16,1.305654,244348,12088
1649.1,1.299022,236703,11890
1652.04,1.300252,228171,11429
1655.95,1.305994,215408,10648
1658.88,1.299078,204937,10293
1661.8,1.289496,193395,9930
1664.72,1.268068,179728,9695
1667.63,1.265384,163642,8882
1670.54,1.230529,146312,8605
1673.44,1.207225,128451,7971
1677.31,1.207539,105080,6516
1680.21,1.171359,88906,5992
1683.1,1.135917,75033,5487
1685.99,1.161040,63520,4384
1688.87,1.105805,53714,4210
1691.75,1.191713,45653,2936
1694.62,1.115466,39137,3000
1697.49,1.180693,33776,2228
1701.31,1.174783,28175,1884