File: ML/samples/unknown/Column 1_078684_20241121_171711.csv
Method:,Column 1,,
Host Date-Time:,21/11/24 @ 17:17:11,,
Header Version:,1,,
System Temp (C):,34.38,,
Detector Temp (C):,34.88,,
Humidity (%):,1.61,,
Lamp PD:,3801,,
Shift Vector Coefficients:,-10.5391,0.0761263,-0.000134223,,
Pixel to Wavelength Coefficients:,1775.68,-0.916766,-0.000235065,,
Serial Number:,5510004,,
Scan Config Name:,Column 1,,
Scan Config Type:,Slew,,
Section 1,,
Start wavelength (nm):,900,,
End wavelength (nm):,1700,,
Pattern Pixel Width (nm):,   7.03,,,,
Exposure (ms):,  0.635,,,,
Digital Resolution:,228,,
Num Repeats:,6,,
PGA Gain:,64,,
Total Measurement Time in sec:,  2.711,,
Wavelength (nm),Absorbance (AU),Reference Signal (unitless),Sample Signal (unitless)
901.51,1.328993,108485,5086
905.376,1.319781,121306,5809
909.237,1.316817,131909,6360
913.095,1.317961,143299,6891
916.948,1.323169,156982,7459
922.079,1.319059,179937,8631
925.923,1.310853,200504,9801
929.762,1.319478,222660,10670
933.597,1.311653,244426,11926
937.427,1.320223,263972,12628
941.254,1.308749,281845,13844
945.076,1.317058,297271,14325
950.165,1.316273,315605,15236
953.978,1.308736,328029,16113
957.786,1.317341,340470,16396
961.59,1.298102,352317,17735
965.389,1.306006,363056,17946
969.185,1.308119,373162,18356
972.976,1.318767,382632,18366
976.763,1.311231,391202,19106
981.806,1.302389,400190,19947
985.583,1.310226,406088,19879
989.355,1.305695,410162,20289
993.124,1.307396,412868,20343
996.888,1.306838,414263,20438
1000.65,1.314551,415476,20137
1004.4,1.314813,415479,20125
1009.41,1.296358,414358,20942
1013.15,1.303374,412923,20535
1016.89,1.299751,411526,20637
1020.63,1.302419,409066,20388
1024.36,1.299854,406777,20394
1028.09,1.303860,404427,20090
1031.82,1.307991,401911,19776
1036.78,1.308518,398410,19580
1040.49,1.301693,396204,19780
1044.2,1.310334,394236,19294
1047.91,1.312208,392042,19104
1051.61,1.305873,389823,19275
1055.31,1.307038,388234,19145
1059,1.305398,387599,19186
1063.92,1.311658,386688,18867
1067.61,1.322206,386598,18410
1071.29,1.307032,387377,19103
1074.96,1.323835,388536,18433
1078.63,1.317670,389855,18760
1082.3,1.307083,391215,19290
1085.96,1.306918,393215,19396
1090.84,1.314916,396270,19190
1094.49,1.313537,398760,19372
1098.14,1.307959,400987,19732
1101.79,1.309505,403477,19784
1105.43,1.317992,406116,19528
1109.06,1.314929,407701,19743
1112.7,1.312670,409859,19951
1117.53,1.322276,412494,19640
1121.15,1.319821,414909,19867
1124.77,1.307393,416559,20525
1128.38,1.317066,418532,20168
1131.99,1.320916,419956,20058
1135.6,1.317397,421946,20317
1139.2,1.315744,423881,20488
1143.99,1.322821,426786,20295
1147.58,1.325258,428617,20268
1151.17,1.311788,431169,21031
1154.75,1.320553,433579,20726
1158.33,1.309112,436264,21411
1161.91,1.312831,439132,21368
1165.48,1.313669,442389,21485
1169.04,1.313955,446101,21651
1173.79,1.311347,451929,22066
1177.34,1.311269,456026,22270
1180.9,1.321981,461306,21979
1184.44,1.321623,467657,22300
1187.99,1.310374,473969,23194
1191.52,1.319837,479856,22976
1195.06,1.317347,487372,23470
1199.76,1.312593,497347,24214
1203.29,1.315398,504311,24395
1206.81,1.317405,511507,24629
1210.33,1.320536,519078,24814
1213.84,1.328264,527163,24756
1217.35,1.321409,534208,25486
1220.85,1.325654,540472,25534
1225.51,1.322586,549929,26165
1229.01,1.319843,556888,26664
1232.5,1.319204,562180,26957
1235.98,1.316040,567975,27434
1239.46,1.323477,574815,27293
1242.94,1.319124,582782,27950
1246.41,1.320627,591476,28269
1251.03,1.322864,604016,28720
1254.5,1.321663,612289,29194
1257.96,1.331317,619125,28871
1261.41,1.323778,624551,29634
1264.86,1.324342,629900,29849
1268.31,1.321729,634345,30241
1271.75,1.326111,638574,30137
1276.33,1.327176,642499,30248
1279.76,1.331674,645905,30095
1283.19,1.325010,648307,30674
1286.61,1.319795,650446,31147
1290.03,1.328628,652132,30599
1293.44,1.329454,653907,30624
1296.85,1.326738,655963,30913
1301.39,1.325930,657349,31036
1304.8,1.331433,657558,30655
1308.19,1.323994,658515,31230
1311.58,1.324643,658804,31197
1314.97,1.330765,659011,30770
1318.36,1.328728,658272,30880
1321.73,1.325033,658022,31132
1326.23,1.329759,657870,30788
1329.6,1.335336,656482,30331
1332.97,1.332648,654926,30447
1336.33,1.334327,653727,30274
1339.69,1.324339,652497,30920
1343.04,1.330296,649913,30378
1346.39,1.322170,647671,30845
1349.73,1.323725,645338,30624
1354.18,1.325047,641175,30334
1357.52,1.333961,638376,29588
1360.85,1.331285,635805,29651
1364.17,1.325609,633413,29928
1367.49,1.321899,631026,30071
1370.81,1.328658,628050,29467
1374.12,1.328547,625034,29333
1378.54,1.323349,620272,29460
1381.84,1.322350,616892,29367
1385.14,1.325706,613613,28986
1388.43,1.320869,611526,29211
1391.72,1.327345,610663,28738
1395.01,1.326781,610634,28774
1398.29,1.323691,611700,29030
1402.66,1.330928,614051,28660
1405.93,1.330302,616268,28805
1409.2,1.327638,617795,29054
1412.46,1.330688,618872,28901
1415.72,1.332253,619795,28840
1418.98,1.332307,620495,28869
1422.23,1.332345,621087,28894
1426.56,1.334882,621375,28739
1429.8,1.335655,621616,28699
1433.04,1.327191,622129,29288
1436.27,1.332607,621526,28897
1439.5,1.332032,621113,28916
1442.72,1.330743,620921,28993
1445.94,1.333505,620270,28779
1450.23,1.331055,618860,28876
1453.44,1.329427,617697,28930
1456.64,1.332460,616264,28662
1459.85,1.334073,614413,28470
1463.04,1.332201,612307,28495
1466.24,1.328471,610032,28634
1469.43,1.330148,607345,28398
1473.67,1.336200,603789,27841
1476.85,1.332169,601175,27979
1480.02,1.332465,597737,27800
1483.19,1.337863,594479,27307
1486.36,1.331384,591232,27566
1489.52,1.333775,587853,27258
1492.68,1.341389,583875,26603
1496.89,1.331770,578062,26928
1500.03,1.333009,574159,26670
1503.18,1.336285,570285,26291
1506.32,1.337717,565444,25982
1509.45,1.341971,560571,25507
1512.58,1.338463,555821,25496
1515.71,1.338235,550344,25258
1519.87,1.338410,543983,24956
1522.99,1.336037,538764,24852
1526.1,1.329629,533692,24984
1529.21,1.339295,527902,24169
1532.32,1.335432,521886,24107
1535.42,1.334103,515888,23903
1538.51,1.329016,509987,23908
1541.6,1.335560,503936,23271
1545.72,1.336173,494694,22812
1548.8,1.329110,488378,22890
1551.88,1.332803,481832,22392
1554.95,1.336299,474989,21897
1558.02,1.332298,467818,21766
1561.08,1.336926,460730,21209
1564.15,1.331682,454170,21161
1568.22,1.335933,444181,20494
1571.27,1.329035,436947,20483
1574.32,1.327990,429598,20187
1577.36,1.328709,422039,19799
1580.4,1.330174,414375,19374
1583.43,1.327962,406354,19096
1586.46,1.323365,398475,18925
1590.49,1.321281,388982,18563
1593.51,1.332791,380708,17693
1596.53,1.333219,372727,17305
1599.54,1.317296,365060,17582
1602.55,1.325185,357543,16910
1605.55,1.324145,349495,16569
1608.55,1.330462,341154,15940
1612.54,1.317669,330877,15922
1615.53,1.313700,322904,15681
1618.51,1.324964,315116,14911
1621.49,1.315251,307217,14866
1624.47,1.319608,299481,14347
1627.44,1.313108,292112,14205
1630.41,1.323649,284245,13491
1634.36,1.319049,274079,13147
1637.32,1.320830,266916,12751
1640.27,1.309530,259612,12729
1643.22,1.319211,251804,12074
1646.16,1.319341,244348,11713
1649.1,1.327163,236703,11144
1652.04,1.301737,228171,11390
1655.95,1.315644,215408,10414
1658.88,1.290514,204937,10498
1661.8,1.283761,193395,10062
1664.72,1.280519,179728,9421
1667.63,1.265286,163642,8884
1670.54,1.262299,146312,7998
1673.44,1.232404,128451,7522
1677.31,1.206474,105080,6532
1680.21,1.185653,88906,5798
1683.1,1.167342,75033,5104
1685.99,1.229923,63520,3741
1688.87,1.173906,53714,3599
1691.75,1.165872,45653,3116
1694.62,1.222630,39137,2344
1697.49,1.281126,33776,1768
1701.31,1.231591,28175,1653