File: ML/samples/unknown/Column 1_078884_20241121_172650.csv
Method:,Column 1,,
Host Date-Time:,21/11/24 @ 17:26:50,,
Header Version:,1,,
System Temp (C):,37.53,,
Detector Temp (C):,36.18,,
Humidity (%):,0.88,,
Lamp PD:,3796,,
Shift Vector Coefficients:,-10.5391,0.0761263,-0.000134223,,
Pixel to Wavelength Coefficients:,1775.68,-0.916766,-0.000235065,,
Serial Number:,5510004,,
Scan Config Name:,Column 1,,
Scan Config Type:,Slew,,
Section 1,,
Start wavelength (nm):,900,,
End wavelength (nm):,1700,,
Pattern Pixel Width (nm):,   7.03,,,,
Exposure (ms):,  0.635,,,,
Digital Resolution:,228,,
Num Repeats:,6,,
PGA Gain:,64,,
Total Measurement Time in sec:,  2.724,,
Wavelength (nm),Absorbance (AU),Reference Signal (unitless),Sample Signal (unitless)
901.51,1.299851,108485,5439
905.376,1.306528,121306,5989
909.237,1.329919,131909,6171
913.095,1.304068,143299,7115
916.948,1.317271,156982,7561
922.079,1.354480,179937,7955
925.923,1.332195,200504,9331
929.762,1.332199,222660,10362
933.597,1.326657,244426,11521
937.427,1.330348,263972,12337
941.254,1.329042,281845,13212
945.076,1.320956,297271,14197
950.165,1.314027,315605,15315
953.978,1.321620,328029,15642
957.786,1.315860,340470,16452
961.59,1.313227,352317,17128
965.389,1.309334,363056,17809
969.185,1.312997,373162,18151
972.976,1.314953,382632,18528
976.763,1.308512,391202,19226
981.806,1.304703,400190,19841
985.583,1.304302,406088,20152
989.355,1.310711,410162,20056
993.124,1.308529,412868,20290
996.888,1.310465,414263,20268
1000.65,1.308831,415476,20404
1004.4,1.301992,415479,20728
1009.41,1.305643,414358,20499
1013.15,1.305877,412923,20417
1016.89,1.302622,411526,20501
1020.63,1.307605,409066,20146
1024.36,1.308957,406777,19971
1028.09,1.301360,404427,20206
1031.82,1.304644,401911,19929
1036.78,1.301128,398410,19916
1040.49,1.303629,396204,19692
1044.2,1.315747,394236,19055
1047.91,1.306450,392042,19359
1051.61,1.304591,389823,19332
1055.31,1.315907,388234,18758
1059,1.318426,387599,18619
1063.92,1.304852,386688,19165
1067.61,1.306863,386598,19072
1071.29,1.314901,387377,18760
1074.96,1.319242,388536,18629
1078.63,1.304851,389855,19322
1082.3,1.311200,391215,19108
1085.96,1.312325,393215,19156
1090.84,1.320497,396270,18945
1094.49,1.313246,398760,19385
1098.14,1.318925,400987,19240
1101.79,1.317413,403477,19427
1105.43,1.316217,406116,19608
1109.06,1.318751,407701,19570
1112.7,1.309676,409859,20089
1117.53,1.317067,412494,19877
1121.15,1.320652,414909,19829
1124.77,1.309153,416559,20442
1128.38,1.312056,418532,20402
1131.99,1.322174,419956,20000
1135.6,1.313885,421946,20482
1139.2,1.316402,423881,20457
1143.99,1.320218,426786,20417
1147.58,1.317381,428617,20639
1151.17,1.322068,431169,20539
1154.75,1.312786,433579,21100
1158.33,1.314521,436264,21146
1161.91,1.323718,439132,20839
1165.48,1.314823,442389,21428
1169.04,1.316147,446101,21542
1173.79,1.313576,451929,21953
1177.34,1.317397,456026,21958
1180.9,1.313373,461306,22419
1184.44,1.317494,467657,22513
1187.99,1.310955,473969,23163
1191.52,1.323843,479856,22765
1195.06,1.320896,487372,23279
1199.76,1.316141,497347,24017
1203.29,1.312417,504311,24563
1206.81,1.313298,511507,24863
1210.33,1.317032,519078,25015
1213.84,1.327231,527163,24815
1217.35,1.318742,534208,25643
1220.85,1.322283,540472,25733
1225.51,1.319856,549929,26330
1229.01,1.324740,556888,26365
1232.5,1.318512,562180,27000
1235.98,1.319569,567975,27212
1239.46,1.316876,574815,27711
1242.94,1.324015,582782,27637
1246.41,1.321857,591476,28189
1251.03,1.327272,604016,28430
1254.5,1.324813,612289,28983
1257.96,1.319885,619125,29641
1261.41,1.321293,624551,29804
1264.86,1.324880,629900,29812
1268.31,1.322017,634345,30221
1271.75,1.323855,638574,30294
1276.33,1.324642,642499,30425
1279.76,1.328626,645905,30307
1283.19,1.328407,648307,30435
1286.61,1.324858,650446,30786
1290.03,1.328146,652132,30633
1293.44,1.326782,653907,30813
1296.85,1.328456,655963,30791
1301.39,1.323168,657349,31234
1304.8,1.324992,657558,31113
1308.19,1.328973,658515,30874
1311.58,1.326793,658804,31043
1314.97,1.320527,659011,31504
1318.36,1.322833,658272,31302
1321.73,1.327776,658022,30936
1326.23,1.330917,657870,30706
1329.6,1.337058,656482,30211
1332.97,1.328375,654926,30748
1336.33,1.325326,653727,30908
1339.69,1.328729,652497,30609
1343.04,1.328755,649913,30486
1346.39,1.324796,647671,30659
1349.73,1.328502,645338,30289
1354.18,1.324746,641175,30355
1357.52,1.324193,638376,30261
1360.85,1.320279,635805,30412
1364.17,1.326234,633413,29885
1367.49,1.325219,631026,29842
1370.81,1.329337,628050,29421
1374.12,1.328325,625034,29348
1378.54,1.319081,620272,29751
1381.84,1.324380,616892,29230
1385.14,1.330300,613613,28681
1388.43,1.326149,611526,28858
1391.72,1.329709,610663,28582
1395.01,1.325906,610634,28832
1398.29,1.325731,611700,28894
1402.66,1.323551,614051,29151
1405.93,1.332690,616268,28647
1409.2,1.332902,617795,28704
1412.46,1.335721,618872,28568
1415.72,1.330060,619795,28986
1418.98,1.334569,620495,28719
1422.23,1.329842,621087,29061
1426.56,1.329625,621375,29089
1429.8,1.337187,621616,28598
1433.04,1.334820,622129,28778
1436.27,1.329626,621526,29096
1439.5,1.325281,621113,29369
1442.72,1.329442,620921,29080
1445.94,1.333007,620270,28812
1450.23,1.331176,618860,28868
1453.44,1.332259,617697,28742
1456.64,1.332779,616264,28641
1459.85,1.328857,614413,28814
1463.04,1.327456,612307,28808
1466.24,1.333459,610032,28307
1469.43,1.330347,607345,28385
1473.67,1.334317,603789,27962
1476.85,1.332324,601175,27969
1480.02,1.333357,597737,27743
1483.19,1.331500,594479,27710
1486.36,1.332488,591232,27496
1489.52,1.332915,587853,27312
1492.68,1.339532,583875,26717
1496.89,1.335187,578062,26717
1500.03,1.332814,574159,26682
1503.18,1.334850,570285,26378
1506.32,1.331016,565444,26386
1509.45,1.336540,560571,25828
1512.58,1.328794,555821,26070
1515.71,1.339768,550344,25169
1519.87,1.339421,543983,24898
1522.99,1.333928,538764,24973
1526.1,1.330882,533692,24912
1529.21,1.336054,527902,24350
1532.32,1.330542,521886,24380
1535.42,1.336526,515888,23770
1538.51,1.331238,509987,23786
1541.6,1.327590,503936,23702
1545.72,1.331496,494694,23059
1548.8,1.333822,488378,22643
1551.88,1.334727,481832,22293
1554.95,1.332154,474989,22107
1558.02,1.336993,467818,21532
1561.08,1.332647,460730,21419
1564.15,1.338446,454170,20834
1568.22,1.324432,444181,21044
1571.27,1.329162,436947,20477
1574.32,1.332184,429598,19993
1577.36,1.325388,422039,19951
1580.4,1.333347,414375,19233
1583.43,1.330197,406354,18998
1586.46,1.335937,398475,18385
1590.49,1.326270,388982,18351
1593.51,1.328613,380708,17864
1596.53,1.332517,372727,17333
1599.54,1.332913,365060,16961
1602.55,1.328278,357543,16790
1605.55,1.325299,349495,16525
1608.55,1.331362,341154,15907
1612.54,1.326291,330877,15609
1615.53,1.318462,322904,15510
1618.51,1.324440,315116,14929
1621.49,1.319951,307217,14706
1624.47,1.318761,299481,14375
1627.44,1.312406,292112,14228
1630.41,1.306357,284245,14039
1634.36,1.317401,274079,13197
1637.32,1.318046,266916,12833
1640.27,1.299847,259612,13016
1643.22,1.320436,251804,12040
1646.16,1.323813,244348,11593
1649.1,1.308363,236703,11637
1652.04,1.312117,228171,11121
1655.95,1.297752,215408,10852
1658.88,1.295088,204937,10388
1661.8,1.288317,193395,9957
1664.72,1.281673,179728,9396
1667.63,1.251383,163642,9173
1670.54,1.222181,146312,8772
1673.44,1.208644,128451,7945
1677.31,1.142769,105080,7564
1680.21,1.149384,88906,6303
1683.1,1.131429,75033,5544
1685.99,1.128325,63520,4727
1688.87,1.130750,53714,3975
1691.75,1.111818,45653,3529
1694.62,1.114021,39137,3010
1697.49,1.172774,33776,2269
1701.31,1.092883,28175,2275