File: ML/samples/unknown/Column 1_078400_20241121_170049.csv
Method:,Column 1,,
Host Date-Time:,21/11/24 @ 17:0:49,,
Header Version:,1,,
System Temp (C):,34.64,,
Detector Temp (C):,33.88,,
Humidity (%):,2.5,,
Lamp PD:,3802,,
Shift Vector Coefficients:,-10.5391,0.0761263,-0.000134223,,
Pixel to Wavelength Coefficients:,1775.68,-0.916766,-0.000235065,,
Serial Number:,5510004,,
Scan Config Name:,Column 1,,
Scan Config Type:,Slew,,
Section 1,,
Start wavelength (nm):,900,,
End wavelength (nm):,1700,,
Pattern Pixel Width (nm):,   7.03,,,,
Exposure (ms):,  0.635,,,,
Digital Resolution:,228,,
Num Repeats:,6,,
PGA Gain:,64,,
Total Measurement Time in sec:,  2.721,,
Wavelength (nm),Absorbance (AU),Reference Signal (unitless),Sample Signal (unitless)
901.51,1.318699,108485,5208
905.376,1.327703,121306,5704
909.237,1.310244,131909,6457
913.095,1.349995,143299,6401
916.948,1.315780,156982,7587
922.079,1.327647,179937,8462
925.923,1.321302,200504,9568
929.762,1.334426,222660,10309
933.597,1.325791,244426,11544
937.427,1.343065,263972,11981
941.254,1.321062,281845,13457
945.076,1.316937,297271,14329
950.165,1.328120,315605,14826
953.978,1.322509,328029,15610
957.786,1.311997,340470,16599
961.59,1.320669,352317,16837
965.389,1.318253,363056,17447
969.185,1.315902,373162,18030
972.976,1.312872,382632,18617
976.763,1.305070,391202,19379
981.806,1.316844,400190,19294
985.583,1.310772,406088,19854
989.355,1.305481,410162,20299
993.124,1.309429,412868,20248
996.888,1.308733,414263,20349
1000.65,1.313991,415476,20163
1004.4,1.314662,415479,20132
1009.41,1.309110,414358,20336
1013.15,1.314557,412923,20013
1016.89,1.316506,411526,19856
1020.63,1.311046,409066,19987
1024.36,1.313679,406777,19755
1028.09,1.309211,404427,19844
1031.82,1.309091,401911,19726
1036.78,1.314660,398410,19305
1040.49,1.309893,396204,19410
1044.2,1.302991,394236,19623
1047.91,1.313688,392042,19039
1051.61,1.309062,389823,19134
1055.31,1.321312,388234,18526
1059,1.314040,387599,18808
1063.92,1.316612,386688,18653
1067.61,1.316488,386598,18654
1071.29,1.312431,387377,18867
1074.96,1.319708,388536,18609
1078.63,1.307579,389855,19201
1082.3,1.312657,391215,19044
1085.96,1.311691,393215,19184
1090.84,1.316140,396270,19136
1094.49,1.315582,398760,19281
1098.14,1.304932,400987,19870
1101.79,1.310736,403477,19728
1105.43,1.318326,406116,19513
1109.06,1.319284,407701,19546
1112.7,1.318389,409859,19690
1117.53,1.314323,412494,20003
1121.15,1.317553,414909,19971
1124.77,1.326601,416559,19637
1128.38,1.322156,418532,19933
1131.99,1.325028,419956,19869
1135.6,1.315840,421946,20390
1139.2,1.325065,423881,20053
1143.99,1.323892,426786,20245
1147.58,1.315428,428617,20732
1151.17,1.324485,431169,20425
1154.75,1.318316,433579,20833
1158.33,1.313475,436264,21197
1161.91,1.323406,439132,20854
1165.48,1.321604,442389,21096
1169.04,1.324390,446101,21137
1173.79,1.325510,451929,21358
1177.34,1.320792,456026,21787
1180.9,1.316503,461306,22258
1184.44,1.317031,467657,22537
1187.99,1.323973,473969,22479
1191.52,1.313010,479856,23340
1195.06,1.323704,487372,23129
1199.76,1.324558,497347,23556
1203.29,1.331261,504311,23520
1206.81,1.330199,511507,23914
1210.33,1.323099,519078,24668
1213.84,1.327563,527163,24796
1217.35,1.322193,534208,25440
1220.85,1.320161,540472,25859
1225.51,1.326186,549929,25949
1229.01,1.323999,556888,26410
1232.5,1.324048,562180,26658
1235.98,1.325757,567975,26827
1239.46,1.329356,574815,26926
1242.94,1.322901,582782,27708
1246.41,1.329081,591476,27724
1251.03,1.323545,604016,28675
1254.5,1.328092,612289,28765
1257.96,1.325742,619125,29244
1261.41,1.328774,624551,29295
1264.86,1.331811,629900,29340
1268.31,1.328532,634345,29771
1271.75,1.327497,638574,30041
1276.33,1.328153,642499,30180
1279.76,1.331963,645905,30075
1283.19,1.329522,648307,30357
1286.61,1.328826,650446,30506
1290.03,1.331705,652132,30383
1293.44,1.329171,653907,30644
1296.85,1.326542,655963,30927
1301.39,1.329386,657349,30790
1304.8,1.333606,657558,30502
1308.19,1.330763,658515,30747
1311.58,1.329910,658804,30821
1314.97,1.331387,659011,30726
1318.36,1.329826,658272,30802
1321.73,1.338665,658022,30170
1326.23,1.338939,657870,30144
1329.6,1.331501,656482,30600
1332.97,1.331821,654926,30505
1336.33,1.332009,653727,30436
1339.69,1.329113,652497,30582
1343.04,1.331800,649913,30273
1346.39,1.333770,647671,30032
1349.73,1.335003,645338,29839
1354.18,1.334206,641175,29701
1357.52,1.335240,638376,29501
1360.85,1.332649,635805,29558
1364.17,1.332823,633413,29435
1367.49,1.328404,631026,29624
1370.81,1.333445,628050,29144
1374.12,1.327970,625034,29372
1378.54,1.329645,620272,29036
1381.84,1.328621,616892,28946
1385.14,1.329272,613613,28749
1388.43,1.328004,611526,28735
1391.72,1.328253,610663,28678
1395.01,1.328368,610634,28669
1398.29,1.326287,611700,28857
1402.66,1.337447,614051,28233
1405.93,1.332145,616268,28683
1409.2,1.338613,617795,28329
1412.46,1.335204,618872,28602
1415.72,1.330150,619795,28980
1418.98,1.336737,620495,28576
1422.23,1.335664,621087,28674
1426.56,1.332802,621375,28877
1429.8,1.333557,621616,28838
1433.04,1.334910,622129,28772
1436.27,1.337215,621526,28592
1439.5,1.329755,621113,29068
1442.72,1.332740,620921,28860
1445.94,1.333701,620270,28766
1450.23,1.336991,618860,28484
1453.44,1.339496,617697,28267
1456.64,1.338410,616264,28272
1459.85,1.332049,614413,28603
1463.04,1.334784,612307,28326
1466.24,1.339080,610032,27943
1469.43,1.335007,607345,28082
1473.67,1.341947,603789,27475
1476.85,1.341044,601175,27413
1480.02,1.339299,597737,27366
1483.19,1.336893,594479,27368
1486.36,1.342216,591232,26887
1489.52,1.338871,587853,26940
1492.68,1.339386,583875,26726
1496.89,1.342481,578062,26272
1500.03,1.333188,574159,26659
1503.18,1.335724,570285,26325
1506.32,1.340383,565444,25823
1509.45,1.336019,560571,25859
1512.58,1.342227,555821,25276
1515.71,1.341289,550344,25081
1519.87,1.347715,543983,24427
1522.99,1.338087,538764,24735
1526.1,1.343421,533692,24203
1529.21,1.339690,527902,24147
1532.32,1.340087,521886,23850
1535.42,1.334958,515888,23856
1538.51,1.331366,509987,23779
1541.6,1.333141,503936,23401
1545.72,1.337145,494694,22761
1548.8,1.341016,488378,22271
1551.88,1.333929,481832,22334
1554.95,1.339144,474989,21754
1558.02,1.352410,467818,20781
1561.08,1.342345,460730,20946
1564.15,1.334875,454170,21006
1568.22,1.341650,444181,20226
1571.27,1.347221,436947,19643
1574.32,1.337627,429598,19744
1577.36,1.335095,422039,19510
1580.4,1.335497,414375,19138
1583.43,1.339182,406354,18609
1586.46,1.336292,398475,18370
1590.49,1.345603,388982,17552
1593.51,1.324307,380708,18042
1596.53,1.337684,372727,17128
1599.54,1.333579,365060,16935
1602.55,1.333325,357543,16596
1605.55,1.330136,349495,16342
1608.55,1.334541,341154,15791
1612.54,1.319994,330877,15837
1615.53,1.324609,322904,15292
1618.51,1.322495,315116,14996
1621.49,1.325479,307217,14520
1624.47,1.320275,299481,14325
1627.44,1.319608,292112,13994
1630.41,1.319835,284245,13610
1634.36,1.332229,274079,12754
1637.32,1.321580,266916,12729
1640.27,1.335904,259612,11979
1643.22,1.326063,251804,11885
1646.16,1.327349,244348,11499
1649.1,1.316272,236703,11427
1652.04,1.327620,228171,10731
1655.95,1.321100,215408,10284
1658.88,1.306783,204937,10112
1661.8,1.281179,193395,10122
1664.72,1.263656,179728,9794
1667.63,1.259990,163642,8993
1670.54,1.251519,146312,8199
1673.44,1.233503,128451,7503
1677.31,1.217585,105080,6367
1680.21,1.228524,88906,5253
1683.1,1.209296,75033,4634
1685.99,1.209514,63520,3921
1688.87,1.179126,53714,3556
1691.75,1.223625,45653,2728
1694.62,1.203599,39137,2449
1697.49,1.088014,33776,2758
1701.31,1.369598,28175,1203