File: ML/samples/unknown/Column 1_078922_20241121_172840.csv
Method:,Column 1,,
Host Date-Time:,21/11/24 @ 17:28:40,,
Header Version:,1,,
System Temp (C):,37.32,,
Detector Temp (C):,36.38,,
Humidity (%):,0.58,,
Lamp PD:,3796,,
Shift Vector Coefficients:,-10.5391,0.0761263,-0.000134223,,
Pixel to Wavelength Coefficients:,1775.68,-0.916766,-0.000235065,,
Serial Number:,5510004,,
Scan Config Name:,Column 1,,
Scan Config Type:,Slew,,
Section 1,,
Start wavelength (nm):,900,,
End wavelength (nm):,1700,,
Pattern Pixel Width (nm):,   7.03,,,,
Exposure (ms):,  0.635,,,,
Digital Resolution:,228,,
Num Repeats:,6,,
PGA Gain:,64,,
Total Measurement Time in sec:,  2.718,,
Wavelength (nm),Absorbance (AU),Reference Signal (unitless),Sample Signal (unitless)
901.51,1.308398,108485,5333
905.376,1.323234,121306,5763
909.237,1.326694,131909,6217
913.095,1.315573,143299,6929
916.948,1.345510,156982,7085
922.079,1.314455,179937,8723
925.923,1.330615,200504,9365
929.762,1.335860,222660,10275
933.597,1.346439,244426,11008
937.427,1.323434,263972,12535
941.254,1.315706,281845,13624
945.076,1.307968,297271,14628
950.165,1.312216,315605,15379
953.978,1.309680,328029,16078
957.786,1.299362,340470,17089
961.59,1.310573,352317,17233
965.389,1.299068,363056,18235
969.185,1.305995,373162,18446
972.976,1.303845,382632,19008
976.763,1.307272,391202,19281
981.806,1.303457,400190,19898
985.583,1.297142,406088,20487
989.355,1.305588,410162,20294
993.124,1.302577,412868,20570
996.888,1.305289,414263,20511
1000.65,1.300629,415476,20793
1004.4,1.305230,415479,20574
1009.41,1.309046,414358,20339
1013.15,1.295806,412923,20896
1016.89,1.302516,411526,20506
1020.63,1.300867,409066,20461
1024.36,1.308891,406777,19974
1028.09,1.311273,404427,19750
1031.82,1.308761,401911,19741
1036.78,1.305357,398410,19723
1040.49,1.307884,396204,19500
1044.2,1.301400,394236,19695
1047.91,1.309150,392042,19239
1051.61,1.313832,389823,18925
1055.31,1.314220,388234,18831
1059,1.311898,387599,18901
1063.92,1.308150,386688,19020
1067.61,1.308597,386598,18996
1071.29,1.304471,387377,19216
1074.96,1.317241,388536,18715
1078.63,1.311875,389855,19012
1082.3,1.307421,391215,19275
1085.96,1.309298,393215,19290
1090.84,1.310548,396270,19384
1094.49,1.303367,398760,19831
1098.14,1.317798,400987,19290
1101.79,1.315673,403477,19505
1105.43,1.312731,406116,19766
1109.06,1.321400,407701,19451
1112.7,1.311691,409859,19996
1117.53,1.313390,412494,20046
1121.15,1.325852,414909,19593
1124.77,1.312352,416559,20292
1128.38,1.315282,418532,20251
1131.99,1.303058,419956,20900
1135.6,1.309706,421946,20680
1139.2,1.305480,423881,20978
1143.99,1.312669,426786,20775
1147.58,1.321312,428617,20453
1151.17,1.314210,431169,20914
1154.75,1.318775,433579,20811
1158.33,1.321290,436264,20819
1161.91,1.311330,439132,21442
1165.48,1.317364,442389,21303
1169.04,1.320992,446101,21303
1173.79,1.315778,451929,21842
1177.34,1.313028,456026,22180
1180.9,1.316737,461306,22246
1184.44,1.315761,467657,22603
1187.99,1.308450,473969,23297
1191.52,1.313308,479856,23324
1195.06,1.312490,487372,23734
1199.76,1.315292,497347,24064
1203.29,1.318435,504311,24225
1206.81,1.316401,511507,24686
1210.33,1.323892,519078,24623
1213.84,1.319374,527163,25268
1217.35,1.316529,534208,25774
1220.85,1.326727,540472,25471
1225.51,1.321326,549929,26241
1229.01,1.318639,556888,26738
1232.5,1.323918,562180,26666
1235.98,1.320208,567975,27172
1239.46,1.316688,574815,27723
1242.94,1.315827,582782,28163
1246.41,1.321857,591476,28189
1251.03,1.318606,604016,29003
1254.5,1.318166,612289,29430
1257.96,1.325252,619125,29277
1261.41,1.322651,624551,29711
1264.86,1.320821,629900,30092
1268.31,1.325914,634345,29951
1271.75,1.319390,638574,30607
1276.33,1.328873,642499,30130
1279.76,1.328196,645905,30337
1283.19,1.328436,648307,30433
1286.61,1.323365,650446,30892
1290.03,1.319833,652132,31225
1293.44,1.320097,653907,31291
1296.85,1.325070,655963,31032
1301.39,1.328865,657349,30827
1304.8,1.327203,657558,30955
1308.19,1.323604,658515,31258
1311.58,1.327240,658804,31011
1314.97,1.326482,659011,31075
1318.36,1.332755,658272,30595
1321.73,1.326095,658022,31056
1326.23,1.328941,657870,30846
1329.6,1.326296,656482,30969
1332.97,1.333733,654926,30371
1336.33,1.324483,653727,30968
1339.69,1.327964,652497,30663
1343.04,1.327702,649913,30560
1346.39,1.318859,647671,31081
1349.73,1.326742,645338,30412
1354.18,1.324746,641175,30355
1357.52,1.327608,638376,30024
1360.85,1.324037,635805,30150
1364.17,1.325624,633413,29927
1367.49,1.331080,631026,29442
1370.81,1.326805,628050,29593
1374.12,1.327217,625034,29423
1378.54,1.320470,620272,29656
1381.84,1.332221,616892,28707
1385.14,1.328638,613613,28791
1388.43,1.326390,611526,28842
1391.72,1.325656,610663,28850
1395.01,1.320517,610634,29192
1398.29,1.326032,611700,28874
1402.66,1.327758,614051,28870
1405.93,1.328106,616268,28951
1409.2,1.324867,617795,29240
1412.46,1.326501,618872,29181
1415.72,1.329596,619795,29017
1418.98,1.329024,620495,29088
1422.23,1.331234,621087,28968
1426.56,1.324534,621375,29432
1429.8,1.331784,621616,28956
1433.04,1.325444,622129,29406
1436.27,1.327556,621526,29235
1439.5,1.325962,621113,29323
1442.72,1.331148,620921,28966
1445.94,1.328091,620270,29140
1450.23,1.330499,618860,28913
1453.44,1.325274,617697,29208
1456.64,1.330963,616264,28761
1459.85,1.326647,614413,28961
1463.04,1.329436,612307,28677
1466.24,1.334365,610032,28248
1469.43,1.336727,607345,27971
1473.67,1.332627,603789,28071
1476.85,1.333194,601175,27913
1480.02,1.339696,597737,27341
1483.19,1.330561,594479,27770
1486.36,1.336966,591232,27214
1489.52,1.336476,587853,27089
1492.68,1.327129,583875,27491
1496.89,1.332190,578062,26902
1500.03,1.333139,574159,26662
1503.18,1.331700,570285,26570
1506.32,1.337383,565444,26002
1509.45,1.326862,560571,26410
1512.58,1.331082,555821,25933
1515.71,1.332971,550344,25566
1519.87,1.338637,543983,24943
1522.99,1.331811,538764,25095
1526.1,1.336020,533692,24619
1529.21,1.325883,527902,24927
1532.32,1.338053,521886,23962
1535.42,1.334357,515888,23889
1538.51,1.342389,509987,23183
1541.6,1.338745,503936,23101
1545.72,1.323842,494694,23469
1548.8,1.334110,488378,22628
1551.88,1.331196,481832,22475
1554.95,1.334537,474989,21986
1558.02,1.332718,467818,21745
1561.08,1.331979,460730,21452
1564.15,1.330309,454170,21228
1568.22,1.342574,444181,20183
1571.27,1.327532,436947,20554
1574.32,1.327517,429598,20209
1577.36,1.331526,422039,19671
1580.4,1.334296,414375,19191
1583.43,1.334377,406354,18816
1586.46,1.327006,398475,18767
1590.49,1.320627,388982,18591
1593.51,1.325971,380708,17973
1596.53,1.315202,372727,18038
1599.54,1.318681,365060,17526
1602.55,1.323851,357543,16962
1605.55,1.318054,349495,16803
1608.55,1.322659,341154,16229
1612.54,1.318406,330877,15895
1615.53,1.318098,322904,15523
1618.51,1.321511,315116,15030
1621.49,1.318006,307217,14772
1624.47,1.315541,299481,14482
1627.44,1.315992,292112,14111
1630.41,1.327302,284245,13378
1634.36,1.307188,274079,13511
1637.32,1.315617,266916,12905
1640.27,1.304443,259612,12879
1643.22,1.303458,251804,12520
1646.16,1.302076,244348,12188
1649.1,1.306166,236703,11696
1652.04,1.290372,228171,11692
1655.95,1.304243,215408,10691
1658.88,1.291632,204937,10471
1661.8,1.280065,193395,10148
1664.72,1.267620,179728,9705
1667.63,1.247378,163642,9258
1670.54,1.219861,146312,8819
1673.44,1.202780,128451,8053
1677.31,1.118484,105080,7999
1680.21,1.146636,88906,6343
1683.1,1.149504,75033,5318
1685.99,1.138363,63520,4619
1688.87,1.133051,53714,3954
1691.75,1.137939,45653,3323
1694.62,1.096766,39137,3132
1697.49,1.089118,33776,2751
1701.31,1.173402,28175,1890