File: ML/samples/unknown/Column 1_078897_20241121_172727.csv
Method:,Column 1,,
Host Date-Time:,21/11/24 @ 17:27:27,,
Header Version:,1,,
System Temp (C):,37.28,,
Detector Temp (C):,36.34,,
Humidity (%):,0.48,,
Lamp PD:,3796,,
Shift Vector Coefficients:,-10.5391,0.0761263,-0.000134223,,
Pixel to Wavelength Coefficients:,1775.68,-0.916766,-0.000235065,,
Serial Number:,5510004,,
Scan Config Name:,Column 1,,
Scan Config Type:,Slew,,
Section 1,,
Start wavelength (nm):,900,,
End wavelength (nm):,1700,,
Pattern Pixel Width (nm):,   7.03,,,,
Exposure (ms):,  0.635,,,,
Digital Resolution:,228,,
Num Repeats:,6,,
PGA Gain:,64,,
Total Measurement Time in sec:,  2.726,,
Wavelength (nm),Absorbance (AU),Reference Signal (unitless),Sample Signal (unitless)
901.51,1.314632,108485,5257
905.376,1.303421,121306,6032
909.237,1.295823,131909,6675
913.095,1.316325,143299,6917
916.948,1.321426,156982,7489
922.079,1.342473,179937,8178
925.923,1.315128,200504,9705
929.762,1.329483,222660,10427
933.597,1.324139,244426,11588
937.427,1.315163,263972,12776
941.254,1.313861,281845,13682
945.076,1.310439,297271,14545
950.165,1.325492,315605,14916
953.978,1.325525,328029,15502
957.786,1.317473,340470,16391
961.59,1.321909,352317,16789
965.389,1.303906,363056,18033
969.185,1.308167,373162,18354
972.976,1.308808,382632,18792
976.763,1.302545,391202,19492
981.806,1.306523,400190,19758
985.583,1.298926,406088,20403
989.355,1.311839,410162,20004
993.124,1.305628,412868,20426
996.888,1.315227,414263,20047
1000.65,1.308384,415476,20425
1004.4,1.312360,415479,20239
1009.41,1.315240,414358,20051
1013.15,1.304370,412923,20488
1016.89,1.314280,411526,19958
1020.63,1.308273,409066,20115
1024.36,1.313240,406777,19775
1028.09,1.307507,404427,19922
1031.82,1.309509,401911,19707
1036.78,1.312170,398410,19416
1040.49,1.313894,396204,19232
1044.2,1.299398,394236,19786
1047.91,1.309941,392042,19204
1051.61,1.311109,389823,19044
1055.31,1.302862,388234,19330
1059,1.314988,387599,18767
1063.92,1.307968,386688,19028
1067.61,1.314467,386598,18741
1071.29,1.318177,387377,18619
1074.96,1.303716,388536,19307
1078.63,1.318922,389855,18706
1082.3,1.310111,391215,19156
1085.96,1.311148,393215,19208
1090.84,1.326614,396270,18680
1094.49,1.310454,398760,19510
1098.14,1.313452,400987,19484
1101.79,1.319407,403477,19338
1105.43,1.307902,406116,19987
1109.06,1.303210,407701,20283
1112.7,1.312648,409859,19952
1117.53,1.314453,412494,19997
1121.15,1.317814,414909,19959
1124.77,1.317432,416559,20056
1128.38,1.321307,418532,19972
1131.99,1.322217,419956,19998
1135.6,1.315393,421946,20411
1139.2,1.311483,423881,20690
1143.99,1.316216,426786,20606
1147.58,1.310078,428617,20989
1151.17,1.315125,431169,20870
1154.75,1.317796,433579,20858
1158.33,1.316270,436264,21061
1161.91,1.316505,439132,21188
1165.48,1.322305,442389,21062
1169.04,1.316712,446101,21514
1173.79,1.309579,451929,22156
1177.34,1.313126,456026,22175
1180.9,1.312347,461306,22472
1184.44,1.316069,467657,22587
1187.99,1.312270,473969,23093
1191.52,1.323595,479856,22778
1195.06,1.325152,487372,23052
1199.76,1.323784,497347,23598
1203.29,1.319350,504311,24174
1206.81,1.324444,511507,24233
1210.33,1.315974,519078,25076
1213.84,1.323189,527163,25047
1217.35,1.319080,534208,25623
1220.85,1.317716,540472,26005
1225.51,1.321541,549929,26228
1229.01,1.317779,556888,26791
1232.5,1.319655,562180,26929
1235.98,1.324868,567975,26882
1239.46,1.320701,574815,27468
1242.94,1.319917,582782,27899
1246.41,1.324392,591476,28025
1251.03,1.326814,604016,28460
1254.5,1.329332,612289,28683
1257.96,1.322678,619125,29451
1261.41,1.322958,624551,29690
1264.86,1.324240,629900,29856
1268.31,1.327570,634345,29837
1271.75,1.322995,638574,30354
1276.33,1.330534,642499,30015
1279.76,1.324958,645905,30564
1283.19,1.327695,648307,30485
1286.61,1.326427,650446,30675
1290.03,1.324293,652132,30906
1293.44,1.327826,653907,30739
1296.85,1.329373,655963,30726
1301.39,1.327753,657349,30906
1304.8,1.324741,657558,31131
1308.19,1.330876,658515,30739
1311.58,1.324852,658804,31182
1314.97,1.326901,659011,31045
1318.36,1.329911,658272,30796
1321.73,1.330409,658022,30749
1326.23,1.328998,657870,30842
1329.6,1.329265,656482,30758
1332.97,1.329252,654926,30686
1336.33,1.330755,653727,30524
1339.69,1.328389,652497,30633
1343.04,1.326595,649913,30638
1346.39,1.327183,647671,30491
1349.73,1.330183,645338,30172
1354.18,1.323646,641175,30432
1357.52,1.327492,638376,30032
1360.85,1.326782,635805,29960
1364.17,1.320904,633413,30254
1367.49,1.326123,631026,29780
1370.81,1.328040,628050,29509
1374.12,1.325596,625034,29533
1378.54,1.328361,620272,29122
1381.84,1.323164,616892,29312
1385.14,1.327899,613613,28840
1388.43,1.321955,611526,29138
1391.72,1.318416,610663,29335
1395.01,1.323443,610634,28996
1398.29,1.320650,611700,29234
1402.66,1.322613,614051,29214
1405.93,1.324075,616268,29221
1409.2,1.328312,617795,29009
1412.46,1.330027,618872,28945
1415.72,1.334154,619795,28714
1418.98,1.326063,620495,29287
1422.23,1.333489,621087,28818
1426.56,1.327124,621375,29257
1429.8,1.327248,621616,29260
1433.04,1.328899,622129,29173
1436.27,1.331286,621526,28985
1439.5,1.329711,621113,29071
1442.72,1.332349,620921,28886
1445.94,1.334200,620270,28733
1450.23,1.332683,618860,28768
1453.44,1.336297,617697,28476
1456.64,1.328268,616264,28940
1459.85,1.338242,614413,28198
1463.04,1.338093,612307,28111
1466.24,1.326156,610032,28787
1469.43,1.334714,607345,28101
1473.67,1.335203,603789,27905
1476.85,1.337369,601175,27646
1480.02,1.331779,597737,27844
1483.19,1.330060,594479,27802
1486.36,1.332599,591232,27489
1489.52,1.334253,587853,27228
1492.68,1.330221,583875,27296
1496.89,1.339401,578062,26459
1500.03,1.336935,574159,26430
1503.18,1.330183,570285,26663
1506.32,1.337466,565444,25997
1509.45,1.332990,560571,26040
1512.58,1.334630,555821,25722
1515.71,1.335954,550344,25391
1519.87,1.334392,543983,25188
1522.99,1.338895,538764,24689
1526.1,1.335615,533692,24642
1529.21,1.334594,527902,24432
1532.32,1.333814,521886,24197
1535.42,1.335140,515888,23846
1538.51,1.334850,509987,23589
1541.6,1.334442,503936,23331
1545.72,1.331327,494694,23068
1548.8,1.338683,488378,22391
1551.88,1.331467,481832,22461
1554.95,1.333373,474989,22045
1558.02,1.327773,467818,21994
1561.08,1.336844,460730,21213
1564.15,1.331826,454170,21154
1568.22,1.331988,444181,20681
1571.27,1.328273,436947,20519
1574.32,1.331446,429598,20027
1577.36,1.336746,422039,19436
1580.4,1.330668,414375,19352
1583.43,1.329580,406354,19025
1586.46,1.325758,398475,18821
1590.49,1.333549,388982,18046
1593.51,1.329733,380708,17818
1596.53,1.321728,372727,17769
1599.54,1.320196,365060,17465
1602.55,1.321400,357543,17058
1605.55,1.312941,349495,17002
1608.55,1.324160,341154,16173
1612.54,1.329755,330877,15485
1615.53,1.319808,322904,15462
1618.51,1.319407,315116,15103
1621.49,1.311325,307217,15001
1624.47,1.321671,299481,14279
1627.44,1.321817,292112,13923
1630.41,1.306233,284245,14043
1634.36,1.312557,274079,13345
1637.32,1.310332,266916,13063
1640.27,1.320518,259612,12411
1643.22,1.325808,251804,11892
1646.16,1.315575,244348,11815
1649.1,1.298073,236703,11916
1652.04,1.320754,228171,10902
1655.95,1.286611,215408,11134
1658.88,1.297478,204937,10331
1661.8,1.273524,193395,10302
1664.72,1.260871,179728,9857
1667.63,1.259459,163642,9004
1670.54,1.231540,146312,8585
1673.44,1.193813,128451,8221
1677.31,1.151175,105080,7419
1680.21,1.150280,88906,6290
1683.1,1.149177,75033,5322
1685.99,1.129705,63520,4712
1688.87,1.150876,53714,3795
1691.75,1.185836,45653,2976
1694.62,1.208413,39137,2422
1697.49,1.186383,33776,2199
1701.31,1.202136,28175,1769