File: ML/samples/unknown/Column 1_078071_20241121_164403.csv
Method:,Column 1,,
Host Date-Time:,21/11/24 @ 16:44:3,,
Header Version:,1,,
System Temp (C):,31.43,,
Detector Temp (C):,26.39,,
Humidity (%):,5.22,,
Lamp PD:,3808,,
Shift Vector Coefficients:,-10.5391,0.0761263,-0.000134223,,
Pixel to Wavelength Coefficients:,1775.68,-0.916766,-0.000235065,,
Serial Number:,5510004,,
Scan Config Name:,Column 1,,
Scan Config Type:,Slew,,
Section 1,,
Start wavelength (nm):,900,,
End wavelength (nm):,1700,,
Pattern Pixel Width (nm):,   7.03,,,,
Exposure (ms):,  0.635,,,,
Digital Resolution:,228,,
Num Repeats:,6,,
PGA Gain:,64,,
Total Measurement Time in sec:,  2.707,,
Wavelength (nm),Absorbance (AU),Reference Signal (unitless),Sample Signal (unitless)
901.51,1.301210,108485,5422
905.376,1.352132,121306,5392
909.237,1.346342,131909,5942
913.095,1.294589,143299,7272
916.948,1.325212,156982,7424
922.079,1.316251,179937,8687
925.923,1.311829,200504,9779
929.762,1.301264,222660,11127
933.597,1.309364,244426,11989
937.427,1.320981,263972,12606
941.254,1.330194,281845,13177
945.076,1.314519,297271,14409
950.165,1.308056,315605,15527
953.978,1.317283,328029,15799
957.786,1.312494,340470,16580
961.59,1.315107,352317,17054
965.389,1.307169,363056,17898
969.185,1.317422,373162,17967
972.976,1.312685,382632,18625
976.763,1.310663,391202,19131
981.806,1.309855,400190,19607
985.583,1.308373,406088,19964
989.355,1.308379,410162,20164
993.124,1.307332,412868,20346
996.888,1.308157,414263,20376
1000.65,1.306729,415476,20503
1004.4,1.306012,415479,20537
1009.41,1.307660,414358,20404
1013.15,1.306750,412923,20376
1016.89,1.314585,411526,19944
1020.63,1.312526,409066,19919
1024.36,1.319455,406777,19494
1028.09,1.312705,404427,19685
1031.82,1.313739,401911,19516
1036.78,1.304939,398410,19742
1040.49,1.291794,396204,20236
1044.2,1.307686,394236,19412
1047.91,1.313985,392042,19026
1051.61,1.311337,389823,19034
1055.31,1.316509,388234,18732
1059,1.310842,387599,18947
1063.92,1.315937,386688,18682
1067.61,1.308986,386598,18979
1071.29,1.322043,387377,18454
1074.96,1.309194,388536,19065
1078.63,1.317925,389855,18749
1082.3,1.310474,391215,19140
1085.96,1.314257,393215,19071
1090.84,1.317527,396270,19075
1094.49,1.318565,398760,19149
1098.14,1.321279,400987,19136
1101.79,1.311705,403477,19684
1105.43,1.323633,406116,19276
1109.06,1.314247,407701,19774
1112.7,1.318587,409859,19681
1117.53,1.326520,412494,19449
1121.15,1.314454,414909,20114
1124.77,1.324153,416559,19748
1128.38,1.314853,418532,20271
1131.99,1.318799,419956,20156
1135.6,1.324292,421946,19997
1139.2,1.322926,423881,20152
1143.99,1.319050,426786,20472
1147.58,1.326869,428617,20193
1151.17,1.318384,431169,20714
1154.75,1.323644,433579,20579
1158.33,1.316931,436264,21029
1161.91,1.324866,439132,20784
1165.48,1.312176,442389,21559
1169.04,1.323261,446101,21192
1173.79,1.320114,451929,21625
1177.34,1.322790,456026,21687
1180.9,1.312173,461306,22481
1184.44,1.329979,467657,21875
1187.99,1.315858,473969,22903
1191.52,1.318591,479856,23042
1195.06,1.326718,487372,22969
1199.76,1.321032,497347,23748
1203.29,1.323520,504311,23943
1206.81,1.322656,511507,24333
1210.33,1.322817,519078,24684
1213.84,1.322496,527163,25087
1217.35,1.319555,534208,25595
1220.85,1.333879,540472,25055
1225.51,1.329041,549929,25779
1229.01,1.325779,556888,26302
1232.5,1.333368,562180,26092
1235.98,1.325660,567975,26833
1239.46,1.323318,574815,27303
1242.94,1.321664,582782,27787
1246.41,1.325353,591476,27963
1251.03,1.331000,604016,28187
1254.5,1.325773,612289,28919
1257.96,1.326812,619125,29172
1261.41,1.328611,624551,29306
1264.86,1.331516,629900,29360
1268.31,1.328912,634345,29745
1271.75,1.330820,638574,29812
1276.33,1.334064,642499,29772
1279.76,1.331285,645905,30122
1283.19,1.333691,648307,30067
1286.61,1.327674,650446,30587
1290.03,1.334415,652132,30194
1293.44,1.328831,653907,30668
1296.85,1.332195,655963,30527
1301.39,1.336153,657349,30314
1304.8,1.333008,657558,30544
1308.19,1.327050,658515,31011
1311.58,1.332269,658804,30654
1314.97,1.336376,659011,30375
1318.36,1.330179,658272,30777
1321.73,1.329915,658022,30784
1326.23,1.332802,657870,30573
1329.6,1.334421,656482,30395
1332.97,1.334793,654926,30297
1336.33,1.337075,653727,30083
1339.69,1.329909,652497,30526
1343.04,1.330382,649913,30372
1346.39,1.331909,647671,30161
1349.73,1.335863,645338,29780
1354.18,1.330116,641175,29982
1357.52,1.332437,638376,29692
1360.85,1.331197,635805,29657
1364.17,1.330733,633413,29577
1367.49,1.321885,631026,30072
1370.81,1.327951,628050,29515
1374.12,1.328725,625034,29321
1378.54,1.327051,620272,29210
1381.84,1.327302,616892,29034
1385.14,1.334592,613613,28399
1388.43,1.327415,611526,28774
1391.72,1.323449,610663,28997
1395.01,1.332784,610634,28379
1398.29,1.323049,611700,29073
1402.66,1.327307,614051,28900
1405.93,1.327192,616268,29012
1409.2,1.331920,617795,28769
1412.46,1.338298,618872,28399
1415.72,1.327520,619795,29156
1418.98,1.327623,620495,29182
1422.23,1.333157,621087,28840
1426.56,1.334580,621375,28759
1429.8,1.333015,621616,28874
1433.04,1.338518,622129,28534
1436.27,1.334233,621526,28789
1439.5,1.335576,621113,28681
1442.72,1.331343,620921,28953
1445.94,1.337736,620270,28500
1450.23,1.341913,618860,28163
1453.44,1.329968,617697,28894
1456.64,1.334419,616264,28533
1459.85,1.333753,614413,28491
1463.04,1.339083,612307,28047
1466.24,1.339328,610032,27927
1469.43,1.337442,607345,27925
1473.67,1.337935,603789,27730
1476.85,1.337212,601175,27656
1480.02,1.333106,597737,27759
1483.19,1.345613,594479,26824
1486.36,1.338244,591232,27134
1489.52,1.342611,587853,26709
1492.68,1.339955,583875,26691
1496.89,1.332642,578062,26874
1500.03,1.341743,574159,26139
1503.18,1.343497,570285,25858
1506.32,1.335400,565444,26121
1509.45,1.334594,560571,25944
1512.58,1.337918,555821,25528
1515.71,1.337943,550344,25275
1519.87,1.336500,543983,25066
1522.99,1.340887,538764,24576
1526.1,1.332087,533692,24843
1529.21,1.341456,527902,24049
1532.32,1.334784,521886,24143
1535.42,1.340233,515888,23568
1538.51,1.346871,509987,22945
1541.6,1.335225,503936,23289
1545.72,1.339077,494694,22660
1548.8,1.344777,488378,22079
1551.88,1.336836,481832,22185
1554.95,1.338725,474989,21775
1558.02,1.344479,467818,21164
1561.08,1.337459,460730,21183
1564.15,1.330821,454170,21203
1568.22,1.330437,444181,20755
1571.27,1.332462,436947,20322
1574.32,1.336704,429598,19786
1577.36,1.336634,422039,19441
1580.4,1.333076,414375,19245
1583.43,1.325151,406354,19220
1586.46,1.331519,398475,18573
1590.49,1.340976,388982,17740
1593.51,1.333601,380708,17660
1596.53,1.339056,372727,17074
1599.54,1.328125,365060,17149
1602.55,1.329547,357543,16741
1605.55,1.324643,349495,16550
1608.55,1.324832,341154,16148
1612.54,1.331132,330877,15436
1615.53,1.328718,322904,15148
1618.51,1.336594,315116,14517
1621.49,1.319154,307217,14733
1624.47,1.332387,299481,13931
1627.44,1.324947,292112,13823
1630.41,1.329352,284245,13315
1634.36,1.319181,274079,13143
1637.32,1.317674,266916,12844
1640.27,1.311137,259612,12682
1643.22,1.324714,251804,11922
1646.16,1.314951,244348,11832
1649.1,1.321394,236703,11293
1652.04,1.314348,228171,11064
1655.95,1.303310,215408,10714
1658.88,1.309066,204937,10059
1661.8,1.307854,193395,9519
1664.72,1.309689,179728,8809
1667.63,1.329779,163642,7658
1670.54,1.314756,146312,7088
1673.44,1.305076,128451,6363
1677.31,1.326126,105080,4959
1680.21,1.326717,88906,4190
1683.1,1.279646,75033,3941
1685.99,1.328986,63520,2978
1688.87,1.274938,53714,2852
1691.75,1.258414,45653,2518
1694.62,1.256328,39137,2169
1697.49,1.298671,33776,1698
1701.31,1.454668,28175,989