File: ML/samples/unknown/Column 1_078608_20241121_171104.csv
Method:,Column 1,,
Host Date-Time:,21/11/24 @ 17:11:4,,
Header Version:,1,,
System Temp (C):,37.06,,
Detector Temp (C):,35.04,,
Humidity (%):,0.98,,
Lamp PD:,3797,,
Shift Vector Coefficients:,-10.5391,0.0761263,-0.000134223,,
Pixel to Wavelength Coefficients:,1775.68,-0.916766,-0.000235065,,
Serial Number:,5510004,,
Scan Config Name:,Column 1,,
Scan Config Type:,Slew,,
Section 1,,
Start wavelength (nm):,900,,
End wavelength (nm):,1700,,
Pattern Pixel Width (nm):,   7.03,,,,
Exposure (ms):,  0.635,,,,
Digital Resolution:,228,,
Num Repeats:,6,,
PGA Gain:,64,,
Total Measurement Time in sec:,  2.726,,
Wavelength (nm),Absorbance (AU),Reference Signal (unitless),Sample Signal (unitless)
901.51,1.291782,108485,5541
905.376,1.342022,121306,5519
909.237,1.310042,131909,6460
913.095,1.328551,143299,6725
916.948,1.307446,156982,7734
922.079,1.320925,179937,8594
925.923,1.312985,200504,9753
929.762,1.320456,222660,10646
933.597,1.312309,244426,11908
937.427,1.336267,263972,12170
941.254,1.320417,281845,13477
945.076,1.315998,297271,14360
950.165,1.310778,315605,15430
953.978,1.315171,328029,15876
957.786,1.310691,340470,16649
961.59,1.310144,352317,17250
965.389,1.313795,363056,17627
969.185,1.313859,373162,18115
972.976,1.311870,382632,18660
976.763,1.311140,391202,19110
981.806,1.308109,400190,19686
985.583,1.308438,406088,19961
989.355,1.305032,410162,20320
993.124,1.306479,412868,20386
996.888,1.310058,414263,20287
1000.65,1.303920,415476,20636
1004.4,1.304935,415479,20588
1009.41,1.312605,414358,20173
1013.15,1.306218,412923,20401
1016.89,1.306580,411526,20315
1020.63,1.314953,409066,19808
1024.36,1.310569,406777,19897
1028.09,1.307115,404427,19940
1031.82,1.308871,401911,19736
1036.78,1.313470,398410,19358
1040.49,1.300290,396204,19844
1044.2,1.305878,394236,19493
1047.91,1.297546,392042,19760
1051.61,1.307250,389823,19214
1055.31,1.302704,388234,19337
1059,1.297925,387599,19519
1063.92,1.309064,386688,18980
1067.61,1.305000,386598,19154
1071.29,1.316641,387377,18685
1074.96,1.312487,388536,18921
1078.63,1.298248,389855,19618
1082.3,1.307624,391215,19266
1085.96,1.309455,393215,19283
1090.84,1.303261,396270,19712
1094.49,1.308079,398760,19617
1098.14,1.309967,400987,19641
1101.79,1.316341,403477,19475
1105.43,1.308664,406116,19952
1109.06,1.308596,407701,20033
1112.7,1.317728,409859,19720
1117.53,1.310023,412494,20202
1121.15,1.321639,414909,19784
1124.77,1.318994,416559,19984
1128.38,1.310844,418532,20459
1131.99,1.318972,419956,20148
1135.6,1.315818,421946,20391
1139.2,1.325715,423881,20023
1143.99,1.314345,426786,20695
1147.58,1.315219,428617,20742
1151.17,1.321392,431169,20571
1154.75,1.313239,433579,21078
1158.33,1.313557,436264,21193
1161.91,1.319199,439132,21057
1165.48,1.319694,442389,21189
1169.04,1.311874,446101,21755
1173.79,1.313359,451929,21964
1177.34,1.312031,456026,22231
1180.9,1.315606,461306,22304
1184.44,1.306278,467657,23102
1187.99,1.312307,473969,23091
1191.52,1.317292,479856,23111
1195.06,1.316978,487372,23490
1199.76,1.316466,497347,23999
1203.29,1.315380,504311,24396
1206.81,1.315663,511507,24728
1210.33,1.322553,519078,24699
1213.84,1.321943,527163,25119
1217.35,1.321136,534208,25502
1220.85,1.321221,540472,25796
1225.51,1.319674,549929,26341
1229.01,1.325333,556888,26329
1232.5,1.319929,562180,26912
1235.98,1.322339,567975,27039
1239.46,1.321635,574815,27409
1242.94,1.318053,582782,28019
1246.41,1.320120,591476,28302
1251.03,1.324698,604016,28599
1254.5,1.319511,612289,29339
1257.96,1.325281,619125,29275
1261.41,1.322855,624551,29697
1264.86,1.321196,629900,30066
1268.31,1.320310,634345,30340
1271.75,1.325204,638574,30200
1276.33,1.326846,642499,30271
1279.76,1.324916,645905,30567
1283.19,1.327182,648307,30521
1286.61,1.321653,650446,31014
1290.03,1.329438,652132,30542
1293.44,1.326148,653907,30858
1296.85,1.326682,655963,30917
1301.39,1.322016,657349,31317
1304.8,1.321641,657558,31354
1308.19,1.327120,658515,31006
1311.58,1.322297,658804,31366
1314.97,1.337163,659011,30320
1318.36,1.332088,658272,30642
1321.73,1.329295,658022,30828
1326.23,1.329519,657870,30805
1329.6,1.331984,656482,30566
1332.97,1.328389,654926,30747
1336.33,1.330144,653727,30567
1339.69,1.325056,652497,30869
1343.04,1.328399,649913,30511
1346.39,1.322465,647671,30824
1349.73,1.325188,645338,30521
1354.18,1.326424,641175,30238
1357.52,1.327261,638376,30048
1360.85,1.322355,635805,30267
1364.17,1.323525,633413,30072
1367.49,1.322159,631026,30053
1370.81,1.326145,628050,29638
1374.12,1.328207,625034,29356
1378.54,1.323866,620272,29425
1381.84,1.328051,616892,28984
1385.14,1.322824,613613,29179
1388.43,1.325577,611526,28896
1391.72,1.317041,610663,29428
1395.01,1.326660,610634,28782
1398.29,1.321483,611700,29178
1402.66,1.325507,614051,29020
1405.93,1.327656,616268,28981
1409.2,1.328147,617795,29020
1412.46,1.323121,618872,29409
1415.72,1.325440,619795,29296
1418.98,1.328159,620495,29146
1422.23,1.330365,621087,29026
1426.56,1.331930,621375,28935
1429.8,1.327753,621616,29226
1433.04,1.335137,622129,28757
1436.27,1.330298,621526,29051
1439.5,1.332814,621113,28864
1442.72,1.334701,620921,28730
1445.94,1.330827,620270,28957
1450.23,1.322817,618860,29429
1453.44,1.324902,617697,29233
1456.64,1.324280,616264,29207
1459.85,1.332398,614413,28580
1463.04,1.326207,612307,28891
1466.24,1.331820,610032,28414
1469.43,1.331312,607345,28322
1473.67,1.334814,603789,27930
1476.85,1.333272,601175,27908
1480.02,1.332887,597737,27773
1483.19,1.338038,594479,27296
1486.36,1.333026,591232,27462
1489.52,1.332280,587853,27352
1492.68,1.334008,583875,27059
1496.89,1.327789,578062,27176
1500.03,1.331432,574159,26767
1503.18,1.339069,570285,26123
1506.32,1.335782,565444,26098
1509.45,1.341172,560571,25554
1512.58,1.329628,555821,26020
1515.71,1.333447,550344,25538
1519.87,1.328994,543983,25503
1522.99,1.334485,538764,24941
1526.1,1.334154,533692,24725
1529.21,1.338899,527902,24191
1532.32,1.329741,521886,24425
1535.42,1.331314,515888,24057
1538.51,1.328072,509987,23960
1541.6,1.331622,503936,23483
1545.72,1.328119,494694,23239
1548.8,1.332348,488378,22720
1551.88,1.342590,481832,21893
1554.95,1.333117,474989,22058
1558.02,1.331780,467818,21792
1561.08,1.331695,460730,21466
1564.15,1.335848,454170,20959
1568.22,1.325548,444181,20990
1571.27,1.330139,436947,20431
1574.32,1.326273,429598,20267
1577.36,1.328863,422039,19792
1580.4,1.328184,414375,19463
1583.43,1.324948,406354,19229
1586.46,1.331964,398475,18554
1590.49,1.321071,388982,18572
1593.51,1.323658,380708,18069
1596.53,1.333169,372727,17307
1599.54,1.329063,365060,17112
1602.55,1.317850,357543,17198
1605.55,1.327962,349495,16424
1608.55,1.325936,341154,16107
1612.54,1.319227,330877,15865
1615.53,1.322428,322904,15369
1618.51,1.318144,315116,15147
1621.49,1.315105,307217,14871
1624.47,1.332075,299481,13941
1627.44,1.323943,292112,13855
1630.41,1.318592,284245,13649
1634.36,1.316152,274079,13235
1637.32,1.315583,266916,12906
1640.27,1.327574,259612,12211
1643.22,1.327161,251804,11855
1646.16,1.314767,244348,11837
1649.1,1.308102,236703,11644
1652.04,1.302691,228171,11365
1655.95,1.319624,215408,10319
1658.88,1.297394,204937,10333
1661.8,1.263028,193395,10554
1664.72,1.264543,179728,9774
1667.63,1.251099,163642,9179
1670.54,1.228917,146312,8637
1673.44,1.229814,128451,7567
1677.31,1.213309,105080,6430
1680.21,1.184008,88906,5820
1683.1,1.161090,75033,5178
1685.99,1.156409,63520,4431
1688.87,1.126510,53714,4014
1691.75,1.144656,45653,3272
1694.62,1.161063,39137,2701
1697.49,1.187174,33776,2195
1701.31,1.166111,28175,1922