File: ML/samples/unknown/Column 1_078595_20241121_171025.csv
Method:,Column 1,,
Host Date-Time:,21/11/24 @ 17:10:25,,
Header Version:,1,,
System Temp (C):,36.75,,
Detector Temp (C):,34.8,,
Humidity (%):,1.22,,
Lamp PD:,3798,,
Shift Vector Coefficients:,-10.5391,0.0761263,-0.000134223,,
Pixel to Wavelength Coefficients:,1775.68,-0.916766,-0.000235065,,
Serial Number:,5510004,,
Scan Config Name:,Column 1,,
Scan Config Type:,Slew,,
Section 1,,
Start wavelength (nm):,900,,
End wavelength (nm):,1700,,
Pattern Pixel Width (nm):,   7.03,,,,
Exposure (ms):,  0.635,,,,
Digital Resolution:,228,,
Num Repeats:,6,,
PGA Gain:,64,,
Total Measurement Time in sec:,  2.725,,
Wavelength (nm),Absorbance (AU),Reference Signal (unitless),Sample Signal (unitless)
901.51,1.325168,108485,5131
905.376,1.349162,121306,5429
909.237,1.306493,131909,6513
913.095,1.345540,143299,6467
916.948,1.315608,156982,7590
922.079,1.313609,179937,8740
925.923,1.322165,200504,9549
929.762,1.324102,222660,10557
933.597,1.310162,244426,11967
937.427,1.319914,263972,12637
941.254,1.320256,281845,13482
945.076,1.316664,297271,14338
950.165,1.315362,315605,15268
953.978,1.316596,328029,15824
957.786,1.310691,340470,16649
961.59,1.307834,352317,17342
965.389,1.308287,363056,17852
969.185,1.307717,373162,18373
972.976,1.305791,382632,18923
976.763,1.306237,391202,19327
981.806,1.305777,400190,19792
985.583,1.309331,406088,19920
989.355,1.307561,410162,20202
993.124,1.299904,412868,20697
996.888,1.309566,414263,20310
1000.65,1.303332,415476,20664
1004.4,1.305019,415479,20584
1009.41,1.309153,414358,20334
1013.15,1.305516,412923,20434
1016.89,1.308874,411526,20208
1020.63,1.303080,409066,20357
1024.36,1.301967,406777,20295
1028.09,1.295235,404427,20493
1031.82,1.297683,401911,20251
1036.78,1.306062,398410,19691
1040.49,1.309401,396204,19432
1044.2,1.311890,394236,19225
1047.91,1.312663,392042,19084
1051.61,1.307974,389823,19182
1055.31,1.311118,388234,18966
1059,1.313163,387599,18846
1063.92,1.307352,386688,19055
1067.61,1.309971,386598,18936
1071.29,1.304765,387377,19203
1074.96,1.311685,388536,18956
1078.63,1.308032,389855,19181
1082.3,1.309861,391215,19167
1085.96,1.314690,393215,19052
1090.84,1.311782,396270,19329
1094.49,1.305452,398760,19736
1098.14,1.319467,400987,19216
1101.79,1.312788,403477,19635
1105.43,1.312534,406116,19775
1109.06,1.311685,407701,19891
1112.7,1.310239,409859,20063
1117.53,1.303897,412494,20489
1121.15,1.317075,414909,19993
1124.77,1.315358,416559,20152
1128.38,1.318295,418532,20111
1131.99,1.310942,419956,20524
1135.6,1.321284,421946,20136
1139.2,1.315045,423881,20521
1143.99,1.309213,426786,20941
1147.58,1.318139,428617,20603
1151.17,1.314855,431169,20883
1154.75,1.321644,433579,20674
1158.33,1.314850,436264,21130
1161.91,1.315993,439132,21213
1165.48,1.317629,442389,21290
1169.04,1.311375,446101,21780
1173.79,1.318791,451929,21691
1177.34,1.314853,456026,22087
1180.9,1.313063,461306,22435
1184.44,1.317494,467657,22513
1187.99,1.315668,473969,22913
1191.52,1.318289,479856,23058
1195.06,1.314250,487372,23638
1199.76,1.314030,497347,24134
1203.29,1.325338,504311,23843
1206.81,1.316999,511507,24652
1210.33,1.317275,519078,25001
1213.84,1.317607,527163,25371
1217.35,1.320472,534208,25541
1220.85,1.320363,540472,25847
1225.51,1.321591,549929,26225
1229.01,1.323309,556888,26452
1232.5,1.320204,562180,26895
1235.98,1.318979,567975,27249
1239.46,1.319722,574815,27530
1242.94,1.315195,582782,28204
1246.41,1.325975,591476,27923
1251.03,1.318665,604016,28999
1254.5,1.322154,612289,29161
1257.96,1.317285,619125,29819
1261.41,1.328863,624551,29289
1264.86,1.322006,629900,30010
1268.31,1.323990,634345,30084
1271.75,1.317649,638574,30730
1276.33,1.320070,642499,30747
1279.76,1.329228,645905,30265
1283.19,1.325690,648307,30626
1286.61,1.330466,650446,30391
1290.03,1.327240,652132,30697
1293.44,1.319833,653907,31310
1296.85,1.324650,655963,31062
1301.39,1.327852,657349,30899
1304.8,1.327582,657558,30928
1308.19,1.326658,658515,31039
1311.58,1.330290,658804,30794
1314.97,1.328695,659011,30917
1318.36,1.328672,658272,30884
1321.73,1.332264,658022,30618
1326.23,1.328477,657870,30879
1329.6,1.324896,656482,31069
1332.97,1.331238,654926,30546
1336.33,1.323587,653727,31032
1339.69,1.328900,652497,30597
1343.04,1.329568,649913,30429
1346.39,1.329869,647671,30303
1349.73,1.330313,645338,30163
1354.18,1.324603,641175,30365
1357.52,1.326135,638376,30126
1360.85,1.322900,635805,30229
1364.17,1.325348,633413,29946
1367.49,1.323042,631026,29992
1370.81,1.321844,628050,29933
1374.12,1.325361,625034,29549
1378.54,1.322937,620272,29488
1381.84,1.324410,616892,29228
1385.14,1.325527,613613,28998
1388.43,1.327400,611526,28775
1391.72,1.324183,610663,28948
1395.01,1.326132,610634,28817
1398.29,1.322109,611700,29136
1402.66,1.324819,614051,29066
1405.93,1.327566,616268,28987
1409.2,1.324956,617795,29234
1412.46,1.324763,618872,29298
1415.72,1.326093,619795,29252
1418.98,1.327103,620495,29217
1422.23,1.320352,621087,29703
1426.56,1.331091,621375,28991
1429.8,1.330541,621616,29039
1433.04,1.331842,622129,28976
1436.27,1.328553,621526,29168
1439.5,1.329726,621113,29070
1442.72,1.334625,620921,28735
1445.94,1.327957,620270,29149
1450.23,1.326284,618860,29195
1453.44,1.328213,617697,29011
1456.64,1.333279,616264,28608
1459.85,1.332292,614413,28587
1463.04,1.333253,612307,28426
1466.24,1.330645,610032,28491
1469.43,1.332048,607345,28274
1473.67,1.339709,603789,27617
1476.85,1.333381,601175,27901
1480.02,1.337177,597737,27500
1483.19,1.329779,594479,27820
1486.36,1.334293,591232,27382
1489.52,1.329605,587853,27521
1492.68,1.340346,583875,26667
1496.89,1.329566,578062,27065
1500.03,1.335655,574159,26508
1503.18,1.333174,570285,26480
1506.32,1.334337,565444,26185
1509.45,1.343404,560571,25423
1512.58,1.334985,555821,25701
1515.71,1.335972,550344,25390
1519.87,1.335324,543983,25134
1522.99,1.329481,538764,25230
1526.1,1.336762,533692,24577
1529.21,1.335431,527902,24385
1532.32,1.327878,521886,24530
1535.42,1.337459,515888,23719
1538.51,1.331439,509987,23775
1541.6,1.329095,503936,23620
1545.72,1.319827,494694,23687
1548.8,1.336303,488378,22514
1551.88,1.329383,481832,22569
1554.95,1.329139,474989,22261
1558.02,1.330685,467818,21847
1561.08,1.335842,460730,21262
1564.15,1.332442,454170,21124
1568.22,1.326998,444181,20920
1571.27,1.325803,436947,20636
1574.32,1.338243,429598,19716
1577.36,1.333207,422039,19595
1580.4,1.328876,414375,19432
1583.43,1.330197,406354,18998
1586.46,1.324813,398475,18862
1590.49,1.328405,388982,18261
1593.51,1.329611,380708,17823
1596.53,1.332743,372727,17324
1599.54,1.324293,365060,17301
1602.55,1.323902,357543,16960
1605.55,1.322392,349495,16636
1608.55,1.316099,341154,16476
1612.54,1.310957,330877,16170
1615.53,1.322315,322904,15373
1618.51,1.326832,315116,14847
1621.49,1.318830,307217,14744
1624.47,1.309614,299481,14681
1627.44,1.323066,292112,13883
1630.41,1.301190,284245,14207
1634.36,1.325103,274079,12965
1637.32,1.305965,266916,13195
1640.27,1.316443,259612,12528
1643.22,1.312289,251804,12268
1646.16,1.305152,244348,12102
1649.1,1.304721,236703,11735
1652.04,1.298432,228171,11477
1655.95,1.301167,215408,10767
1658.88,1.287998,204937,10559
1661.8,1.282253,193395,10097
1664.72,1.279690,179728,9439
1667.63,1.245132,163642,9306
1670.54,1.231186,146312,8592
1673.44,1.223659,128451,7675
1677.31,1.164791,105080,7190
1680.21,1.172085,88906,5982
1683.1,1.151058,75033,5299
1685.99,1.175442,63520,4241
1688.87,1.183668,53714,3519
1691.75,1.117890,45653,3480
1694.62,1.155630,39137,2735
1697.49,1.124973,33776,2533
1701.31,1.161168,28175,1944