File: ML/samples/unknown/Column 1_078151_20241121_164758.csv
Method:,Column 1,,
Host Date-Time:,21/11/24 @ 16:47:58,,
Header Version:,1,,
System Temp (C):,33.2,,
Detector Temp (C):,29.31,,
Humidity (%):,3.22,,
Lamp PD:,3805,,
Shift Vector Coefficients:,-10.5391,0.0761263,-0.000134223,,
Pixel to Wavelength Coefficients:,1775.68,-0.916766,-0.000235065,,
Serial Number:,5510004,,
Scan Config Name:,Column 1,,
Scan Config Type:,Slew,,
Section 1,,
Start wavelength (nm):,900,,
End wavelength (nm):,1700,,
Pattern Pixel Width (nm):,   7.03,,,,
Exposure (ms):,  0.635,,,,
Digital Resolution:,228,,
Num Repeats:,6,,
PGA Gain:,64,,
Total Measurement Time in sec:,  2.725,,
Wavelength (nm),Absorbance (AU),Reference Signal (unitless),Sample Signal (unitless)
901.51,1.324322,108485,5141
905.376,1.348044,121306,5443
909.237,1.341978,131909,6002
913.095,1.309164,143299,7032
916.948,1.336231,156982,7238
922.079,1.308570,179937,8842
925.923,1.339564,200504,9174
929.762,1.321763,222660,10614
933.597,1.332311,244426,11372
937.427,1.320946,263972,12607
941.254,1.323879,281845,13370
945.076,1.317908,297271,14297
950.165,1.311821,315605,15393
953.978,1.316075,328029,15843
957.786,1.319758,340470,16305
961.59,1.317380,352317,16965
965.389,1.310457,363056,17763
969.185,1.318390,373162,17927
972.976,1.309039,382632,18782
976.763,1.319516,391202,18745
981.806,1.322576,400190,19041
985.583,1.315434,406088,19642
989.355,1.307045,410162,20226
993.124,1.315477,412868,19968
996.888,1.318576,414263,19893
1000.65,1.317994,415476,19978
1004.4,1.308727,415479,20409
1009.41,1.307554,414358,20409
1013.15,1.319709,412923,19777
1016.89,1.318720,411526,19755
1020.63,1.315304,409066,19792
1024.36,1.311640,406777,19848
1028.09,1.313500,404427,19649
1031.82,1.311719,401911,19607
1036.78,1.307299,398410,19635
1040.49,1.324270,396204,18778
1044.2,1.313089,394236,19172
1047.91,1.317998,392042,18851
1051.61,1.318028,389823,18743
1055.31,1.312494,388234,18906
1059,1.317238,387599,18670
1063.92,1.315612,386688,18696
1067.61,1.319806,386598,18512
1071.29,1.310685,387377,18943
1074.96,1.315666,388536,18783
1078.63,1.320341,389855,18645
1082.3,1.315517,391215,18919
1085.96,1.324977,393215,18606
1090.84,1.320909,396270,18927
1094.49,1.312843,398760,19403
1098.14,1.318925,400987,19240
1101.79,1.323718,403477,19147
1105.43,1.321543,406116,19369
1109.06,1.325821,407701,19254
1112.7,1.321110,409859,19567
1117.53,1.316848,412494,19887
1121.15,1.327451,414909,19521
1124.77,1.319755,416559,19949
1128.38,1.319290,418532,20065
1131.99,1.327703,419956,19747
1135.6,1.324553,421946,19985
1139.2,1.331765,423881,19746
1143.99,1.330115,426786,19957
1147.58,1.318941,428617,20565
1151.17,1.318363,431169,20715
1154.75,1.313156,433579,21082
1158.33,1.324115,436264,20684
1161.91,1.323031,439132,20872
1165.48,1.322924,442389,21032
1169.04,1.321911,446101,21258
1173.79,1.317871,451929,21737
1177.34,1.316922,456026,21982
1180.9,1.317910,461306,22186
1184.44,1.323868,467657,22185
1187.99,1.330357,473969,22151
1191.52,1.321522,479856,22887
1195.06,1.328158,487372,22893
1199.76,1.324724,497347,23547
1203.29,1.328702,504311,23659
1206.81,1.314996,511507,24766
1210.33,1.329662,519078,24298
1213.84,1.328703,527163,24731
1217.35,1.331790,534208,24884
1220.85,1.334035,540472,25046
1225.51,1.328687,549929,25800
1229.01,1.327500,556888,26198
1232.5,1.327647,562180,26438
1235.98,1.323142,567975,26989
1239.46,1.330099,574815,26880
1242.94,1.322917,582782,27707
1246.41,1.326317,591476,27901
1251.03,1.329155,604016,28307
1254.5,1.336292,612289,28227
1257.96,1.333503,619125,28726
1261.41,1.328849,624551,29290
1264.86,1.328773,629900,29546
1268.31,1.330653,634345,29626
1271.75,1.332528,638574,29695
1276.33,1.335613,642499,29666
1279.76,1.332122,645905,30064
1283.19,1.331644,648307,30209
1286.61,1.330852,650446,30364
1290.03,1.331433,652132,30402
1293.44,1.331929,653907,30450
1296.85,1.334907,655963,30337
1301.39,1.332628,657349,30561
1304.8,1.334261,657558,30456
1308.19,1.337037,658515,30306
1311.58,1.332326,658804,30650
1314.97,1.335206,659011,30457
1318.36,1.333167,658272,30566
1321.73,1.333841,658022,30507
1326.23,1.337788,657870,30224
1329.6,1.335508,656482,30319
1332.97,1.338088,654926,30068
1336.33,1.339885,653727,29889
1339.69,1.330706,652497,30470
1343.04,1.332259,649913,30241
1346.39,1.334306,647671,29995
1349.73,1.335338,645338,29816
1354.18,1.337995,641175,29443
1357.52,1.334754,638376,29534
1360.85,1.333841,635805,29477
1364.17,1.331821,633413,29503
1367.49,1.327730,631026,29670
1370.81,1.331290,628050,29289
1374.12,1.337825,625034,28713
1378.54,1.334443,620272,28717
1381.84,1.336280,616892,28440
1385.14,1.328321,613613,28812
1388.43,1.325923,611526,28873
1391.72,1.331674,610663,28453
1395.01,1.336411,610634,28143
1398.29,1.333939,611700,28353
1402.66,1.332309,614051,28569
1405.93,1.331525,616268,28724
1409.2,1.335193,617795,28553
1412.46,1.333568,618872,28710
1415.72,1.337891,619795,28468
1418.98,1.335492,620495,28658
1422.23,1.337835,621087,28531
1426.56,1.330701,621375,29017
1429.8,1.337734,621616,28562
1433.04,1.337454,622129,28604
1436.27,1.336032,621526,28670
1439.5,1.334352,621113,28762
1442.72,1.334157,620921,28766
1445.94,1.340518,620270,28318
1450.23,1.334589,618860,28642
1453.44,1.336602,617697,28456
1456.64,1.335013,616264,28494
1459.85,1.338982,614413,28150
1463.04,1.340044,612307,27985
1466.24,1.343202,610032,27679
1469.43,1.337458,607345,27924
1473.67,1.339112,603789,27655
1476.85,1.339621,601175,27503
1480.02,1.344407,597737,27046
1483.19,1.338181,594479,27287
1486.36,1.338901,591232,27093
1489.52,1.346794,587853,26453
1492.68,1.338412,583875,26786
1496.89,1.341788,578062,26314
1500.03,1.347732,574159,25781
1503.18,1.340384,570285,26044
1506.32,1.333989,565444,26206
1509.45,1.344858,560571,25338
1512.58,1.346301,555821,25040
1515.71,1.341220,550344,25085
1519.87,1.342730,543983,24709
1522.99,1.344187,538764,24390
1526.1,1.345093,533692,24110
1529.21,1.345703,527902,23815
1532.32,1.344369,521886,23616
1535.42,1.340528,515888,23552
1538.51,1.339793,509987,23322
1541.6,1.342502,503936,22902
1545.72,1.342424,494694,22486
1548.8,1.344541,488378,22091
1551.88,1.347899,481832,21627
1554.95,1.336200,474989,21902
1558.02,1.340638,467818,21352
1561.08,1.349621,460730,20598
1564.15,1.343288,454170,20603
1568.22,1.339679,444181,20318
1571.27,1.340007,436947,19972
1574.32,1.339633,429598,19653
1577.36,1.342413,422039,19184
1580.4,1.336247,414375,19105
1583.43,1.335024,406354,18788
1586.46,1.333793,398475,18476
1590.49,1.341490,388982,17719
1593.51,1.338349,380708,17468
1596.53,1.331266,372727,17383
1599.54,1.335481,365060,16861
1602.55,1.337717,357543,16429
1605.55,1.340544,349495,15955
1608.55,1.328369,341154,16017
1612.54,1.324958,330877,15657
1615.53,1.321525,322904,15401
1618.51,1.334356,315116,14592
1621.49,1.322854,307217,14608
1624.47,1.327705,299481,14082
1627.44,1.331149,292112,13627
1630.41,1.337550,284245,13066
1634.36,1.318158,274079,13174
1637.32,1.323358,266916,12677
1640.27,1.330607,259612,12126
1643.22,1.321773,251804,12003
1646.16,1.311988,244348,11913
1649.1,1.322434,236703,11266
1652.04,1.329689,228171,10680
1655.95,1.310957,215408,10527
1658.88,1.298783,204937,10300
1661.8,1.299450,193395,9705
1664.72,1.297056,179728,9069
1667.63,1.295183,163642,8293
1670.54,1.294291,146312,7430
1673.44,1.279756,128451,6745
1677.31,1.290254,105080,5386
1680.21,1.248314,88906,5019
1683.1,1.290921,75033,3840
1685.99,1.276571,63520,3360
1688.87,1.318468,53714,2580
1691.75,1.273149,45653,2434
1694.62,1.293298,39137,1992
1697.49,1.346194,33776,1522
1701.31,1.408077,28175,1101