File: ML/samples/unknown/Column 1_078775_20241121_172135.csv
Method:,Column 1,,
Host Date-Time:,21/11/24 @ 17:21:35,,
Header Version:,1,,
System Temp (C):,36.76,,
Detector Temp (C):,35.14,,
Humidity (%):,1.08,,
Lamp PD:,3798,,
Shift Vector Coefficients:,-10.5391,0.0761263,-0.000134223,,
Pixel to Wavelength Coefficients:,1775.68,-0.916766,-0.000235065,,
Serial Number:,5510004,,
Scan Config Name:,Column 1,,
Scan Config Type:,Slew,,
Section 1,,
Start wavelength (nm):,900,,
End wavelength (nm):,1700,,
Pattern Pixel Width (nm):,   7.03,,,,
Exposure (ms):,  0.635,,,,
Digital Resolution:,228,,
Num Repeats:,6,,
PGA Gain:,64,,
Total Measurement Time in sec:,  2.713,,
Wavelength (nm),Absorbance (AU),Reference Signal (unitless),Sample Signal (unitless)
901.51,1.287880,108485,5591
905.376,1.300908,121306,6067
909.237,1.310849,131909,6448
913.095,1.334861,143299,6628
916.948,1.308458,156982,7716
922.079,1.306561,179937,8883
925.923,1.308643,200504,9851
929.762,1.302319,222660,11100
933.597,1.312345,244426,11907
937.427,1.312993,263972,12840
941.254,1.322031,281845,13427
945.076,1.313525,297271,14442
950.165,1.307861,315605,15534
953.978,1.310167,328029,16060
957.786,1.295365,340470,17247
961.59,1.309365,352317,17281
965.389,1.304653,363056,18002
969.185,1.303975,373162,18532
972.976,1.300159,382632,19170
976.763,1.301721,391202,19529
981.806,1.299979,400190,20058
985.583,1.307482,406088,20005
989.355,1.309759,410162,20100
993.124,1.303211,412868,20540
996.888,1.303767,414263,20583
1000.65,1.310366,415476,20332
1004.4,1.303608,415479,20651
1009.41,1.302393,414358,20653
1013.15,1.305282,412923,20445
1016.89,1.303131,411526,20477
1020.63,1.306614,409066,20192
1024.36,1.315155,406777,19688
1028.09,1.309496,404427,19831
1031.82,1.308255,401911,19764
1036.78,1.301237,398410,19911
1040.49,1.301495,396204,19789
1044.2,1.308515,394236,19375
1047.91,1.305374,392042,19407
1051.61,1.307815,389823,19189
1055.31,1.295510,388234,19660
1059,1.301410,387599,19363
1063.92,1.310991,386688,18896
1067.61,1.292661,386598,19706
1071.29,1.297921,387377,19508
1074.96,1.311685,388536,18956
1078.63,1.306585,389855,19245
1082.3,1.307782,391215,19259
1085.96,1.309275,393215,19291
1090.84,1.310548,396270,19384
1094.49,1.311770,398760,19451
1098.14,1.308554,400987,19705
1101.79,1.309922,403477,19765
1105.43,1.294846,406116,20597
1109.06,1.313896,407701,19790
1112.7,1.308920,409859,20124
1117.53,1.308778,412494,20260
1121.15,1.319711,414909,19872
1124.77,1.312074,416559,20305
1128.38,1.308853,418532,20553
1131.99,1.317573,419956,20213
1135.6,1.317996,421946,20289
1139.2,1.316636,423881,20446
1143.99,1.314030,426786,20710
1147.58,1.318244,428617,20598
1151.17,1.311602,431169,21040
1154.75,1.305236,433579,21470
1158.33,1.317282,436264,21012
1161.91,1.315093,439132,21257
1165.48,1.311572,442389,21589
1169.04,1.312853,446101,21706
1173.79,1.310246,451929,22122
1177.34,1.317971,456026,21929
1180.9,1.313586,461306,22408
1184.44,1.303542,467657,23248
1187.99,1.309383,473969,23247
1191.52,1.313252,479856,23327
1195.06,1.313167,487372,23697
1199.76,1.323508,497347,23613
1203.29,1.311075,504311,24639
1206.81,1.319331,511507,24520
1210.33,1.317658,519078,24979
1213.84,1.316308,527163,25447
1217.35,1.310471,534208,26136
1220.85,1.315883,540472,26115
1225.51,1.319444,549929,26355
1229.01,1.314517,556888,26993
1232.5,1.319268,562180,26953
1235.98,1.321344,567975,27101
1239.46,1.311332,574815,28067
1242.94,1.313367,582782,28323
1246.41,1.314722,591476,28656
1251.03,1.324394,604016,28619
1254.5,1.319556,612289,29336
1257.96,1.326128,619125,29218
1261.41,1.328049,624551,29344
1264.86,1.318992,629900,30219
1268.31,1.323658,634345,30107
1271.75,1.323325,638574,30331
1276.33,1.321768,642499,30627
1279.76,1.326881,645905,30429
1283.19,1.322920,648307,30822
1286.61,1.328029,650446,30562
1290.03,1.327183,652132,30701
1293.44,1.324393,653907,30983
1296.85,1.324636,655963,31063
1301.39,1.327220,657349,30944
1304.8,1.326418,657558,31011
1308.19,1.327274,658515,30995
1311.58,1.323739,658804,31262
1314.97,1.324501,659011,31217
1318.36,1.327310,658272,30981
1321.73,1.322599,658022,31307
1326.23,1.327129,657870,30975
1329.6,1.327110,656482,30911
1332.97,1.325967,654926,30919
1336.33,1.328258,653727,30700
1339.69,1.330906,652497,30456
1343.04,1.326283,649913,30660
1346.39,1.319419,647671,31041
1349.73,1.323399,645338,30647
1354.18,1.324117,641175,30399
1357.52,1.325948,638376,30139
1360.85,1.321580,635805,30321
1364.17,1.323207,633413,30094
1367.49,1.316817,631026,30425
1370.81,1.316623,628050,30295
1374.12,1.322227,625034,29763
1378.54,1.320367,620272,29663
1381.84,1.325839,616892,29132
1385.14,1.321264,613613,29284
1388.43,1.322791,611526,29082
1391.72,1.317794,610663,29377
1395.01,1.323832,610634,28970
1398.29,1.326332,611700,28854
1402.66,1.328812,614051,28800
1405.93,1.321348,616268,29405
1409.2,1.325982,617795,29165
1412.46,1.324629,618872,29307
1415.72,1.323871,619795,29402
1418.98,1.322902,620495,29501
1422.23,1.330410,621087,29023
1426.56,1.335260,621375,28714
1429.8,1.328764,621616,29158
1433.04,1.328795,622129,29180
1436.27,1.330059,621526,29067
1439.5,1.327431,621113,29224
1442.72,1.324925,620921,29384
1445.94,1.330168,620270,29001
1450.23,1.332004,618860,28813
1453.44,1.333575,617697,28655
1456.64,1.329967,616264,28827
1459.85,1.329521,614413,28770
1463.04,1.334554,612307,28341
1466.24,1.329108,610032,28592
1469.43,1.332448,607345,28248
1473.67,1.329406,603789,28280
1476.85,1.329661,601175,28141
1480.02,1.339029,597737,27383
1483.19,1.336608,594479,27386
1486.36,1.322913,591232,28109
1489.52,1.327998,587853,27623
1492.68,1.333880,583875,27067
1496.89,1.339565,578062,26449
1500.03,1.333449,574159,26643
1503.18,1.327730,570285,26814
1506.32,1.334702,565444,26163
1509.45,1.332906,560571,26045
1512.58,1.333736,555821,25775
1515.71,1.331056,550344,25679
1519.87,1.329062,543983,25499
1522.99,1.329206,538764,25246
1526.1,1.325201,533692,25240
1529.21,1.333618,527902,24487
1532.32,1.329794,521886,24422
1535.42,1.327486,515888,24270
1538.51,1.327203,509987,24008
1541.6,1.332362,503936,23443
1545.72,1.333062,494694,22976
1548.8,1.332271,488378,22724
1551.88,1.324618,481832,22818
1554.95,1.331192,474989,22156
1558.02,1.330288,467818,21867
1561.08,1.334476,460730,21329
1564.15,1.332895,454170,21102
1568.22,1.329330,444181,20808
1571.27,1.337687,436947,20079
1574.32,1.329326,429598,20125
1577.36,1.336947,422039,19427
1580.4,1.319480,414375,19857
1583.43,1.331639,406354,18935
1586.46,1.328095,398475,18720
1590.49,1.321586,388982,18550
1593.51,1.319186,380708,18256
1596.53,1.326174,372727,17588
1599.54,1.318409,365060,17537
1602.55,1.322012,357543,17034
1605.55,1.317176,349495,16837
1608.55,1.324536,341154,16159
1612.54,1.318160,330877,15904
1615.53,1.332895,322904,15003
1618.51,1.321396,315116,15034
1621.49,1.316802,307217,14813
1624.47,1.303416,299481,14892
1627.44,1.315745,292112,14119
1630.41,1.316370,284245,13719
1634.36,1.313894,274079,13304
1637.32,1.315280,266916,12915
1640.27,1.307828,259612,12779
1643.22,1.314418,251804,12208
1646.16,1.308610,244348,12006
1649.1,1.308624,236703,11630
1652.04,1.308306,228171,11219
1655.95,1.287587,215408,11109
1658.88,1.277594,204937,10815
1661.8,1.276697,193395,10227
1664.72,1.278771,179728,9459
1667.63,1.250390,163642,9194
1670.54,1.230075,146312,8614
1673.44,1.216476,128451,7803
1677.31,1.164912,105080,7188
1680.21,1.146910,88906,6339
1683.1,1.145521,75033,5367
1685.99,1.115917,63520,4864
1688.87,1.099050,53714,4276
1691.75,1.131968,45653,3369
1694.62,1.180800,39137,2581
1697.49,1.105198,33776,2651
1701.31,1.127231,28175,2102