File: ML/samples/unknown/Column 1_078449_20241121_170314.csv
Method:,Column 1,,
Host Date-Time:,21/11/24 @ 17:3:14,,
Header Version:,1,,
System Temp (C):,34.63,,
Detector Temp (C):,33.77,,
Humidity (%):,1.95,,
Lamp PD:,3802,,
Shift Vector Coefficients:,-10.5391,0.0761263,-0.000134223,,
Pixel to Wavelength Coefficients:,1775.68,-0.916766,-0.000235065,,
Serial Number:,5510004,,
Scan Config Name:,Column 1,,
Scan Config Type:,Slew,,
Section 1,,
Start wavelength (nm):,900,,
End wavelength (nm):,1700,,
Pattern Pixel Width (nm):,   7.03,,,,
Exposure (ms):,  0.635,,,,
Digital Resolution:,228,,
Num Repeats:,6,,
PGA Gain:,64,,
Total Measurement Time in sec:,  2.703,,
Wavelength (nm),Absorbance (AU),Reference Signal (unitless),Sample Signal (unitless)
901.51,1.318032,108485,5216
905.376,1.295431,121306,6144
909.237,1.301917,131909,6582
913.095,1.309164,143299,7032
916.948,1.303588,156982,7803
922.079,1.309111,179937,8831
925.923,1.331358,200504,9349
929.762,1.319681,222660,10665
933.597,1.329949,244426,11434
937.427,1.322949,263972,12549
941.254,1.324041,281845,13365
945.076,1.301777,297271,14838
950.165,1.322821,315605,15008
953.978,1.321925,328029,15631
957.786,1.309076,340470,16711
961.59,1.315362,352317,17044
965.389,1.315400,363056,17562
969.185,1.311421,373162,18217
972.976,1.309525,382632,18761
976.763,1.307407,391202,19275
981.806,1.299438,400190,20083
985.583,1.304518,406088,20142
989.355,1.311426,410162,20023
993.124,1.315999,412868,19944
996.888,1.308200,414263,20374
1000.65,1.308660,415476,20412
1004.4,1.316110,415479,20065
1009.41,1.308598,414358,20360
1013.15,1.307924,412923,20321
1016.89,1.316462,411526,19858
1020.63,1.316072,409066,19757
1024.36,1.311006,406777,19877
1028.09,1.310131,404427,19802
1031.82,1.309047,401911,19728
1036.78,1.307366,398410,19632
1040.49,1.304711,396204,19643
1044.2,1.318973,394236,18914
1047.91,1.309240,392042,19235
1051.61,1.305243,389823,19303
1055.31,1.303559,388234,19299
1059,1.306713,387599,19128
1063.92,1.307397,386688,19053
1067.61,1.315093,386598,18714
1071.29,1.308786,387377,19026
1074.96,1.310678,388536,19000
1078.63,1.320877,389855,18622
1082.3,1.308753,391215,19216
1085.96,1.320149,393215,18814
1090.84,1.323118,396270,18831
1094.49,1.317410,398760,19200
1098.14,1.323235,400987,19050
1101.79,1.312103,403477,19666
1105.43,1.311985,406116,19800
1109.06,1.317178,407701,19641
1112.7,1.319228,409859,19652
1117.53,1.316412,412494,19907
1121.15,1.318446,414909,19930
1124.77,1.313359,416559,20245
1128.38,1.317906,418532,20129
1131.99,1.320159,419956,20093
1135.6,1.321974,421946,20104
1139.2,1.322000,423881,20195
1143.99,1.323399,426786,20268
1147.58,1.318160,428617,20602
1151.17,1.321603,431169,20561
1154.75,1.324299,433579,20548
1158.33,1.315323,436264,21107
1161.91,1.315236,439132,21250
1165.48,1.318588,442389,21243
1169.04,1.320626,446101,21321
1173.79,1.320074,451929,21627
1177.34,1.307039,456026,22488
1180.9,1.318380,461306,22162
1184.44,1.314859,467657,22650
1187.99,1.322565,473969,22552
1191.52,1.315342,479856,23215
1195.06,1.315593,487372,23565
1199.76,1.322204,497347,23684
1203.29,1.318202,504311,24238
1206.81,1.316647,511507,24672
1210.33,1.315057,519078,25129
1213.84,1.324996,527163,24943
1217.35,1.322586,534208,25417
1220.85,1.321726,540472,25766
1225.51,1.323833,549929,26090
1229.01,1.321982,556888,26533
1232.5,1.322470,562180,26755
1235.98,1.322178,567975,27049
1239.46,1.318713,574815,27594
1242.94,1.318519,582782,27989
1246.41,1.320013,591476,28309
1251.03,1.317006,604016,29110
1254.5,1.322735,612289,29122
1257.96,1.325994,619125,29227
1261.41,1.329605,624551,29239
1264.86,1.324051,629900,29869
1268.31,1.326959,634345,29879
1271.75,1.325291,638574,30194
1276.33,1.328182,642499,30178
1279.76,1.324093,645905,30625
1283.19,1.327908,648307,30470
1286.61,1.334962,650446,30078
1290.03,1.330192,652132,30489
1293.44,1.330093,653907,30579
1296.85,1.325812,655963,30979
1301.39,1.324715,657349,31123
1304.8,1.332014,657558,30614
1308.19,1.330466,658515,30768
1311.58,1.327240,658804,31011
1314.97,1.329708,659011,30845
1318.36,1.333394,658272,30550
1321.73,1.326445,658022,31031
1326.23,1.334924,657870,30424
1329.6,1.331430,656482,30605
1332.97,1.332249,654926,30475
1336.33,1.333782,653727,30312
1339.69,1.332148,652497,30369
1343.04,1.330568,649913,30359
1346.39,1.331592,647671,30183
1349.73,1.325459,645338,30502
1354.18,1.327315,641175,30176
1357.52,1.333873,638376,29594
1360.85,1.329093,635805,29801
1364.17,1.327136,633413,29823
1367.49,1.328638,631026,29608
1370.81,1.328850,628050,29454
1374.12,1.329333,625034,29280
1378.54,1.327065,620272,29209
1381.84,1.329792,616892,28868
1385.14,1.323256,613613,29150
1388.43,1.331936,611526,28476
1391.72,1.327209,610663,28747
1395.01,1.327566,610634,28722
1398.29,1.329444,611700,28648
1402.66,1.324162,614051,29110
1405.93,1.331752,616268,28709
1409.2,1.331105,617795,28823
1412.46,1.328111,618872,29073
1415.72,1.331621,619795,28882
1418.98,1.329129,620495,29081
1422.23,1.331999,621087,28917
1426.56,1.337504,621375,28566
1429.8,1.333406,621616,28848
1433.04,1.332502,622129,28932
1436.27,1.334565,621526,28767
1439.5,1.330892,621113,28992
1442.72,1.330504,620921,29009
1445.94,1.329629,620270,29037
1450.23,1.329539,618860,28977
1453.44,1.334683,617697,28582
1456.64,1.333325,616264,28605
1459.85,1.334684,614413,28430
1463.04,1.335736,612307,28264
1466.24,1.341667,610032,27777
1469.43,1.334899,607345,28089
1473.67,1.331839,603789,28122
1476.85,1.334956,601175,27800
1480.02,1.341494,597737,27228
1483.19,1.332536,594479,27644
1486.36,1.340974,591232,26964
1489.52,1.333217,587853,27293
1492.68,1.326766,583875,27514
1496.89,1.334797,578062,26741
1500.03,1.331757,574159,26747
1503.18,1.331717,570285,26569
1506.32,1.334752,565444,26160
1509.45,1.334493,560571,25950
1512.58,1.334461,555821,25732
1515.71,1.335442,550344,25421
1519.87,1.336830,543983,25047
1522.99,1.342498,538764,24485
1526.1,1.337646,533692,24527
1529.21,1.340248,527902,24116
1532.32,1.336082,521886,24071
1535.42,1.336289,515888,23783
1538.51,1.338585,509987,23387
1541.6,1.337224,503936,23182
1545.72,1.336859,494694,22776
1548.8,1.332902,488378,22691
1551.88,1.338071,481832,22122
1554.95,1.335031,474989,21961
1558.02,1.337396,467818,21512
1561.08,1.339102,460730,21103
1564.15,1.335620,454170,20970
1568.22,1.335954,444181,20493
1571.27,1.333704,436947,20264
1574.32,1.332749,429598,19967
1577.36,1.328534,422039,19807
1580.4,1.330645,414375,19353
1583.43,1.329808,406354,19015
1586.46,1.332760,398475,18520
1590.49,1.333717,388982,18039
1593.51,1.338971,380708,17443
1596.53,1.336798,372727,17163
1599.54,1.324193,365060,17305
1602.55,1.325236,357543,16908
1605.55,1.333444,349495,16218
1608.55,1.321510,341154,16272
1612.54,1.324736,330877,15665
1615.53,1.326573,322904,15223
1618.51,1.319609,315116,15096
1621.49,1.324552,307217,14551
1624.47,1.318339,299481,14389
1627.44,1.324664,292112,13832
1630.41,1.323681,284245,13490
1634.36,1.319380,274079,13137
1637.32,1.322366,266916,12706
1640.27,1.318632,259612,12465
1643.22,1.307676,251804,12399
1646.16,1.304399,244348,12123
1649.1,1.299899,236703,11866
1652.04,1.305490,228171,11292
1655.95,1.316354,215408,10397
1658.88,1.303531,204937,10188
1661.8,1.289277,193395,9935
1664.72,1.266235,179728,9736
1667.63,1.258496,163642,9024
1670.54,1.234586,146312,8525
1673.44,1.237573,128451,7433
1677.31,1.200465,105080,6623
1680.21,1.193437,88906,5695
1683.1,1.181789,75033,4937
1685.99,1.157586,63520,4419
1688.87,1.172220,53714,3613
1691.75,1.111941,45653,3528
1694.62,1.201123,39137,2463
1697.49,1.170293,33776,2282
1701.31,1.293012,28175,1435