File: ML/samples/unknown/Column 1_078547_20241121_170803.csv
Method:,Column 1,,
Host Date-Time:,21/11/24 @ 17:8:3,,
Header Version:,1,,
System Temp (C):,35.93,,
Detector Temp (C):,34.37,,
Humidity (%):,1.52,,
Lamp PD:,3800,,
Shift Vector Coefficients:,-10.5391,0.0761263,-0.000134223,,
Pixel to Wavelength Coefficients:,1775.68,-0.916766,-0.000235065,,
Serial Number:,5510004,,
Scan Config Name:,Column 1,,
Scan Config Type:,Slew,,
Section 1,,
Start wavelength (nm):,900,,
End wavelength (nm):,1700,,
Pattern Pixel Width (nm):,   7.03,,,,
Exposure (ms):,  0.635,,,,
Digital Resolution:,228,,
Num Repeats:,6,,
PGA Gain:,64,,
Total Measurement Time in sec:,  2.724,,
Wavelength (nm),Absorbance (AU),Reference Signal (unitless),Sample Signal (unitless)
901.51,1.304426,108485,5382
905.376,1.320305,121306,5802
909.237,1.305361,131909,6530
913.095,1.329521,143299,6710
916.948,1.312302,156982,7648
922.079,1.321633,179937,8580
925.923,1.341414,200504,9135
929.762,1.317974,222660,10707
933.597,1.335607,244426,11286
937.427,1.323607,263972,12530
941.254,1.325213,281845,13329
945.076,1.318424,297271,14280
950.165,1.310609,315605,15436
953.978,1.313288,328029,15945
957.786,1.298068,340470,17140
961.59,1.312695,352317,17149
965.389,1.308481,363056,17844
969.185,1.293533,373162,18983
972.976,1.303639,382632,19017
976.763,1.304487,391202,19405
981.806,1.304637,400190,19844
985.583,1.301788,406088,20269
989.355,1.309133,410162,20129
993.124,1.309322,412868,20253
996.888,1.307944,414263,20386
1000.65,1.304784,415476,20595
1004.4,1.306435,415479,20517
1009.41,1.302140,414358,20665
1013.15,1.306409,412923,20392
1016.89,1.300762,411526,20589
1020.63,1.307389,409066,20156
1024.36,1.317344,406777,19589
1028.09,1.302177,404427,20168
1031.82,1.305495,401911,19890
1036.78,1.308074,398410,19600
1040.49,1.297911,396204,19953
1044.2,1.313202,394236,19167
1047.91,1.308428,392042,19271
1051.61,1.309857,389823,19099
1055.31,1.309085,388234,19055
1059,1.312289,387599,18884
1063.92,1.304173,386688,19195
1067.61,1.317443,386598,18613
1071.29,1.313353,387377,18827
1074.96,1.311249,388536,18975
1078.63,1.310325,389855,19080
1082.3,1.310201,391215,19152
1085.96,1.309163,393215,19296
1090.84,1.316753,396270,19109
1094.49,1.313335,398760,19381
1098.14,1.310122,400987,19634
1101.79,1.312766,403477,19636
1105.43,1.308642,406116,19953
1109.06,1.309290,407701,20001
1112.7,1.320135,409859,19611
1117.53,1.313325,412494,20049
1121.15,1.316641,414909,20013
1124.77,1.315272,416559,20156
1128.38,1.317217,418532,20161
1131.99,1.311365,419956,20504
1135.6,1.313927,421946,20480
1139.2,1.312724,423881,20631
1143.99,1.317694,426786,20536
1147.58,1.314570,428617,20773
1151.17,1.316730,431169,20793
1154.75,1.317109,433579,20891
1158.33,1.316209,436264,21064
1161.91,1.315236,439132,21250
1165.48,1.319714,442389,21188
1169.04,1.319263,446101,21388
1173.79,1.319312,451929,21665
1177.34,1.314991,456026,22080
1180.9,1.306950,461306,22753
1184.44,1.314342,467657,22677
1187.99,1.315384,473969,22928
1191.52,1.317499,479856,23100
1195.06,1.309772,487372,23883
1199.76,1.311286,497347,24287
1203.29,1.312170,504311,24577
1206.81,1.316929,511507,24656
1210.33,1.317936,519078,24963
1213.84,1.319374,527163,25268
1217.35,1.319148,534208,25619
1220.85,1.318736,540472,25944
1225.51,1.321128,549929,26253
1229.01,1.314034,556888,27023
1232.5,1.320123,562180,26900
1235.98,1.324965,567975,26876
1239.46,1.320875,574815,27457
1242.94,1.321758,582782,27781
1246.41,1.322335,591476,28158
1251.03,1.319715,604016,28929
1254.5,1.325938,612289,28908
1257.96,1.328737,619125,29043
1261.41,1.326394,624551,29456
1264.86,1.321283,629900,30060
1268.31,1.324915,634345,30020
1271.75,1.326731,638574,30094
1276.33,1.322321,642499,30588
1279.76,1.327452,645905,30389
1283.19,1.325988,648307,30605
1286.61,1.324505,650446,30811
1290.03,1.320933,652132,31146
1293.44,1.325094,653907,30933
1296.85,1.325154,655963,31026
1301.39,1.332373,657349,30579
1304.8,1.325914,657558,31047
1308.19,1.325052,658515,31154
1311.58,1.325786,658804,31115
1314.97,1.328836,659011,30907
1318.36,1.331437,658272,30688
1321.73,1.325913,658022,31069
1326.23,1.334282,657870,30469
1329.6,1.322387,656482,31249
1332.97,1.322065,654926,31198
1336.33,1.329008,653727,30647
1339.69,1.326070,652497,30797
1343.04,1.324954,649913,30754
1346.39,1.326073,647671,30569
1349.73,1.320026,645338,30886
1354.18,1.322079,641175,30542
1357.52,1.323634,638376,30300
1360.85,1.328409,635805,29848
1364.17,1.328477,633413,29731
1367.49,1.324725,631026,29876
1370.81,1.325984,628050,29649
1374.12,1.324803,625034,29587
1378.54,1.329675,620272,29034
1381.84,1.323060,616892,29319
1385.14,1.325811,613613,28979
1388.43,1.324556,611526,28964
1391.72,1.320062,610663,29224
1395.01,1.324703,610634,28912
1398.29,1.326107,611700,28869
1402.66,1.324311,614051,29100
1405.93,1.327192,616268,29012
1409.2,1.325432,617795,29202
1412.46,1.334188,618872,28669
1415.72,1.332358,619795,28833
1418.98,1.326138,620495,29282
1422.23,1.330141,621087,29041
1426.56,1.325923,621375,29338
1429.8,1.329958,621616,29078
1433.04,1.333960,622129,28835
1436.27,1.330927,621526,29009
1439.5,1.328621,621113,29144
1442.72,1.332048,620921,28906
1445.94,1.327808,620270,29159
1450.23,1.328073,618860,29075
1453.44,1.332440,617697,28730
1456.64,1.328223,616264,28943
1459.85,1.334638,614413,28433
1463.04,1.338340,612307,28095
1466.24,1.332769,610032,28352
1469.43,1.323636,607345,28827
1473.67,1.333944,603789,27986
1476.85,1.337479,601175,27639
1480.02,1.334627,597737,27662
1483.19,1.334756,594479,27503
1486.36,1.333960,591232,27403
1489.52,1.330853,587853,27442
1492.68,1.334795,583875,27010
1496.89,1.339959,578062,26425
1500.03,1.331092,574159,26788
1503.18,1.332142,570285,26543
1506.32,1.335466,565444,26117
1509.45,1.336876,560571,25808
1512.58,1.340324,555821,25387
1515.71,1.352054,550344,24467
1519.87,1.325973,543983,25681
1522.99,1.336055,538764,24851
1526.1,1.335192,533692,24666
1529.21,1.332325,527902,24560
1532.32,1.339287,521886,23894
1535.42,1.333685,515888,23926
1538.51,1.337564,509987,23442
1541.6,1.337824,503936,23150
1545.72,1.332684,494694,22996
1548.8,1.333247,488378,22673
1551.88,1.336777,481832,22188
1554.95,1.334221,474989,22002
1558.02,1.328821,467818,21941
1561.08,1.338013,460730,21156
1564.15,1.324538,454170,21512
1568.22,1.331674,444181,20696
1571.27,1.334283,436947,20237
1574.32,1.331750,429598,20013
1577.36,1.329698,422039,19754
1580.4,1.331027,414375,19336
1583.43,1.331525,406354,18940
1586.46,1.323847,398475,18904
1590.49,1.322218,388982,18523
1593.51,1.323273,380708,18085
1596.53,1.320873,372727,17804
1599.54,1.330080,365060,17072
1602.55,1.330716,357543,16696
1605.55,1.327592,349495,16438
1608.55,1.317604,341154,16419
1612.54,1.315628,330877,15997
1615.53,1.326830,322904,15214
1618.51,1.307103,315116,15537
1621.49,1.332717,307217,14280
1624.47,1.315271,299481,14491
1627.44,1.308758,292112,14348
1630.41,1.327074,284245,13385
1634.36,1.329209,274079,12843
1637.32,1.311830,266916,13018
1640.27,1.315923,259612,12543
1643.22,1.309959,251804,12334
1646.16,1.311587,244348,11924
1649.1,1.317756,236703,11388
1652.04,1.317026,228171,10996
1655.95,1.300160,215408,10792
1658.88,1.292754,204937,10444
1661.8,1.290678,193395,9903
1664.72,1.270764,179728,9635
1667.63,1.254806,163642,9101
1670.54,1.236423,146312,8489
1673.44,1.227068,128451,7615
1677.31,1.202108,105080,6598
1680.21,1.206992,88906,5520
1683.1,1.184259,75033,4909
1685.99,1.134338,63520,4662
1688.87,1.152596,53714,3780
1691.75,1.134684,45653,3348
1694.62,1.151678,39137,2760
1697.49,1.247120,33776,1912
1701.31,1.230279,28175,1658