File: ML/samples/unknown/Column 1_078765_20241121_172106.csv
Method:,Column 1,,
Host Date-Time:,21/11/24 @ 17:21:6,,
Header Version:,1,,
System Temp (C):,36.85,,
Detector Temp (C):,35.1,,
Humidity (%):,1.17,,
Lamp PD:,3798,,
Shift Vector Coefficients:,-10.5391,0.0761263,-0.000134223,,
Pixel to Wavelength Coefficients:,1775.68,-0.916766,-0.000235065,,
Serial Number:,5510004,,
Scan Config Name:,Column 1,,
Scan Config Type:,Slew,,
Section 1,,
Start wavelength (nm):,900,,
End wavelength (nm):,1700,,
Pattern Pixel Width (nm):,   7.03,,,,
Exposure (ms):,  0.635,,,,
Digital Resolution:,228,,
Num Repeats:,6,,
PGA Gain:,64,,
Total Measurement Time in sec:,  2.724,,
Wavelength (nm),Absorbance (AU),Reference Signal (unitless),Sample Signal (unitless)
901.51,1.325168,108485,5131
905.376,1.321204,121306,5790
909.237,1.319420,131909,6322
913.095,1.312263,143299,6982
916.948,1.326677,156982,7399
922.079,1.330221,179937,8412
925.923,1.317641,200504,9649
929.762,1.319804,222660,10662
933.597,1.330291,244426,11425
937.427,1.330560,263972,12331
941.254,1.316823,281845,13589
945.076,1.308770,297271,14601
950.165,1.315021,315605,15280
953.978,1.319930,328029,15703
957.786,1.318269,340470,16361
961.59,1.305736,352317,17426
965.389,1.307339,363056,17891
969.185,1.313308,373162,18138
972.976,1.296347,382632,19339
976.763,1.305585,391202,19356
981.806,1.299373,400190,20086
985.583,1.310400,406088,19871
989.355,1.308659,410162,20151
993.124,1.305373,412868,20438
996.888,1.308008,414263,20383
1000.65,1.307725,415476,20456
1004.4,1.297489,415479,20944
1009.41,1.306088,414358,20478
1013.15,1.311529,412923,20153
1016.89,1.308122,411526,20243
1020.63,1.304426,409066,20294
1024.36,1.299492,406777,20411
1028.09,1.302867,404427,20136
1031.82,1.308805,401911,19739
1036.78,1.300714,398410,19935
1040.49,1.303739,396204,19687
1044.2,1.303279,394236,19610
1047.91,1.314556,392042,19001
1051.61,1.308042,389823,19179
1055.31,1.312241,388234,18917
1059,1.309378,387599,19011
1063.92,1.316379,386688,18663
1067.61,1.307981,386598,19023
1071.29,1.307055,387377,19102
1074.96,1.310426,388536,19011
1078.63,1.320527,389855,18637
1082.3,1.312133,391215,19067
1085.96,1.313483,393215,19105
1090.84,1.312029,396270,19318
1094.49,1.315222,398760,19297
1098.14,1.314255,400987,19448
1101.79,1.312191,403477,19662
1105.43,1.312029,406116,19798
1109.06,1.312494,407701,19854
1112.7,1.312605,409859,19954
1117.53,1.319960,412494,19745
1121.15,1.326162,414909,19579
1124.77,1.326380,416559,19647
1128.38,1.308663,418532,20562
1131.99,1.312107,419956,20469
1135.6,1.316138,421946,20376
1139.2,1.323098,423881,20144
1143.99,1.320623,426786,20398
1147.58,1.311695,428617,20911
1151.17,1.314314,431169,20909
1154.75,1.320720,433579,20718
1158.33,1.314870,436264,21129
1161.91,1.314685,439132,21277
1165.48,1.322717,442389,21042
1169.04,1.313554,446101,21671
1173.79,1.312273,451929,22019
1177.34,1.316587,456026,21999
1180.9,1.313819,461306,22396
1184.44,1.315224,467657,22631
1187.99,1.318406,473969,22769
1191.52,1.315193,479856,23223
1195.06,1.321662,487372,23238
1199.76,1.316684,497347,23987
1203.29,1.320429,504311,24114
1206.81,1.317017,511507,24651
1210.33,1.326794,519078,24459
1213.84,1.317111,527163,25400
1217.35,1.314545,534208,25892
1220.85,1.325195,540472,25561
1225.51,1.317126,549929,26496
1229.01,1.320968,556888,26595
1232.5,1.324700,562180,26618
1235.98,1.321681,567975,27080
1239.46,1.328808,574815,26960
1242.94,1.314918,582782,28222
1246.41,1.314813,591476,28650
1251.03,1.323909,604016,28651
1254.5,1.318816,612289,29386
1257.96,1.322280,619125,29478
1261.41,1.321148,624551,29814
1264.86,1.328920,629900,29536
1268.31,1.324192,634345,30070
1271.75,1.323353,638574,30329
1276.33,1.323644,642499,30495
1279.76,1.324717,645905,30581
1283.19,1.319272,648307,31082
1286.61,1.332845,650446,30225
1290.03,1.326406,652132,30756
1293.44,1.328831,653907,30668
1296.85,1.327540,655963,30856
1301.39,1.329824,657349,30759
1304.8,1.326278,657558,31021
1308.19,1.328130,658515,30934
1311.58,1.328952,658804,30889
1314.97,1.331245,659011,30736
1318.36,1.327282,658272,30983
1321.73,1.330946,658022,30711
1326.23,1.327550,657870,30945
1329.6,1.330849,656482,30646
1332.97,1.327557,654926,30806
1336.33,1.331752,653727,30454
1339.69,1.327921,652497,30666
1343.04,1.324431,649913,30791
1346.39,1.330414,647671,30265
1349.73,1.323924,645338,30610
1354.18,1.325921,641175,30273
1357.52,1.326077,638376,30130
1360.85,1.324455,635805,30121
1364.17,1.330190,633413,29614
1367.49,1.322637,631026,30020
1370.81,1.326145,628050,29638
1374.12,1.327822,625034,29382
1378.54,1.326768,620272,29229
1381.84,1.317029,616892,29729
1385.14,1.325736,613613,28984
1388.43,1.326284,611526,28849
1391.72,1.317912,610663,29369
1395.01,1.321634,610634,29117
1398.29,1.323841,611700,29020
1402.66,1.329325,614051,28766
1405.93,1.321954,616268,29364
1409.2,1.332327,617795,28742
1412.46,1.328066,618872,29076
1415.72,1.326865,619795,29200
1418.98,1.325204,620495,29345
1422.23,1.333067,621087,28846
1426.56,1.327332,621375,29243
1429.8,1.328884,621616,29150
1433.04,1.330435,622129,29070
1436.27,1.331316,621526,28983
1439.5,1.330279,621113,29033
1442.72,1.333961,620921,28779
1445.94,1.332435,620270,28850
1450.23,1.329944,618860,28950
1453.44,1.331715,617697,28778
1456.64,1.333735,616264,28578
1459.85,1.333265,614413,28523
1463.04,1.336089,612307,28241
1466.24,1.325960,610032,28800
1469.43,1.333433,607345,28184
1473.67,1.335982,603789,27855
1476.85,1.332138,601175,27981
1480.02,1.334281,597737,27684
1483.19,1.336751,594479,27377
1486.36,1.326387,591232,27885
1489.52,1.337310,587853,27037
1492.68,1.332742,583875,27138
1496.89,1.323543,578062,27443
1500.03,1.334543,574159,26576
1503.18,1.335955,570285,26311
1506.32,1.334337,565444,26185
1509.45,1.338090,560571,25736
1512.58,1.333821,555821,25770
1515.71,1.340044,550344,25153
1519.87,1.327923,543983,25566
1522.99,1.337999,538764,24740
1526.1,1.331563,533692,24873
1529.21,1.335680,527902,24371
1532.32,1.339469,521886,23884
1535.42,1.334630,515888,23874
1538.51,1.330016,509987,23853
1541.6,1.340213,503936,23023
1545.72,1.343488,494694,22431
1548.8,1.331298,488378,22775
1551.88,1.329249,481832,22576
1554.95,1.331879,474989,22121
1558.02,1.337033,467818,21530
1561.08,1.327588,460730,21670
1564.15,1.334668,454170,21016
1568.22,1.325817,444181,20977
1571.27,1.332313,436947,20329
1574.32,1.333119,429598,19950
1577.36,1.329742,422039,19752
1580.4,1.320948,414375,19790
1583.43,1.334054,406354,18830
1586.46,1.334005,398475,18467
1590.49,1.328001,388982,18278
1593.51,1.324693,380708,18026
1596.53,1.333973,372727,17275
1599.54,1.326912,365060,17197
1602.55,1.333796,357543,16578
1605.55,1.325510,349495,16517
1608.55,1.331253,341154,15911
1612.54,1.333586,330877,15349
1615.53,1.322880,322904,15353
1618.51,1.324876,315116,14914
1621.49,1.329083,307217,14400
1624.47,1.320760,299481,14309
1627.44,1.318739,292112,14022
1630.41,1.321273,284245,13565
1634.36,1.307896,274079,13489
1637.32,1.315011,266916,12923
1640.27,1.307964,259612,12775
1643.22,1.316629,251804,12146
1646.16,1.304757,244348,12113
1649.1,1.312299,236703,11532
1652.04,1.302615,228171,11367
1655.95,1.298954,215408,10822
1658.88,1.288574,204937,10545
1661.8,1.282597,193395,10089
1664.72,1.283851,179728,9349
1667.63,1.259411,163642,9005
1670.54,1.233517,146312,8546
1673.44,1.228725,128451,7586
1677.31,1.172531,105080,7063
1680.21,1.164171,88906,6092
1683.1,1.141093,75033,5422
1685.99,1.148541,63520,4512
1688.87,1.167676,53714,3651
1691.75,1.175454,45653,3048
1694.62,1.156107,39137,2732
1697.49,1.127898,33776,2516
1701.31,1.180585,28175,1859