File: ML/samples/unknown/Column 1_078284_20241121_165431.csv
Method:,Column 1,,
Host Date-Time:,21/11/24 @ 16:54:31,,
Header Version:,1,,
System Temp (C):,34.27,,
Detector Temp (C):,32.55,,
Humidity (%):,2.15,,
Lamp PD:,3803,,
Shift Vector Coefficients:,-10.5391,0.0761263,-0.000134223,,
Pixel to Wavelength Coefficients:,1775.68,-0.916766,-0.000235065,,
Serial Number:,5510004,,
Scan Config Name:,Column 1,,
Scan Config Type:,Slew,,
Section 1,,
Start wavelength (nm):,900,,
End wavelength (nm):,1700,,
Pattern Pixel Width (nm):,   7.03,,,,
Exposure (ms):,  0.635,,,,
Digital Resolution:,228,,
Num Repeats:,6,,
PGA Gain:,64,,
Total Measurement Time in sec:,  2.727,,
Wavelength (nm),Absorbance (AU),Reference Signal (unitless),Sample Signal (unitless)
901.51,1.322383,108485,5164
905.376,1.339198,121306,5555
909.237,1.303106,131909,6564
913.095,1.318150,143299,6888
916.948,1.338819,156982,7195
922.079,1.327596,179937,8463
925.923,1.303907,200504,9959
929.762,1.341390,222660,10145
933.597,1.314099,244426,11859
937.427,1.327087,263972,12430
941.254,1.324171,281845,13361
945.076,1.311665,297271,14504
950.165,1.316159,315605,15240
953.978,1.313724,328029,15929
957.786,1.313806,340470,16530
961.59,1.317226,352317,16971
965.389,1.315919,363056,17541
969.185,1.305289,373162,18476
972.976,1.318412,382632,18381
976.763,1.314425,391202,18966
981.806,1.298401,400190,20131
985.583,1.307286,406088,20014
989.355,1.310993,410162,20043
993.124,1.309944,412868,20224
996.888,1.313325,414263,20135
1000.65,1.309470,415476,20374
1004.4,1.307580,415479,20463
1009.41,1.312864,414358,20161
1013.15,1.304539,412923,20480
1016.89,1.314868,411526,19931
1020.63,1.316534,409066,19736
1024.36,1.309261,406777,19957
1028.09,1.309014,404427,19853
1031.82,1.315970,401911,19416
1036.78,1.314121,398410,19329
1040.49,1.308196,396204,19486
1044.2,1.312003,394236,19220
1047.91,1.309534,392042,19222
1051.61,1.312160,389823,18998
1055.31,1.315884,388234,18759
1059,1.310224,387599,18974
1063.92,1.314359,386688,18750
1067.61,1.315743,386598,18686
1071.29,1.312408,387377,18868
1074.96,1.322048,388536,18509
1078.63,1.317508,389855,18767
1082.3,1.317358,391215,18839
1085.96,1.314029,393215,19081
1090.84,1.318119,396270,19049
1094.49,1.312597,398760,19414
1098.14,1.313029,400987,19503
1101.79,1.320126,403477,19306
1105.43,1.321543,406116,19369
1109.06,1.316206,407701,19685
1112.7,1.317309,409859,19739
1117.53,1.315692,412494,19940
1121.15,1.319122,414909,19899
1124.77,1.322573,416559,19820
1128.38,1.325986,418532,19758
1131.99,1.323958,419956,19918
1135.6,1.319605,421946,20214
1139.2,1.320948,423881,20244
1143.99,1.314408,426786,20692
1147.58,1.314361,428617,20783
1151.17,1.327794,431169,20270
1154.75,1.322443,433579,20636
1158.33,1.316435,436264,21053
1161.91,1.325724,439132,20743
1165.48,1.324745,442389,20944
1169.04,1.314035,446101,21647
1173.79,1.315023,451929,21880
1177.34,1.312031,456026,22231
1180.9,1.319125,461306,22124
1184.44,1.317282,467657,22524
1187.99,1.317644,473969,22809
1191.52,1.322776,479856,22821
1195.06,1.325868,487372,23014
1199.76,1.320978,497347,23751
1203.29,1.323339,504311,23953
1206.81,1.328315,511507,24018
1210.33,1.321535,519078,24757
1213.84,1.323085,527163,25053
1217.35,1.318809,534208,25639
1220.85,1.325756,540472,25528
1225.51,1.327577,549929,25866
1229.01,1.329277,556888,26091
1232.5,1.322958,562180,26725
1235.98,1.325062,567975,26870
1239.46,1.327136,574815,27064
1242.94,1.324613,582782,27599
1246.41,1.324578,591476,28013
1251.03,1.324075,604016,28640
1254.5,1.329256,612289,28688
1257.96,1.325430,619125,29265
1261.41,1.326468,624551,29451
1264.86,1.326837,629900,29678
1268.31,1.326916,634345,29882
1271.75,1.335816,638574,29471
1276.33,1.326287,642499,30310
1279.76,1.328970,645905,30283
1283.19,1.331371,648307,30228
1286.61,1.332385,650446,30257
1290.03,1.335221,652132,30138
1293.44,1.327417,653907,30768
1296.85,1.332793,655963,30485
1301.39,1.332330,657349,30582
1304.8,1.332511,657558,30579
1308.19,1.329663,658515,30825
1311.58,1.332964,658804,30605
1314.97,1.325476,659011,31147
1318.36,1.329390,658272,30833
1321.73,1.334582,658022,30455
1326.23,1.333997,657870,30489
1329.6,1.336555,656482,30246
1332.97,1.326346,654926,30892
1336.33,1.333109,653727,30359
1339.69,1.335435,652497,30140
1343.04,1.335213,649913,30036
1346.39,1.331161,647671,30213
1349.73,1.326999,645338,30394
1354.18,1.328078,641175,30123
1357.52,1.323992,638376,30275
1360.85,1.329968,635805,29741
1364.17,1.329384,633413,29669
1367.49,1.329269,631026,29565
1370.81,1.333430,628050,29145
1374.12,1.329318,625034,29281
1378.54,1.330049,620272,29009
1381.84,1.326764,616892,29070
1385.14,1.333889,613613,28445
1388.43,1.327641,611526,28759
1391.72,1.321372,610663,29136
1395.01,1.326841,610634,28770
1398.29,1.329778,611700,28626
1402.66,1.323864,614051,29130
1405.93,1.328616,616268,28917
1409.2,1.333417,617795,28670
1412.46,1.326292,618872,29195
1415.72,1.332886,619795,28798
1418.98,1.334040,620495,28754
1422.23,1.334469,621087,28753
1426.56,1.343120,621375,28199
1429.8,1.328496,621616,29176
1433.04,1.334156,622129,28822
1436.27,1.332021,621526,28936
1439.5,1.332694,621113,28872
1442.72,1.332469,620921,28878
1445.94,1.335153,620270,28670
1450.23,1.332019,618860,28812
1453.44,1.337213,617697,28416
1456.64,1.336234,616264,28414
1459.85,1.339213,614413,28135
1463.04,1.329511,612307,28672
1466.24,1.337621,610032,28037
1469.43,1.342133,607345,27625
1473.67,1.338986,603789,27663
1476.85,1.337903,601175,27612
1480.02,1.341335,597737,27238
1483.19,1.340063,594479,27169
1486.36,1.341715,591232,26918
1489.52,1.330015,587853,27495
1492.68,1.334779,583875,27011
1496.89,1.339582,578062,26448
1500.03,1.339275,574159,26288
1503.18,1.341052,570285,26004
1506.32,1.341461,565444,25759
1509.45,1.337870,560571,25749
1512.58,1.334057,555821,25756
1515.71,1.336793,550344,25342
1519.87,1.342519,543983,24721
1522.99,1.340428,538764,24602
1526.1,1.336886,533692,24570
1529.21,1.339474,527902,24159
1532.32,1.338651,521886,23929
1535.42,1.339055,515888,23632
1538.51,1.332152,509987,23736
1541.6,1.338162,503936,23132
1545.72,1.337546,494694,22740
1548.8,1.349086,488378,21861
1551.88,1.335702,481832,22243
1554.95,1.337709,474989,21826
1558.02,1.345753,467818,21102
1561.08,1.331554,460730,21473
1564.15,1.337821,454170,20864
1568.22,1.331044,444181,20726
1571.27,1.334154,436947,20243
1574.32,1.337341,429598,19757
1577.36,1.336634,422039,19441
1580.4,1.333911,414375,19208
1583.43,1.337342,406354,18688
1586.46,1.339210,398475,18247
1590.49,1.326199,388982,18354
1593.51,1.324331,380708,18041
1596.53,1.328303,372727,17502
1599.54,1.332785,365060,16966
1602.55,1.334609,357543,16547
1605.55,1.329658,349495,16360
1608.55,1.325801,341154,16112
1612.54,1.331076,330877,15438
1615.53,1.323503,322904,15331
1618.51,1.313183,315116,15321
1621.49,1.326707,307217,14479
1624.47,1.326104,299481,14134
1627.44,1.329368,292112,13683
1630.41,1.332691,284245,13213
1634.36,1.314547,274079,13284
1637.32,1.315415,266916,12911
1640.27,1.320658,259612,12407
1643.22,1.319643,251804,12062
1646.16,1.318785,244348,11728
1649.1,1.321087,236703,11301
1652.04,1.305144,228171,11301
1655.95,1.317525,215408,10369
1658.88,1.306097,204937,10128
1661.8,1.302503,193395,9637
1664.72,1.271983,179728,9608
1667.63,1.267541,163642,8838
1670.54,1.258837,146312,8062
1673.44,1.240563,128451,7382
1677.31,1.215001,105080,6405
1680.21,1.210071,88906,5481
1683.1,1.195824,75033,4780
1685.99,1.228532,63520,3753
1688.87,1.158146,53714,3732
1691.75,1.214644,45653,2785
1694.62,1.264208,39137,2130
1697.49,1.178554,33776,2239
1701.31,1.222491,28175,1688