File: ML/samples/unknown/Column 1_078537_20241121_170733.csv
Method:,Column 1,,
Host Date-Time:,21/11/24 @ 17:7:33,,
Header Version:,1,,
System Temp (C):,35.89,,
Detector Temp (C):,34.21,,
Humidity (%):,1.77,,
Lamp PD:,3800,,
Shift Vector Coefficients:,-10.5391,0.0761263,-0.000134223,,
Pixel to Wavelength Coefficients:,1775.68,-0.916766,-0.000235065,,
Serial Number:,5510004,,
Scan Config Name:,Column 1,,
Scan Config Type:,Slew,,
Section 1,,
Start wavelength (nm):,900,,
End wavelength (nm):,1700,,
Pattern Pixel Width (nm):,   7.03,,,,
Exposure (ms):,  0.635,,,,
Digital Resolution:,228,,
Num Repeats:,6,,
PGA Gain:,64,,
Total Measurement Time in sec:,  2.680,,
Wavelength (nm),Absorbance (AU),Reference Signal (unitless),Sample Signal (unitless)
901.51,1.281327,108485,5676
905.376,1.312001,121306,5914
909.237,1.322868,131909,6272
913.095,1.348979,143299,6416
916.948,1.312927,156982,7637
922.079,1.330893,179937,8399
925.923,1.336921,200504,9230
929.762,1.316800,222660,10736
933.597,1.315714,244426,11815
937.427,1.329083,263972,12373
941.254,1.308592,281845,13849
945.076,1.317392,297271,14314
950.165,1.303189,315605,15702
953.978,1.313043,328029,15954
957.786,1.314911,340470,16488
961.59,1.316919,352317,16983
965.389,1.302919,363056,18074
969.185,1.303343,373162,18559
972.976,1.313455,382632,18592
976.763,1.305945,391202,19340
981.806,1.306963,400190,19738
985.583,1.307873,406088,19987
989.355,1.310884,410162,20048
993.124,1.307588,412868,20334
996.888,1.303746,414263,20584
1000.65,1.323243,415476,19738
1004.4,1.313714,415479,20176
1009.41,1.312153,414358,20194
1013.15,1.297889,412923,20796
1016.89,1.306880,411526,20301
1020.63,1.306980,409066,20175
1024.36,1.306096,406777,20103
1028.09,1.307006,404427,19945
1031.82,1.310988,401911,19640
1036.78,1.310095,398410,19509
1040.49,1.305021,396204,19629
1044.2,1.302747,394236,19634
1047.91,1.309060,392042,19243
1051.61,1.312388,389823,18988
1055.31,1.308515,388234,19080
1059,1.313302,387599,18840
1063.92,1.305986,386688,19115
1067.61,1.301545,386598,19307
1071.29,1.309540,387377,18993
1074.96,1.309627,388536,19046
1078.63,1.313133,389855,18957
1082.3,1.311792,391215,19082
1085.96,1.305510,393215,19459
1090.84,1.310593,396270,19382
1094.49,1.314031,398760,19350
1098.14,1.308422,400987,19711
1101.79,1.305811,403477,19953
1105.43,1.315221,406116,19653
1109.06,1.305722,407701,20166
1112.7,1.308877,409859,20126
1117.53,1.312849,412494,20071
1121.15,1.307557,414909,20436
1124.77,1.318994,416559,19984
1128.38,1.315733,418532,20230
1131.99,1.310160,419956,20561
1135.6,1.317675,421946,20304
1139.2,1.318744,423881,20347
1143.99,1.320112,426786,20422
1147.58,1.316330,428617,20689
1151.17,1.316918,431169,20784
1154.75,1.318129,433579,20842
1158.33,1.315405,436264,21103
1161.91,1.314338,439132,21294
1165.48,1.320042,442389,21172
1169.04,1.312813,446101,21708
1173.79,1.312963,451929,21984
1177.34,1.314263,456026,22117
1180.9,1.317108,461306,22227
1184.44,1.318827,467657,22444
1187.99,1.311405,473969,23139
1191.52,1.312545,479856,23365
1195.06,1.315612,487372,23564
1199.76,1.318207,497347,23903
1203.29,1.311481,504311,24616
1206.81,1.312635,511507,24901
1210.33,1.320151,519078,24836
1213.84,1.320424,527163,25207
1217.35,1.328227,534208,25089
1220.85,1.316166,540472,26098
1225.51,1.320070,549929,26317
1229.01,1.321687,556888,26551
1232.5,1.323006,562180,26722
1235.98,1.319409,567975,27222
1239.46,1.321746,574815,27402
1242.94,1.322181,582782,27754
1246.41,1.323989,591476,28051
1251.03,1.315398,604016,29218
1254.5,1.322899,612289,29111
1257.96,1.322619,619125,29455
1261.41,1.329903,624551,29219
1264.86,1.323426,629900,29912
1268.31,1.328313,634345,29786
1271.75,1.328945,638574,29941
1276.33,1.324585,642499,30429
1279.76,1.326524,645905,30454
1283.19,1.331414,648307,30225
1286.61,1.326229,650446,30689
1290.03,1.327268,652132,30695
1293.44,1.325024,653907,30938
1296.85,1.324888,655963,31045
1301.39,1.320797,657349,31405
1304.8,1.328735,657558,30846
1308.19,1.326994,658515,31015
1311.58,1.323920,658804,31249
1314.97,1.326202,659011,31095
1318.36,1.323569,658272,31249
1321.73,1.336583,658022,30315
1326.23,1.326512,657870,31019
1329.6,1.329505,656482,30741
1332.97,1.322455,654926,31170
1336.33,1.329335,653727,30624
1339.69,1.327129,652497,30722
1343.04,1.328541,649913,30501
1346.39,1.326272,647671,30555
1349.73,1.327085,645338,30388
1354.18,1.324546,641175,30369
1357.52,1.325329,638376,30182
1360.85,1.318341,635805,30548
1364.17,1.326001,633413,29901
1367.49,1.324086,631026,29920
1370.81,1.327540,628050,29543
1374.12,1.324451,625034,29611
1378.54,1.327095,620272,29207
1381.84,1.328036,616892,28985
1385.14,1.324255,613613,29083
1388.43,1.324631,611526,28959
1391.72,1.324889,610663,28901
1395.01,1.331302,610634,28476
1398.29,1.325911,611700,28882
1402.66,1.317647,614051,29550
1405.93,1.322650,616268,29317
1409.2,1.324971,617795,29233
1412.46,1.326486,618872,29182
1415.72,1.332886,619795,28798
1418.98,1.329099,620495,29083
1422.23,1.332992,621087,28851
1426.56,1.333524,621375,28829
1429.8,1.331259,621616,28991
1433.04,1.326080,622129,29363
1436.27,1.331631,621526,28962
1439.5,1.332904,621113,28858
1442.72,1.326762,620921,29260
1445.94,1.330572,620270,28974
1450.23,1.329015,618860,29012
1453.44,1.329562,617697,28921
1456.64,1.332006,616264,28692
1459.85,1.337673,614413,28235
1463.04,1.332079,612307,28503
1466.24,1.330858,610032,28477
1469.43,1.333032,607345,28210
1473.67,1.331885,603789,28119
1476.85,1.333397,601175,27900
1480.02,1.331903,597737,27836
1483.19,1.334930,594479,27492
1486.36,1.333057,591232,27460
1489.52,1.329257,587853,27543
1492.68,1.331847,583875,27194
1496.89,1.339467,578062,26455
1500.03,1.331124,574159,26786
1503.18,1.330965,570285,26615
1506.32,1.331477,565444,26358
1509.45,1.330164,560571,26210
1512.58,1.333568,555821,25785
1515.71,1.332564,550344,25590
1519.87,1.329505,543983,25473
1522.99,1.332608,538764,25049
1526.1,1.329785,533692,24975
1529.21,1.334044,527902,24463
1532.32,1.338579,521886,23933
1535.42,1.331874,515888,24026
1538.51,1.331439,509987,23775
1541.6,1.337768,503936,23153
1545.72,1.333516,494694,22952
1548.8,1.326292,488378,23039
1551.88,1.330424,481832,22515
1554.95,1.325893,474989,22428
1558.02,1.331282,467818,21817
1561.08,1.329919,460730,21554
1564.15,1.325710,454170,21454
1568.22,1.325217,444181,21006
1571.27,1.328929,436947,20488
1574.32,1.334187,429598,19901
1577.36,1.324171,422039,20007
1580.4,1.326736,414375,19528
1583.43,1.326328,406354,19168
1586.46,1.328281,398475,18712
1590.49,1.320697,388982,18588
1593.51,1.323610,380708,18071
1596.53,1.323688,372727,17689
1599.54,1.334323,365060,16906
1602.55,1.315307,357543,17299
1605.55,1.332374,349495,16258
1608.55,1.325693,341154,16116
1612.54,1.328607,330877,15526
1615.53,1.314365,322904,15657
1618.51,1.332188,315116,14665
1621.49,1.319685,307217,14715
1624.47,1.323500,299481,14219
1627.44,1.319173,292112,14008
1630.41,1.313248,284245,13818
1634.36,1.307285,274079,13508
1637.32,1.317370,266916,12853
1640.27,1.322341,259612,12359
1643.22,1.294158,251804,12791
1646.16,1.312863,244348,11889
1649.1,1.306947,236703,11675
1652.04,1.309004,228171,11201
1655.95,1.309721,215408,10557
1658.88,1.295381,204937,10381
1661.8,1.281351,193395,10118
1664.72,1.283618,179728,9354
1667.63,1.266657,163642,8856
1670.54,1.249722,146312,8233
1673.44,1.197846,128451,8145
1677.31,1.193505,105080,6730
1680.21,1.159280,88906,6161
1683.1,1.194464,75033,4795
1685.99,1.147580,63520,4522
1688.87,1.152941,53714,3777
1691.75,1.131453,45653,3373
1694.62,1.209670,39137,2415
1697.49,1.160321,33776,2335
1701.31,1.266025,28175,1527