File: ML/samples/unknown/Column 1_078709_20241121_171824.csv
Method:,Column 1,,
Host Date-Time:,21/11/24 @ 17:18:24,,
Header Version:,1,,
System Temp (C):,35.82,,
Detector Temp (C):,34.36,,
Humidity (%):,1.67,,
Lamp PD:,3800,,
Shift Vector Coefficients:,-10.5391,0.0761263,-0.000134223,,
Pixel to Wavelength Coefficients:,1775.68,-0.916766,-0.000235065,,
Serial Number:,5510004,,
Scan Config Name:,Column 1,,
Scan Config Type:,Slew,,
Section 1,,
Start wavelength (nm):,900,,
End wavelength (nm):,1700,,
Pattern Pixel Width (nm):,   7.03,,,,
Exposure (ms):,  0.635,,,,
Digital Resolution:,228,,
Num Repeats:,6,,
PGA Gain:,64,,
Total Measurement Time in sec:,  2.723,,
Wavelength (nm),Absorbance (AU),Reference Signal (unitless),Sample Signal (unitless)
901.51,1.288735,108485,5580
905.376,1.331526,121306,5654
909.237,1.310176,131909,6458
913.095,1.317268,143299,6902
916.948,1.330509,156982,7334
922.079,1.332551,179937,8367
925.923,1.305349,200504,9926
929.762,1.313696,222660,10813
933.597,1.325039,244426,11564
937.427,1.314314,263972,12801
941.254,1.310289,281845,13795
945.076,1.311605,297271,14506
950.165,1.314594,315605,15295
953.978,1.315062,328029,15880
957.786,1.311605,340470,16614
961.59,1.303152,352317,17530
965.389,1.306321,363056,17933
969.185,1.302314,373162,18603
972.976,1.300522,382632,19154
976.763,1.316330,391202,18883
981.806,1.305009,400190,19827
985.583,1.296168,406088,20533
989.355,1.310343,410162,20073
993.124,1.301565,412868,20618
996.888,1.299380,414263,20792
1000.65,1.301089,415476,20771
1004.4,1.303881,415479,20638
1009.41,1.299125,414358,20809
1013.15,1.299354,412923,20726
1016.89,1.305023,411526,20388
1020.63,1.303165,409066,20353
1024.36,1.300963,406777,20342
1028.09,1.305615,404427,20009
1031.82,1.312118,401911,19589
1036.78,1.309006,398410,19558
1040.49,1.299153,396204,19896
1044.2,1.308986,394236,19354
1047.91,1.307236,392042,19324
1051.61,1.310494,389823,19071
1055.31,1.305498,388234,19213
1059,1.302218,387599,19327
1063.92,1.317241,386688,18626
1067.61,1.309444,386598,18959
1071.29,1.308832,387377,19024
1074.96,1.310403,388536,19012
1078.63,1.320434,389855,18641
1082.3,1.309295,391215,19192
1085.96,1.300318,393215,19693
1090.84,1.312524,396270,19296
1094.49,1.307216,398760,19656
1098.14,1.310321,400987,19625
1101.79,1.309439,403477,19787
1105.43,1.315420,406116,19644
1109.06,1.307513,407701,20083
1112.7,1.313520,409859,19912
1117.53,1.310217,412494,20193
1121.15,1.317401,414909,19978
1124.77,1.312502,416559,20285
1128.38,1.308579,418532,20566
1131.99,1.320916,419956,20058
1135.6,1.312910,421946,20528
1139.2,1.311714,423881,20679
1143.99,1.304715,426786,21159
1147.58,1.310057,428617,20990
1151.17,1.316250,431169,20816
1154.75,1.307772,433579,21345
1158.33,1.314111,436264,21166
1161.91,1.320852,439132,20977
1165.48,1.319100,442389,21218
1169.04,1.312653,446101,21716
1173.79,1.314309,451929,21916
1177.34,1.315266,456026,22066
1180.9,1.313179,461306,22429
1184.44,1.317108,467657,22533
1187.99,1.316788,473969,22854
1191.52,1.316447,479856,23156
1195.06,1.315483,487372,23571
1199.76,1.310625,497347,24324
1203.29,1.310230,504311,24687
1206.81,1.318340,511507,24576
1210.33,1.319365,519078,24881
1213.84,1.316479,527163,25437
1217.35,1.318217,534208,25674
1220.85,1.322131,540472,25742
1225.51,1.314658,549929,26647
1229.01,1.321932,556888,26536
1232.5,1.319833,562180,26918
1235.98,1.322210,567975,27047
1239.46,1.322047,574815,27383
1242.94,1.316506,582782,28119
1246.41,1.315419,591476,28610
1251.03,1.320331,604016,28888
1254.5,1.316208,612289,29563
1257.96,1.318394,619125,29743
1261.41,1.319331,624551,29939
1264.86,1.320402,629900,30121
1268.31,1.321600,634345,30250
1271.75,1.323196,638574,30340
1276.33,1.321102,642499,30674
1279.76,1.321731,645905,30792
1283.19,1.325081,648307,30669
1286.61,1.322930,650446,30923
1290.03,1.326646,652132,30739
1293.44,1.325024,653907,30938
1296.85,1.324692,655963,31059
1301.39,1.330036,657349,30744
1304.8,1.321807,657558,31342
1308.19,1.324620,658515,31185
1311.58,1.330911,658804,30750
1314.97,1.330582,659011,30783
1318.36,1.324822,658272,31159
1321.73,1.327355,658022,30966
1326.23,1.329829,657870,30783
1329.6,1.332581,656482,30524
1332.97,1.333647,654926,30377
1336.33,1.322273,653727,31126
1339.69,1.325323,652497,30850
1343.04,1.321634,649913,30990
1346.39,1.329038,647671,30361
1349.73,1.321406,645338,30788
1354.18,1.325434,641175,30307
1357.52,1.320634,638376,30510
1360.85,1.329224,635805,29792
1364.17,1.325522,633413,29934
1367.49,1.324725,631026,29876
1370.81,1.319919,628050,30066
1374.12,1.321571,625034,29808
1378.54,1.324989,620272,29349
1381.84,1.317906,616892,29669
1385.14,1.320627,613613,29327
1388.43,1.321672,611526,29157
1391.72,1.324964,610663,28896
1395.01,1.322964,610634,29028
1398.29,1.321811,611700,29156
1402.66,1.318471,614051,29494
1405.93,1.325966,616268,29094
1409.2,1.326564,617795,29126
1412.46,1.327678,618872,29102
1415.72,1.329506,619795,29023
1418.98,1.329234,620495,29074
1422.23,1.334635,621087,28742
1426.56,1.332787,621375,28878
1429.8,1.331304,621616,28988
1433.04,1.336210,622129,28686
1436.27,1.328508,621526,29171
1439.5,1.327728,621113,29204
1442.72,1.330833,620921,28987
1445.94,1.331923,620270,28884
1450.23,1.327461,618860,29116
1453.44,1.339050,617697,28296
1456.64,1.335532,616264,28460
1459.85,1.329536,614413,28769
1463.04,1.335106,612307,28305
1466.24,1.334734,610032,28224
1469.43,1.331036,607345,28340
1473.67,1.326315,603789,28482
1476.85,1.332417,601175,27963
1480.02,1.334438,597737,27674
1483.19,1.331782,594479,27692
1486.36,1.338244,591232,27134
1489.52,1.334556,587853,27209
1492.68,1.333864,583875,27068
1496.89,1.330032,578062,27036
1500.03,1.332163,574159,26722
1503.18,1.332895,570285,26497
1506.32,1.334254,565444,26190
1509.45,1.327932,560571,26345
1512.58,1.324666,555821,26319
1515.71,1.332242,550344,25609
1519.87,1.338376,543983,24958
1522.99,1.331638,538764,25105
1526.1,1.326494,533692,25165
1529.21,1.328540,527902,24775
1532.32,1.332900,521886,24248
1535.42,1.330881,515888,24081
1538.51,1.331457,509987,23774
1541.6,1.335318,503936,23284
1545.72,1.331685,494694,23049
1548.8,1.333995,488378,22634
1551.88,1.326985,481832,22694
1554.95,1.330840,474989,22174
1558.02,1.330030,467818,21880
1561.08,1.326247,460730,21737
1564.15,1.333616,454170,21067
1568.22,1.322969,444181,21115
1571.27,1.330437,436947,20417
1574.32,1.339081,429598,19678
1577.36,1.323325,422039,20046
1580.4,1.322971,414375,19698
1583.43,1.330494,406354,18985
1586.46,1.327076,398475,18764
1590.49,1.324829,388982,18412
1593.51,1.329587,380708,17824
1596.53,1.326471,372727,17576
1599.54,1.318582,365060,17530
1602.55,1.331549,357543,16664
1605.55,1.326642,349495,16474
1608.55,1.318875,341154,16371
1612.54,1.331836,330877,15411
1615.53,1.304411,322904,16020
1618.51,1.315485,315116,15240
1621.49,1.316421,307217,14826
1624.47,1.322433,299481,14254
1627.44,1.317966,292112,14047
1630.41,1.314854,284245,13767
1634.36,1.304145,274079,13606
1637.32,1.306624,266916,13175
1640.27,1.301284,259612,12973
1643.22,1.318062,251804,12106
1646.16,1.302754,244348,12169
1649.1,1.315854,236703,11438
1652.04,1.305528,228171,11291
1655.95,1.310009,215408,10550
1658.88,1.280818,204937,10735
1661.8,1.289103,193395,9939
1664.72,1.264455,179728,9776
1667.63,1.254138,163642,9115
1670.54,1.234331,146312,8530
1673.44,1.223037,128451,7686
1677.31,1.176981,105080,6991
1680.21,1.158787,88906,6168
1683.1,1.184348,75033,4908
1685.99,1.168332,63520,4311
1688.87,1.126294,53714,4016
1691.75,1.199775,45653,2882
1694.62,1.165426,39137,2674
1697.49,1.160135,33776,2336
1701.31,1.117425,28175,2150