File: ML/samples/unknown/Column 1_078399_20241121_170046.csv
Method:,Column 1,,
Host Date-Time:,21/11/24 @ 17:0:46,,
Header Version:,1,,
System Temp (C):,34.6,,
Detector Temp (C):,33.89,,
Humidity (%):,2.55,,
Lamp PD:,3802,,
Shift Vector Coefficients:,-10.5391,0.0761263,-0.000134223,,
Pixel to Wavelength Coefficients:,1775.68,-0.916766,-0.000235065,,
Serial Number:,5510004,,
Scan Config Name:,Column 1,,
Scan Config Type:,Slew,,
Section 1,,
Start wavelength (nm):,900,,
End wavelength (nm):,1700,,
Pattern Pixel Width (nm):,   7.03,,,,
Exposure (ms):,  0.635,,,,
Digital Resolution:,228,,
Num Repeats:,6,,
PGA Gain:,64,,
Total Measurement Time in sec:,  2.726,,
Wavelength (nm),Absorbance (AU),Reference Signal (unitless),Sample Signal (unitless)
901.51,1.317283,108485,5225
905.376,1.311121,121306,5926
909.237,1.310984,131909,6446
913.095,1.325590,143299,6771
916.948,1.348462,156982,7037
922.079,1.343217,179937,8164
925.923,1.337675,200504,9214
929.762,1.318177,222660,10702
933.597,1.326921,244426,11514
937.427,1.324891,263972,12493
941.254,1.321805,281845,13434
945.076,1.310439,297271,14545
950.165,1.314793,315605,15288
953.978,1.319625,328029,15714
957.786,1.322698,340470,16195
961.59,1.316357,352317,17005
965.389,1.313377,363056,17644
969.185,1.304280,373162,18519
972.976,1.303776,382632,19011
976.763,1.315273,391202,18929
981.806,1.310764,400190,19566
985.583,1.309723,406088,19902
989.355,1.319019,410162,19676
993.124,1.303803,412868,20512
996.888,1.308818,414263,20345
1000.65,1.307343,415476,20474
1004.4,1.304745,415479,20597
1009.41,1.302771,414358,20635
1013.15,1.301981,412923,20601
1016.89,1.304171,411526,20428
1020.63,1.310590,409066,20008
1024.36,1.315707,406777,19663
1028.09,1.300479,404427,20247
1031.82,1.310105,401911,19680
1036.78,1.309072,398410,19555
1040.49,1.311507,396204,19338
1044.2,1.303234,394236,19612
1047.91,1.312595,392042,19087
1051.61,1.315764,389823,18841
1055.31,1.312885,388234,18889
1059,1.307599,387599,19089
1063.92,1.315264,386688,18711
1067.61,1.322961,386598,18378
1071.29,1.317921,387377,18630
1074.96,1.312969,388536,18900
1078.63,1.318319,389855,18732
1082.3,1.318142,391215,18805
1085.96,1.312099,393215,19166
1090.84,1.318028,396270,19053
1094.49,1.313447,398760,19376
1098.14,1.311539,400987,19570
1101.79,1.316475,403477,19469
1105.43,1.312424,406116,19780
1109.06,1.306908,407701,20111
1112.7,1.319670,409859,19632
1117.53,1.310949,412494,20159
1121.15,1.320017,414909,19858
1124.77,1.323011,416559,19800
1128.38,1.316786,418532,20181
1131.99,1.321068,419956,20051
1135.6,1.317461,421946,20314
1139.2,1.315956,423881,20478
1143.99,1.315753,426786,20628
1147.58,1.321291,428617,20454
1151.17,1.321033,431169,20588
1154.75,1.319966,433579,20754
1158.33,1.322773,436264,20748
1161.91,1.322116,439132,20916
1165.48,1.314316,442389,21453
1169.04,1.312234,446101,21737
1173.79,1.319271,451929,21667
1177.34,1.315640,456026,22047
1180.9,1.312038,461306,22488
1184.44,1.322734,467657,22243
1187.99,1.320126,473969,22679
1191.52,1.313513,479856,23313
1195.06,1.323422,487372,23144
1199.76,1.319080,497347,23855
1203.29,1.326176,504311,23797
1206.81,1.325503,511507,24174
1210.33,1.325996,519078,24504
1213.84,1.330234,527163,24644
1217.35,1.322398,534208,25428
1220.85,1.321221,540472,25796
1225.51,1.327477,549929,25872
1229.01,1.326076,556888,26284
1232.5,1.323332,562180,26702
1235.98,1.324771,567975,26888
1239.46,1.317456,574815,27674
1242.94,1.324455,582782,27609
1246.41,1.325851,591476,27931
1251.03,1.330584,604016,28214
1254.5,1.330196,612289,28626
1257.96,1.330911,619125,28898
1261.41,1.326910,624551,29421
1264.86,1.324182,629900,29860
1268.31,1.328999,634345,29739
1271.75,1.324543,638574,30246
1276.33,1.332754,642499,29862
1279.76,1.331371,645905,30116
1283.19,1.330381,648307,30297
1286.61,1.326384,650446,30678
1290.03,1.325771,652132,30801
1293.44,1.332828,653907,30387
1296.85,1.326935,655963,30899
1301.39,1.326757,657349,30977
1304.8,1.333919,657558,30480
1308.19,1.332546,658515,30621
1311.58,1.329614,658804,30842
1314.97,1.332817,659011,30625
1318.36,1.334690,658272,30459
1321.73,1.331385,658022,30680
1326.23,1.335381,657870,30392
1329.6,1.333778,656482,30440
1332.97,1.334263,654926,30334
1336.33,1.334097,653727,30290
1339.69,1.331748,652497,30397
1343.04,1.325788,649913,30695
1346.39,1.333944,647671,30020
1349.73,1.335615,645338,29797
1354.18,1.329711,641175,30010
1357.52,1.329086,638376,29922
1360.85,1.330699,635805,29691
1364.17,1.329897,633413,29634
1367.49,1.330829,631026,29459
1370.81,1.326600,628050,29607
1374.12,1.327911,625034,29376
1378.54,1.328331,620272,29124
1381.84,1.326794,616892,29068
1385.14,1.323494,613613,29134
1388.43,1.321836,611526,29146
1391.72,1.327708,610663,28714
1395.01,1.326886,610634,28767
1398.29,1.329474,611700,28646
1402.66,1.330913,614051,28661
1405.93,1.332888,616268,28634
1409.2,1.330187,617795,28884
1412.46,1.328664,618872,29036
1415.72,1.338639,619795,28419
1418.98,1.333949,620495,28760
1422.23,1.334953,621087,28721
1426.56,1.332351,621375,28907
1429.8,1.339043,621616,28476
1433.04,1.333419,622129,28871
1436.27,1.333856,621526,28814
1439.5,1.335864,621113,28662
1442.72,1.333116,620921,28835
1445.94,1.332029,620270,28877
1450.23,1.336154,618860,28539
1453.44,1.333075,617697,28688
1456.64,1.340582,616264,28131
1459.85,1.336398,614413,28318
1463.04,1.342300,612307,27840
1466.24,1.336925,610032,28082
1469.43,1.334590,607345,28109
1473.67,1.340543,603789,27564
1476.85,1.335253,601175,27781
1480.02,1.339648,597737,27344
1483.19,1.338276,594479,27281
1486.36,1.338500,591232,27118
1489.52,1.336684,587853,27076
1492.68,1.332406,583875,27159
1496.89,1.334213,578062,26777
1500.03,1.336032,574159,26485
1503.18,1.336549,570285,26275
1506.32,1.340316,565444,25827
1509.45,1.336859,560571,25809
1512.58,1.342106,555821,25283
1515.71,1.333464,550344,25537
1519.87,1.337090,543983,25032
1522.99,1.337087,538764,24792
1526.1,1.334699,533692,24694
1529.21,1.331918,527902,24583
1532.32,1.336479,521886,24049
1535.42,1.333377,515888,23943
1538.51,1.340669,509987,23275
1541.6,1.328783,503936,23637
1545.72,1.332288,494694,23017
1548.8,1.338935,488378,22378
1551.88,1.338897,481832,22080
1554.95,1.339364,474989,21743
1558.02,1.339257,467818,21420
1561.08,1.344028,460730,20865
1564.15,1.332607,454170,21116
1568.22,1.333313,444181,20618
1571.27,1.329757,436947,20449
1574.32,1.332293,429598,19988
1577.36,1.333939,422039,19562
1580.4,1.336087,414375,19112
1583.43,1.335741,406354,18757
1586.46,1.329373,398475,18665
1590.49,1.336713,388982,17915
1593.51,1.328443,380708,17871
1596.53,1.327337,372727,17541
1599.54,1.329444,365060,17097
1602.55,1.329391,357543,16747
1605.55,1.321844,349495,16657
1608.55,1.325585,341154,16120
1612.54,1.323961,330877,15693
1615.53,1.332143,322904,15029
1618.51,1.331715,315116,14681
1621.49,1.323063,307217,14601
1624.47,1.318792,299481,14374
1627.44,1.314517,292112,14159
1630.41,1.328798,284245,13332
1634.36,1.309444,274079,13441
1637.32,1.315886,266916,12897
1640.27,1.310932,259612,12688
1643.22,1.313991,251804,12220
1646.16,1.320417,244348,11684
1649.1,1.323360,236703,11242
1652.04,1.315724,228171,11029
1655.95,1.293491,215408,10959
1658.88,1.288862,204937,10538
1661.8,1.280450,193395,10139
1664.72,1.273160,179728,9582
1667.63,1.273777,163642,8712
1670.54,1.254816,146312,8137
1673.44,1.242214,128451,7354
1677.31,1.211019,105080,6464
1680.21,1.189792,88906,5743
1683.1,1.156087,75033,5238
1685.99,1.220052,63520,3827
1688.87,1.161182,53714,3706
1691.75,1.147586,45653,3250
1694.62,1.160260,39137,2706
1697.49,1.172009,33776,2273
1701.31,1.193146,28175,1806