File: ML/samples/unknown/Column 1_078260_20241121_165320.csv
Method:,Column 1,,
Host Date-Time:,21/11/24 @ 16:53:20,,
Header Version:,1,,
System Temp (C):,34.28,,
Detector Temp (C):,31.93,,
Humidity (%):,2.35,,
Lamp PD:,3803,,
Shift Vector Coefficients:,-10.5391,0.0761263,-0.000134223,,
Pixel to Wavelength Coefficients:,1775.68,-0.916766,-0.000235065,,
Serial Number:,5510004,,
Scan Config Name:,Column 1,,
Scan Config Type:,Slew,,
Section 1,,
Start wavelength (nm):,900,,
End wavelength (nm):,1700,,
Pattern Pixel Width (nm):,   7.03,,,,
Exposure (ms):,  0.635,,,,
Digital Resolution:,228,,
Num Repeats:,6,,
PGA Gain:,64,,
Total Measurement Time in sec:,  2.706,,
Wavelength (nm),Absorbance (AU),Reference Signal (unitless),Sample Signal (unitless)
901.51,1.313806,108485,5267
905.376,1.316652,121306,5851
909.237,1.340245,131909,6026
913.095,1.329197,143299,6715
916.948,1.311111,156982,7669
922.079,1.301747,179937,8982
925.923,1.323897,200504,9511
929.762,1.320497,222660,10645
933.597,1.326506,244426,11525
937.427,1.323780,263972,12525
941.254,1.321159,281845,13454
945.076,1.317210,297271,14320
950.165,1.314651,315605,15293
953.978,1.328194,328029,15407
957.786,1.323261,340470,16174
961.59,1.304293,352317,17484
965.389,1.318851,363056,17423
969.185,1.313595,373162,18126
972.976,1.305149,382632,18951
976.763,1.310868,391202,19122
981.806,1.314711,400190,19389
985.583,1.317940,406088,19529
989.355,1.302496,410162,20439
993.124,1.301228,412868,20634
996.888,1.306753,414263,20442
1000.65,1.316518,415476,20046
1004.4,1.305019,415479,20584
1009.41,1.313618,414358,20126
1013.15,1.312479,412923,20109
1016.89,1.312326,411526,20048
1020.63,1.319227,409066,19614
1024.36,1.316790,406777,19614
1028.09,1.312970,404427,19673
1031.82,1.312628,401911,19566
1036.78,1.314525,398410,19311
1040.49,1.312182,396204,19308
1044.2,1.309884,394236,19314
1047.91,1.314579,392042,19000
1051.61,1.319467,389823,18681
1055.31,1.305431,388234,19216
1059,1.317913,387599,18641
1063.92,1.308790,386688,18992
1067.61,1.312110,386598,18843
1071.29,1.307760,387377,19071
1074.96,1.316754,388536,18736
1078.63,1.329236,389855,18267
1082.3,1.314944,391215,18944
1085.96,1.316288,393215,18982
1090.84,1.314102,396270,19226
1094.49,1.313492,398760,19374
1098.14,1.324880,400987,18978
1101.79,1.320014,403477,19311
1105.43,1.319954,406116,19440
1109.06,1.316913,407701,19653
1112.7,1.325707,409859,19361
1117.53,1.313282,412494,20051
1121.15,1.315752,414909,20054
1124.77,1.320256,416559,19926
1128.38,1.328300,418532,19653
1131.99,1.316457,419956,20265
1135.6,1.317376,421946,20318
1139.2,1.322969,423881,20150
1143.99,1.315879,426786,20622
1147.58,1.316414,428617,20685
1151.17,1.321012,431169,20589
1154.75,1.321455,433579,20683
1158.33,1.320581,436264,20853
1161.91,1.317346,439132,21147
1165.48,1.316610,442389,21340
1169.04,1.323651,446101,21173
1173.79,1.320496,451929,21606
1177.34,1.322090,456026,21722
1180.9,1.317304,461306,22217
1184.44,1.321350,467657,22314
1187.99,1.323297,473969,22514
1191.52,1.325698,479856,22668
1195.06,1.315077,487372,23593
1199.76,1.328503,497347,23343
1203.29,1.327511,504311,23724
1206.81,1.328604,511507,24002
1210.33,1.332028,519078,24166
1213.84,1.325170,527163,24933
1217.35,1.321903,534208,25457
1220.85,1.322654,540472,25711
1225.51,1.319312,549929,26363
1229.01,1.328645,556888,26129
1232.5,1.324896,562180,26606
1235.98,1.328095,567975,26683
1239.46,1.322111,574815,27379
1242.94,1.327597,582782,27410
1246.41,1.324237,591476,28035
1251.03,1.328204,604016,28369
1254.5,1.324798,612289,28984
1257.96,1.329021,619125,29024
1261.41,1.329724,624551,29231
1264.86,1.330791,629900,29409
1268.31,1.329511,634345,29704
1271.75,1.333406,638574,29635
1276.33,1.333132,642499,29836
1279.76,1.332136,645905,30063
1283.19,1.335601,648307,29935
1286.61,1.332199,650446,30270
1290.03,1.335207,652132,30139
1293.44,1.330178,653907,30573
1296.85,1.328540,655963,30785
1301.39,1.334066,657349,30460
1304.8,1.330767,657558,30702
1308.19,1.328888,658515,30880
1311.58,1.337945,658804,30256
1314.97,1.334365,659011,30516
1318.36,1.332060,658272,30644
1321.73,1.329873,658022,30787
1326.23,1.334767,657870,30435
1329.6,1.330707,656482,30656
1332.97,1.336459,654926,30181
1336.33,1.337971,653727,30021
1339.69,1.332821,652497,30322
1343.04,1.336981,649913,29914
1346.39,1.338993,647671,29673
1349.73,1.338056,645338,29630
1354.18,1.330739,641175,29939
1357.52,1.338224,638376,29299
1360.85,1.336664,635805,29286
1364.17,1.327281,633413,29813
1367.49,1.332202,631026,29366
1370.81,1.330149,628050,29366
1374.12,1.331787,625034,29115
1378.54,1.337463,620272,28518
1381.84,1.333464,616892,28625
1385.14,1.331544,613613,28599
1388.43,1.330794,611526,28551
1391.72,1.329436,610663,28600
1395.01,1.330129,610634,28553
1398.29,1.328551,611700,28707
1402.66,1.330928,614051,28660
1405.93,1.330136,616268,28816
1409.2,1.330623,617795,28855
1412.46,1.334143,618872,28672
1415.72,1.331350,619795,28900
1418.98,1.338214,620495,28479
1422.23,1.336695,621087,28606
1426.56,1.335881,621375,28673
1429.8,1.339135,621616,28470
1433.04,1.337423,622129,28606
1436.27,1.339698,621526,28429
1439.5,1.336668,621113,28609
1442.72,1.342126,620921,28243
1445.94,1.331322,620270,28924
1450.23,1.336017,618860,28548
1453.44,1.336175,617697,28484
1456.64,1.338395,616264,28273
1459.85,1.334729,614413,28427
1463.04,1.334830,612307,28323
1466.24,1.337404,610032,28051
1469.43,1.337396,607345,27928
1473.67,1.339426,603789,27635
1476.85,1.336333,601175,27712
1480.02,1.337936,597737,27452
1483.19,1.334504,594479,27519
1486.36,1.338869,591232,27095
1489.52,1.338179,587853,26983
1492.68,1.341291,583875,26609
1496.89,1.341936,578062,26305
1500.03,1.342126,574159,26116
1503.18,1.344018,570285,25827
1506.32,1.341292,565444,25769
1509.45,1.341971,560571,25507
1512.58,1.342003,555821,25289
1515.71,1.332208,550344,25611
1519.87,1.336674,543983,25056
1522.99,1.341223,538764,24557
1526.1,1.346808,533692,24015
1529.21,1.340572,527902,24098
1532.32,1.339414,521886,23887
1535.42,1.340122,515888,23574
1538.51,1.335679,509987,23544
1541.6,1.341574,503936,22951
1545.72,1.335774,494694,22833
1548.8,1.338935,488378,22378
1551.88,1.340019,481832,22023
1554.95,1.349202,474989,21256
1558.02,1.334138,467818,21674
1561.08,1.340421,460730,21039
1564.15,1.334214,454170,21038
1568.22,1.331946,444181,20683
1571.27,1.334562,436947,20224
1574.32,1.335039,429598,19862
1577.36,1.330930,422039,19698
1580.4,1.321387,414375,19770
1583.43,1.333731,406354,18844
1586.46,1.330865,398475,18601
1590.49,1.344417,388982,17600
1593.51,1.330026,380708,17806
1596.53,1.330617,372727,17409
1599.54,1.324996,365060,17273
1602.55,1.328019,357543,16800
1605.55,1.317460,349495,16826
1608.55,1.331799,341154,15891
1612.54,1.329559,330877,15492
1615.53,1.328689,322904,15149
1618.51,1.321569,315116,15028
1621.49,1.325718,307217,14512
1624.47,1.315511,299481,14483
1627.44,1.327310,292112,13748
1630.41,1.332297,284245,13225
1634.36,1.332775,274079,12738
1637.32,1.331031,266916,12455
1640.27,1.328250,259612,12192
1643.22,1.320797,251804,12030
1646.16,1.324751,244348,11568
1649.1,1.307021,236703,11673
1652.04,1.306414,228171,11268
1655.95,1.295278,215408,10914
1658.88,1.316863,204937,9880
1661.8,1.301288,193395,9664
1664.72,1.277029,179728,9497
1667.63,1.270846,163642,8771
1670.54,1.268919,146312,7877
1673.44,1.225133,128451,7649
1677.31,1.228289,105080,6212
1680.21,1.238814,88906,5130
1683.1,1.214577,75033,4578
1685.99,1.218127,63520,3844
1688.87,1.143613,53714,3859
1691.75,1.268534,45653,2460
1694.62,1.198837,39137,2476
1697.49,1.168204,33776,2293
1701.31,1.210815,28175,1734