File: ML/samples/unknown/Column 1_078575_20241121_170926.csv
Method:,Column 1,,
Host Date-Time:,21/11/24 @ 17:9:26,,
Header Version:,1,,
System Temp (C):,36.27,,
Detector Temp (C):,34.57,,
Humidity (%):,1.17,,
Lamp PD:,3798,,
Shift Vector Coefficients:,-10.5391,0.0761263,-0.000134223,,
Pixel to Wavelength Coefficients:,1775.68,-0.916766,-0.000235065,,
Serial Number:,5510004,,
Scan Config Name:,Column 1,,
Scan Config Type:,Slew,,
Section 1,,
Start wavelength (nm):,900,,
End wavelength (nm):,1700,,
Pattern Pixel Width (nm):,   7.03,,,,
Exposure (ms):,  0.635,,,,
Digital Resolution:,228,,
Num Repeats:,6,,
PGA Gain:,64,,
Total Measurement Time in sec:,  2.677,,
Wavelength (nm),Absorbance (AU),Reference Signal (unitless),Sample Signal (unitless)
901.51,1.320286,108485,5189
905.376,1.324895,121306,5741
909.237,1.327393,131909,6207
913.095,1.306087,143299,7082
916.948,1.312870,156982,7638
922.079,1.335729,179937,8306
925.923,1.325040,200504,9486
929.762,1.325296,222660,10528
933.597,1.325227,244426,11559
937.427,1.330208,263972,12341
941.254,1.332938,281845,13094
945.076,1.304449,297271,14747
950.165,1.306744,315605,15574
953.978,1.310302,328029,16055
957.786,1.319598,340470,16311
961.59,1.297222,352317,17771
965.389,1.307412,363056,17888
969.185,1.304163,373162,18524
972.976,1.301225,382632,19123
976.763,1.304376,391202,19410
981.806,1.304462,400190,19852
985.583,1.311341,406088,19828
989.355,1.303368,410162,20398
993.124,1.298103,412868,20783
996.888,1.300635,414263,20732
1000.65,1.316020,415476,20069
1004.4,1.303734,415479,20645
1009.41,1.304226,414358,20566
1013.15,1.298537,412923,20765
1016.89,1.308595,411526,20221
1020.63,1.307260,409066,20162
1024.36,1.303189,406777,20238
1028.09,1.300265,404427,20257
1031.82,1.300157,401911,20136
1036.78,1.292300,398410,20325
1040.49,1.307150,396204,19533
1044.2,1.306971,394236,19444
1047.91,1.310212,392042,19192
1051.61,1.306504,389823,19247
1055.31,1.307538,388234,19123
1059,1.308739,387599,19039
1063.92,1.305079,386688,19155
1067.61,1.307935,386598,19025
1071.29,1.303410,387377,19263
1074.96,1.317613,388536,18699
1078.63,1.307647,389855,19198
1082.3,1.316506,391215,18876
1085.96,1.318720,393215,18876
1090.84,1.313222,396270,19265
1094.49,1.304178,398760,19794
1098.14,1.311695,400987,19563
1101.79,1.310956,403477,19718
1105.43,1.321319,406116,19379
1109.06,1.306735,407701,20119
1112.7,1.312061,409859,19979
1117.53,1.312503,412494,20087
1121.15,1.320696,414909,19827
1124.77,1.315876,416559,20128
1128.38,1.322679,418532,19909
1131.99,1.315045,419956,20331
1135.6,1.316735,421946,20348
1139.2,1.318616,423881,20353
1143.99,1.308198,426786,20990
1147.58,1.322375,428617,20403
1151.17,1.324273,431169,20435
1154.75,1.313919,433579,21045
1158.33,1.315920,436264,21078
1161.91,1.326394,439132,20711
1165.48,1.308625,442389,21736
1169.04,1.311156,446101,21791
1173.79,1.315063,451929,21878
1177.34,1.313635,456026,22149
1180.9,1.314013,461306,22386
1184.44,1.314668,467657,22660
1187.99,1.315403,473969,22927
1191.52,1.319912,479856,22972
1195.06,1.319816,487372,23337
1199.76,1.314751,497347,24094
1203.29,1.320735,504311,24097
1206.81,1.339079,511507,23430
1210.33,1.318214,519078,24947
1213.84,1.317488,527163,25378
1217.35,1.322723,534208,25409
1220.85,1.314571,540472,26194
1225.51,1.316733,549929,26520
1229.01,1.321474,556888,26564
1232.5,1.322438,562180,26757
1235.98,1.315945,567975,27440
1239.46,1.318525,574815,27606
1242.94,1.315072,582782,28212
1246.41,1.318558,591476,28404
1251.03,1.318725,604016,28995
1254.5,1.325758,612289,28920
1257.96,1.317154,619125,29828
1261.41,1.323250,624551,29670
1264.86,1.324196,629900,29859
1268.31,1.323197,634345,30139
1271.75,1.324428,638574,30254
1276.33,1.322748,642499,30558
1279.76,1.315472,645905,31239
1283.19,1.322680,648307,30839
1286.61,1.322326,650446,30966
1290.03,1.322330,652132,31046
1293.44,1.327911,653907,30733
1296.85,1.323965,655963,31111
1301.39,1.328316,657349,30866
1304.8,1.324853,657558,31123
1308.19,1.325484,658515,31123
1311.58,1.328685,658804,30908
1314.97,1.325142,659011,31171
1318.36,1.325115,658272,31138
1321.73,1.325159,658022,31123
1326.23,1.335752,657870,30366
1329.6,1.326183,656482,30977
1332.97,1.329337,654926,30680
1336.33,1.327212,653727,30774
1339.69,1.323932,652497,30949
1343.04,1.325901,649913,30687
1346.39,1.320736,647671,30947
1349.73,1.327772,645338,30340
1354.18,1.325405,641175,30309
1357.52,1.330642,638376,29815
1360.85,1.325523,635805,30047
1364.17,1.323106,633413,30101
1367.49,1.322738,631026,30013
1370.81,1.326468,628050,29616
1374.12,1.321483,625034,29814
1378.54,1.324693,620272,29369
1381.84,1.327542,616892,29018
1385.14,1.316882,613613,29581
1388.43,1.320764,611526,29218
1391.72,1.324123,610663,28952
1395.01,1.323069,610634,29021
1398.29,1.320427,611700,29249
1402.66,1.318986,614051,29459
1405.93,1.323480,616268,29261
1409.2,1.327908,617795,29036
1412.46,1.319723,618872,29640
1415.72,1.327446,619795,29161
1418.98,1.330610,620495,28982
1422.23,1.328097,621087,29178
1426.56,1.334399,621375,28771
1429.8,1.331439,621616,28979
1433.04,1.317832,622129,29926
1436.27,1.325999,621526,29340
1439.5,1.328443,621113,29156
1442.72,1.328457,620921,29146
1445.94,1.330722,620270,28964
1450.23,1.329269,618860,28995
1453.44,1.332138,617697,28750
1456.64,1.330495,616264,28792
1459.85,1.331654,614413,28629
1463.04,1.329936,612307,28644
1466.24,1.332218,610032,28388
1469.43,1.325402,607345,28710
1473.67,1.337622,603789,27750
1476.85,1.327245,601175,28298
1480.02,1.329058,597737,28019
1483.19,1.319337,594479,28497
1486.36,1.332346,591232,27505
1489.52,1.330094,587853,27490
1492.68,1.332486,583875,27154
1496.89,1.330659,578062,26997
1500.03,1.329700,574159,26874
1503.18,1.335971,570285,26310
1506.32,1.331675,565444,26346
1509.45,1.329485,560571,26251
1512.58,1.330329,555821,25978
1515.71,1.332072,550344,25619
1519.87,1.334081,543983,25206
1522.99,1.333320,538764,25008
1526.1,1.332244,533692,24834
1529.21,1.334986,527902,24410
1532.32,1.337383,521886,23999
1535.42,1.337899,515888,23695
1538.51,1.340688,509987,23274
1541.6,1.333048,503936,23406
1545.72,1.321977,494694,23570
1548.8,1.328201,488378,22938
1551.88,1.329268,481832,22575
1554.95,1.335764,474989,21924
1558.02,1.328089,467818,21978
1561.08,1.333134,460730,21395
1564.15,1.325791,454170,21450
1568.22,1.323278,444181,21100
1571.27,1.334991,436947,20204
1574.32,1.327775,429598,20197
1577.36,1.326500,422039,19900
1580.4,1.334205,414375,19195
1583.43,1.332213,406354,18910
1586.46,1.324675,398475,18868
1590.49,1.329930,388982,18197
1593.51,1.322314,380708,18125
1596.53,1.327361,372727,17540
1599.54,1.323215,365060,17344
1602.55,1.315182,357543,17304
1605.55,1.306828,349495,17243
1608.55,1.324133,341154,16174
1612.54,1.314950,330877,16022
1615.53,1.330269,322904,15094
1618.51,1.314745,315116,15266
1621.49,1.319213,307217,14731
1624.47,1.327150,299481,14100
1627.44,1.315377,292112,14131
1630.41,1.320090,284245,13602
1634.36,1.306706,274079,13526
1637.32,1.299205,266916,13402
1640.27,1.314679,259612,12579
1643.22,1.302211,251804,12556
1646.16,1.296377,244348,12349
1649.1,1.309222,236703,11614
1652.04,1.308461,228171,11215
1655.95,1.296274,215408,10889
1658.88,1.296848,204937,10346
1661.8,1.287445,193395,9977
1664.72,1.274931,179728,9543
1667.63,1.249965,163642,9203
1670.54,1.238629,146312,8446
1673.44,1.219492,128451,7749
1677.31,1.189267,105080,6796
1680.21,1.152149,88906,6263
1683.1,1.172047,75033,5049
1685.99,1.159260,63520,4402
1688.87,1.153056,53714,3776
1691.75,1.142141,45653,3291
1694.62,1.134252,39137,2873
1697.49,1.156986,33776,2353
1701.31,1.195799,28175,1795