File: ML/samples/unknown/Column 1_078632_20241121_171215.csv
Method:,Column 1,,
Host Date-Time:,21/11/24 @ 17:12:15,,
Header Version:,1,,
System Temp (C):,36.88,,
Detector Temp (C):,35.17,,
Humidity (%):,0.78,,
Lamp PD:,3797,,
Shift Vector Coefficients:,-10.5391,0.0761263,-0.000134223,,
Pixel to Wavelength Coefficients:,1775.68,-0.916766,-0.000235065,,
Serial Number:,5510004,,
Scan Config Name:,Column 1,,
Scan Config Type:,Slew,,
Section 1,,
Start wavelength (nm):,900,,
End wavelength (nm):,1700,,
Pattern Pixel Width (nm):,   7.03,,,,
Exposure (ms):,  0.635,,,,
Digital Resolution:,228,,
Num Repeats:,6,,
PGA Gain:,64,,
Total Measurement Time in sec:,  2.722,,
Wavelength (nm),Absorbance (AU),Reference Signal (unitless),Sample Signal (unitless)
901.51,1.316287,108485,5237
905.376,1.309950,121306,5942
909.237,1.314570,131909,6393
913.095,1.288481,143299,7375
916.948,1.306380,156982,7753
922.079,1.323663,179937,8540
925.923,1.321620,200504,9561
929.762,1.327613,222660,10472
933.597,1.311216,244426,11938
937.427,1.327996,263972,12404
941.254,1.318135,281845,13548
945.076,1.306574,297271,14675
950.165,1.305574,315605,15616
953.978,1.298191,328029,16509
957.786,1.310352,340470,16662
961.59,1.313455,352317,17119
965.389,1.309822,363056,17789
969.185,1.300404,373162,18685
972.976,1.311381,382632,18681
976.763,1.304756,391202,19393
981.806,1.302432,400190,19945
985.583,1.305705,406088,20087
989.355,1.303070,410162,20412
993.124,1.308808,412868,20277
996.888,1.309203,414263,20327
1000.65,1.303079,415476,20676
1004.4,1.297593,415479,20939
1009.41,1.313920,414358,20112
1013.15,1.307347,412923,20348
1016.89,1.303938,411526,20439
1020.63,1.302888,409066,20366
1024.36,1.309283,406777,19956
1028.09,1.306484,404427,19969
1031.82,1.299855,401911,20150
1036.78,1.312484,398410,19402
1040.49,1.314753,396204,19194
1044.2,1.298237,394236,19839
1047.91,1.307528,392042,19311
1051.61,1.297328,389823,19658
1055.31,1.305566,388234,19210
1059,1.306032,387599,19158
1063.92,1.305623,386688,19131
1067.61,1.302987,386598,19243
1071.29,1.311305,387377,18916
1074.96,1.305475,388536,19229
1078.63,1.307647,389855,19198
1082.3,1.309092,391215,19201
1085.96,1.314758,393215,19049
1090.84,1.309451,396270,19433
1094.49,1.322255,398760,18987
1098.14,1.307585,400987,19749
1101.79,1.313895,403477,19585
1105.43,1.313457,406116,19733
1109.06,1.316228,407701,19684
1112.7,1.313694,409859,19904
1117.53,1.312740,412494,20076
1121.15,1.317879,414909,19956
1124.77,1.310792,416559,20365
1128.38,1.312120,418532,20399
1131.99,1.315066,419956,20330
1135.6,1.309266,421946,20701
1139.2,1.316062,423881,20473
1143.99,1.320985,426786,20381
1147.58,1.315198,428617,20743
1151.17,1.309070,431169,21163
1154.75,1.312025,433579,21137
1158.33,1.313127,436264,21214
1161.91,1.317162,439132,21156
1165.48,1.313932,442389,21472
1169.04,1.314276,446101,21635
1173.79,1.312509,451929,22007
1177.34,1.308625,456026,22406
1180.9,1.316640,461306,22251
1184.44,1.312965,467657,22749
1187.99,1.317377,473969,22823
1191.52,1.315062,479856,23230
1195.06,1.315464,487372,23572
1199.76,1.315274,497347,24065
1203.29,1.313923,504311,24478
1206.81,1.317193,511507,24641
1210.33,1.317154,519078,25008
1213.84,1.323467,527163,25031
1217.35,1.319047,534208,25625
1220.85,1.319038,540472,25926
1225.51,1.319114,549929,26375
1229.01,1.317374,556888,26816
1232.5,1.322811,562180,26734
1235.98,1.324819,567975,26885
1239.46,1.322396,574815,27361
1242.94,1.316059,582782,28148
1246.41,1.322274,591476,28162
1251.03,1.321701,604016,28797
1254.5,1.317473,612289,29477
1257.96,1.322546,619125,29460
1261.41,1.319534,624551,29925
1264.86,1.324604,629900,29831
1268.31,1.321356,634345,30267
1271.75,1.325132,638574,30205
1276.33,1.325342,642499,30376
1279.76,1.318849,645905,30997
1283.19,1.327452,648307,30502
1286.61,1.323646,650446,30872
1290.03,1.319222,652132,31269
1293.44,1.320805,653907,31240
1296.85,1.328300,655963,30802
1301.39,1.324994,657349,31103
1304.8,1.330372,657558,30730
1308.19,1.325261,658515,31139
1311.58,1.325535,658804,31133
1314.97,1.322475,659011,31363
1318.36,1.326876,658272,31012
1321.73,1.330664,658022,30731
1326.23,1.325394,657870,31099
1329.6,1.326352,656482,30965
1332.97,1.331451,654926,30531
1336.33,1.321200,653727,31203
1339.69,1.324761,652497,30890
1343.04,1.324968,649913,30753
1346.39,1.327553,647671,30465
1349.73,1.325274,645338,30515
1354.18,1.323475,641175,30444
1357.52,1.325890,638376,30143
1360.85,1.324988,635805,30084
1364.17,1.325044,633413,29967
1367.49,1.328067,631026,29647
1370.81,1.325428,628050,29687
1374.12,1.325052,625034,29570
1378.54,1.327140,620272,29204
1381.84,1.322867,616892,29332
1385.14,1.326681,613613,28921
1388.43,1.328760,611526,28685
1391.72,1.323553,610663,28990
1395.01,1.319908,610634,29233
1398.29,1.326016,611700,28875
1402.66,1.326721,614051,28939
1405.93,1.327926,616268,28963
1409.2,1.330383,617795,28871
1412.46,1.328694,618872,29034
1415.72,1.326107,619795,29251
1418.98,1.334720,620495,28709
1422.23,1.323154,621087,29512
1426.56,1.329133,621375,29122
1429.8,1.330496,621616,29042
1433.04,1.327962,622129,29236
1436.27,1.327512,621526,29238
1439.5,1.328651,621113,29142
1442.72,1.329114,620921,29102
1445.94,1.334275,620270,28728
1450.23,1.332321,618860,28792
1453.44,1.331519,617697,28791
1456.64,1.327294,616264,29005
1459.85,1.331730,614413,28624
1463.04,1.332826,612307,28454
1466.24,1.329762,610032,28549
1469.43,1.335116,607345,28075
1473.67,1.333216,603789,28033
1476.85,1.328767,601175,28199
1480.02,1.323054,597737,28409
1483.19,1.338404,594479,27273
1486.36,1.333089,591232,27458
1489.52,1.333600,587853,27269
1492.68,1.328902,583875,27379
1496.89,1.336505,578062,26636
1500.03,1.332147,574159,26723
1503.18,1.331684,570285,26571
1506.32,1.333691,565444,26224
1509.45,1.337466,560571,25773
1512.58,1.334478,555821,25731
1515.71,1.334759,550344,25461
1519.87,1.332963,543983,25271
1522.99,1.339670,538764,24645
1526.1,1.335491,533692,24649
1529.21,1.335537,527902,24379
1532.32,1.332649,521886,24262
1535.42,1.337642,515888,23709
1538.51,1.327891,509987,23970
1541.6,1.328452,503936,23655
1545.72,1.324954,494694,23409
1548.8,1.327085,488378,22997
1551.88,1.328730,481832,22603
1554.95,1.328535,474989,22292
1558.02,1.334840,467818,21639
1561.08,1.328490,460730,21625
1564.15,1.326419,454170,21419
1568.22,1.335023,444181,20537
1571.27,1.332014,436947,20343
1574.32,1.332641,429598,19972
1577.36,1.332875,422039,19610
1580.4,1.325670,414375,19576
1583.43,1.334585,406354,18807
1586.46,1.339162,398475,18249
1590.49,1.332059,388982,18108
1593.51,1.329465,380708,17829
1596.53,1.316215,372727,17996
1599.54,1.326079,365060,17230
1602.55,1.312654,357543,17405
1605.55,1.318287,349495,16794
1608.55,1.319220,341154,16358
1612.54,1.313138,330877,16089
1615.53,1.321581,322904,15399
1618.51,1.305931,315116,15579
1621.49,1.333966,307217,14239
1624.47,1.313954,299481,14535
1627.44,1.308758,292112,14348
1630.41,1.323295,284245,13502
1634.36,1.305232,274079,13572
1637.32,1.318961,266916,12806
1640.27,1.309292,259612,12736
1643.22,1.302800,251804,12539
1646.16,1.304470,244348,12121
1649.1,1.302506,236703,11795
1652.04,1.301241,228171,11403
1655.95,1.293451,215408,10960
1658.88,1.289274,204937,10528
1661.8,1.284322,193395,10049
1664.72,1.270223,179728,9647
1667.63,1.267492,163642,8839
1670.54,1.244218,146312,8338
1673.44,1.221458,128451,7714
1677.31,1.174997,105080,7023
1680.21,1.180811,88906,5863
1683.1,1.132370,75033,5532
1685.99,1.161238,63520,4382
1688.87,1.168867,53714,3641
1691.75,1.193047,45653,2927
1694.62,1.203421,39137,2450
1697.49,1.056877,33776,2963
1701.31,1.168831,28175,1910