File: ML/samples/unknown/Column 1_078904_20241121_172748.csv
Method:,Column 1,,
Host Date-Time:,21/11/24 @ 17:27:48,,
Header Version:,1,,
System Temp (C):,36.95,,
Detector Temp (C):,36.36,,
Humidity (%):,0.43,,
Lamp PD:,3796,,
Shift Vector Coefficients:,-10.5391,0.0761263,-0.000134223,,
Pixel to Wavelength Coefficients:,1775.68,-0.916766,-0.000235065,,
Serial Number:,5510004,,
Scan Config Name:,Column 1,,
Scan Config Type:,Slew,,
Section 1,,
Start wavelength (nm):,900,,
End wavelength (nm):,1700,,
Pattern Pixel Width (nm):,   7.03,,,,
Exposure (ms):,  0.635,,,,
Digital Resolution:,228,,
Num Repeats:,6,,
PGA Gain:,64,,
Total Measurement Time in sec:,  2.716,,
Wavelength (nm),Absorbance (AU),Reference Signal (unitless),Sample Signal (unitless)
901.51,1.335619,108485,5009
905.376,1.323988,121306,5753
909.237,1.337802,131909,6060
913.095,1.318970,143299,6875
916.948,1.313553,156982,7626
922.079,1.327956,179937,8456
925.923,1.319038,200504,9618
929.762,1.327405,222660,10477
933.597,1.316449,244426,11795
937.427,1.307281,263972,13010
941.254,1.307496,281845,13884
945.076,1.318546,297271,14276
950.165,1.315077,315605,15278
953.978,1.317255,328029,15800
957.786,1.314463,340470,16505
961.59,1.308411,352317,17319
965.389,1.301672,363056,18126
969.185,1.302805,373162,18582
972.976,1.313782,382632,18578
976.763,1.307024,391202,19292
981.806,1.304287,400190,19860
985.583,1.304043,406088,20164
989.355,1.310581,410162,20062
993.124,1.305012,412868,20455
996.888,1.302251,414263,20655
1000.65,1.307004,415476,20490
1004.4,1.309153,415479,20389
1009.41,1.308235,414358,20377
1013.15,1.309508,412923,20247
1016.89,1.307586,411526,20268
1020.63,1.306055,409066,20218
1024.36,1.302396,406777,20275
1028.09,1.299965,404427,20271
1031.82,1.307794,401911,19785
1036.78,1.304367,398410,19768
1040.49,1.301649,396204,19782
1044.2,1.304299,394236,19564
1047.91,1.305777,392042,19389
1051.61,1.305828,389823,19277
1055.31,1.308447,388234,19083
1059,1.310934,387599,18943
1063.92,1.304829,386688,19166
1067.61,1.310361,386598,18919
1071.29,1.311902,387377,18890
1074.96,1.314143,388536,18849
1078.63,1.310666,389855,19065
1082.3,1.308075,391215,19246
1085.96,1.313438,393215,19107
1090.84,1.314984,396270,19187
1094.49,1.302383,398760,19876
1098.14,1.317573,400987,19300
1101.79,1.318510,403477,19378
1105.43,1.313457,406116,19733
1109.06,1.312734,407701,19843
1112.7,1.310888,409859,20033
1117.53,1.316870,412494,19886
1121.15,1.308941,414909,20371
1124.77,1.313509,416559,20238
1128.38,1.314040,418532,20309
1131.99,1.316136,419956,20280
1135.6,1.316031,421946,20381
1139.2,1.311064,423881,20710
1143.99,1.314849,426786,20671
1147.58,1.314340,428617,20784
1151.17,1.311891,431169,21026
1154.75,1.312971,433579,21091
1158.33,1.318275,436264,20964
1161.91,1.321784,439132,20932
1165.48,1.309305,442389,21702
1169.04,1.311575,446101,21770
1173.79,1.315559,451929,21853
1177.34,1.311913,456026,22237
1180.9,1.309958,461306,22596
1184.44,1.315089,467657,22638
1187.99,1.315194,473969,22938
1191.52,1.315455,479856,23209
1195.06,1.311704,487372,23777
1199.76,1.312575,497347,24215
1203.29,1.311958,504311,24589
1206.81,1.320200,511507,24471
1210.33,1.313505,519078,25219
1213.84,1.316155,527163,25456
1217.35,1.319267,534208,25612
1220.85,1.315418,540472,26143
1225.51,1.322569,549929,26166
1229.01,1.322096,556888,26526
1232.5,1.319075,562180,26965
1235.98,1.321729,567975,27077
1239.46,1.318446,574815,27611
1242.94,1.316414,582782,28125
1246.41,1.317534,591476,28471
1251.03,1.322335,604016,28755
1254.5,1.322005,612289,29171
1257.96,1.316616,619125,29865
1261.41,1.320129,624551,29884
1264.86,1.328773,629900,29546
1268.31,1.324886,634345,30022
1271.75,1.325953,638574,30148
1276.33,1.325914,642499,30336
1279.76,1.323951,645905,30635
1283.19,1.328807,648307,30407
1286.61,1.324308,650446,30825
1290.03,1.323787,652132,30942
1293.44,1.323958,653907,31014
1296.85,1.322836,655963,31192
1301.39,1.324687,657349,31125
1304.8,1.329285,657558,30807
1308.19,1.324119,658515,31221
1311.58,1.324810,658804,31185
1314.97,1.327279,659011,31018
1318.36,1.323028,658272,31288
1321.73,1.326333,658022,31039
1326.23,1.328421,657870,30883
1329.6,1.326394,656482,30962
1332.97,1.323236,654926,31114
1336.33,1.323097,653727,31067
1339.69,1.321232,652497,31142
1343.04,1.330196,649913,30385
1346.39,1.324386,647671,30688
1349.73,1.320405,645338,30859
1354.18,1.324875,641175,30346
1357.52,1.326034,638376,30133
1360.85,1.325740,635805,30032
1364.17,1.322558,633413,30139
1367.49,1.322318,631026,30042
1370.81,1.327349,628050,29556
1374.12,1.325317,625034,29552
1378.54,1.321026,620272,29618
1381.84,1.326182,616892,29109
1385.14,1.327042,613613,28897
1388.43,1.321881,611526,29143
1391.72,1.326545,610663,28791
1395.01,1.323623,610634,28984
1398.29,1.329854,611700,28621
1402.66,1.326391,614051,28961
1405.93,1.322635,616268,29318
1409.2,1.326817,617795,29109
1412.46,1.331455,618872,28850
1415.72,1.326093,619795,29252
1418.98,1.334841,620495,28701
1422.23,1.330635,621087,29008
1426.56,1.325435,621375,29371
1429.8,1.333286,621616,28856
1433.04,1.328542,622129,29197
1436.27,1.332156,621526,28927
1439.5,1.329651,621113,29075
1442.72,1.329576,620921,29071
1445.94,1.325684,620270,29302
1450.23,1.328775,618860,29028
1453.44,1.327943,617697,29029
1456.64,1.331220,616264,28744
1459.85,1.335570,614413,28372
1463.04,1.333697,612307,28397
1466.24,1.336971,610032,28079
1469.43,1.336774,607345,27968
1473.67,1.331932,603789,28116
1476.85,1.333272,601175,27908
1480.02,1.329849,597737,27968
1483.19,1.331547,594479,27707
1486.36,1.327463,591232,27816
1489.52,1.325896,587853,27757
1492.68,1.331527,583875,27214
1496.89,1.338057,578062,26541
1500.03,1.332488,574159,26702
1503.18,1.333059,570285,26487
1506.32,1.340568,565444,25812
1509.45,1.330429,560571,26194
1512.58,1.338446,555821,25497
1515.71,1.331665,550344,25643
1519.87,1.336639,543983,25058
1522.99,1.325916,538764,25438
1526.1,1.332366,533692,24827
1529.21,1.332643,527902,24542
1532.32,1.330684,521886,24372
1535.42,1.335960,515888,23801
1538.51,1.335089,509987,23576
1541.6,1.334479,503936,23329
1545.72,1.328400,494694,23224
1548.8,1.327312,488378,22985
1551.88,1.328480,481832,22616
1554.95,1.337033,474989,21860
1558.02,1.328959,467818,21934
1561.08,1.325668,460730,21766
1564.15,1.331826,454170,21154
1568.22,1.327497,444181,20896
1571.27,1.328993,436947,20485
1574.32,1.328593,429598,20159
1577.36,1.324518,422039,19991
1580.4,1.325936,414375,19564
1583.43,1.331112,406354,18958
1586.46,1.319550,398475,19092
1590.49,1.320720,388982,18587
1593.51,1.330563,380708,17784
1596.53,1.327460,372727,17536
1599.54,1.322414,365060,17376
1602.55,1.318103,357543,17188
1605.55,1.318727,349495,16777
1608.55,1.326854,341154,16073
1612.54,1.321587,330877,15779
1615.53,1.336470,322904,14880
1618.51,1.308167,315116,15499
1621.49,1.321726,307217,14646
1624.47,1.314762,299481,14508
1627.44,1.312741,292112,14217
1630.41,1.311272,284245,13881
1634.36,1.311777,274079,13369
1637.32,1.314306,266916,12944
1640.27,1.311994,259612,12657
1643.22,1.307536,251804,12403
1646.16,1.321161,244348,11664
1649.1,1.312902,236703,11516
1652.04,1.308965,228171,11202
1655.95,1.305179,215408,10668
1658.88,1.291176,204937,10482
1661.8,1.295840,193395,9786
1664.72,1.270809,179728,9634
1667.63,1.224089,163642,9768
1670.54,1.221390,146312,8788
1673.44,1.187624,128451,8339
1677.31,1.186274,105080,6843
1680.21,1.142955,88906,6397
1683.1,1.113851,75033,5773
1685.99,1.116542,63520,4857
1688.87,1.108600,53714,4183
1691.75,1.069631,45653,3889
1694.62,1.122324,39137,2953
1697.49,1.217915,33776,2045
1701.31,1.176863,28175,1875