File: ML/samples/unknown/Column 1_078217_20241121_165113.csv
Method:,Column 1,,
Host Date-Time:,21/11/24 @ 16:51:13,,
Header Version:,1,,
System Temp (C):,34.04,,
Detector Temp (C):,31.06,,
Humidity (%):,2.99,,
Lamp PD:,3804,,
Shift Vector Coefficients:,-10.5391,0.0761263,-0.000134223,,
Pixel to Wavelength Coefficients:,1775.68,-0.916766,-0.000235065,,
Serial Number:,5510004,,
Scan Config Name:,Column 1,,
Scan Config Type:,Slew,,
Section 1,,
Start wavelength (nm):,900,,
End wavelength (nm):,1700,,
Pattern Pixel Width (nm):,   7.03,,,,
Exposure (ms):,  0.635,,,,
Digital Resolution:,228,,
Num Repeats:,6,,
PGA Gain:,64,,
Total Measurement Time in sec:,  2.726,,
Wavelength (nm),Absorbance (AU),Reference Signal (unitless),Sample Signal (unitless)
901.51,1.320705,108485,5184
905.376,1.311047,121306,5927
909.237,1.315454,131909,6380
913.095,1.305658,143299,7089
916.948,1.325622,156982,7417
922.079,1.332810,179937,8362
925.923,1.313118,200504,9750
929.762,1.320211,222660,10652
933.597,1.331509,244426,11393
937.427,1.320258,263972,12627
941.254,1.308717,281845,13845
945.076,1.323164,297271,14125
950.165,1.323893,315605,14971
953.978,1.305139,328029,16247
957.786,1.318004,340470,16371
961.59,1.308511,352317,17315
965.389,1.308165,363056,17857
969.185,1.310206,373162,18268
972.976,1.305103,382632,18953
976.763,1.304219,391202,19417
981.806,1.301866,400190,19971
985.583,1.304992,406088,20120
989.355,1.309004,410162,20135
993.124,1.305862,412868,20415
996.888,1.303051,414263,20617
1000.65,1.311157,415476,20295
1004.4,1.314123,415479,20157
1009.41,1.303340,414358,20608
1013.15,1.304285,412923,20492
1016.89,1.306666,411526,20311
1020.63,1.306571,409066,20194
1024.36,1.310743,406777,19889
1028.09,1.305767,404427,20002
1031.82,1.301020,401911,20096
1036.78,1.311857,398410,19430
1040.49,1.305862,396204,19591
1044.2,1.304921,394236,19536
1047.91,1.311731,392042,19125
1051.61,1.318005,389823,18744
1055.31,1.305498,388234,19213
1059,1.309538,387599,19004
1063.92,1.315101,386688,18718
1067.61,1.309192,386598,18970
1071.29,1.309357,387377,19001
1074.96,1.311547,388536,18962
1078.63,1.314993,389855,18876
1082.3,1.316322,391215,18884
1085.96,1.316609,393215,18968
1090.84,1.320015,396270,18966
1094.49,1.310410,398760,19512
1098.14,1.316494,400987,19348
1101.79,1.311860,403477,19677
1105.43,1.320826,406116,19401
1109.06,1.319662,407701,19529
1112.7,1.309309,409859,20106
1117.53,1.314800,412494,19981
1121.15,1.315514,414909,20065
1124.77,1.318386,416559,20012
1128.38,1.316334,418532,20202
1131.99,1.321653,419956,20024
1135.6,1.321780,421946,20113
1139.2,1.322861,423881,20155
1143.99,1.319092,426786,20470
1147.58,1.321482,428617,20445
1151.17,1.319706,431169,20651
1154.75,1.317504,433579,20872
1158.33,1.318710,436264,20943
1161.91,1.320769,439132,20981
1165.48,1.324164,442389,20972
1169.04,1.317257,446101,21487
1173.79,1.322188,451929,21522
1177.34,1.314912,456026,22084
1180.9,1.314673,461306,22352
1184.44,1.322636,467657,22248
1187.99,1.326200,473969,22364
1191.52,1.315529,479856,23205
1195.06,1.326529,487372,22979
1199.76,1.324982,497347,23533
1203.29,1.324155,504311,23908
1206.81,1.323853,511507,24266
1210.33,1.322975,519078,24675
1213.84,1.327563,527163,24796
1217.35,1.318996,534208,25628
1220.85,1.330495,540472,25251
1225.51,1.318341,549929,26422
1229.01,1.328130,556888,26160
1232.5,1.326302,562180,26520
1235.98,1.324932,567975,26878
1239.46,1.328068,574815,27006
1242.94,1.326600,582782,27473
1246.41,1.326333,591476,27900
1251.03,1.321098,604016,28837
1254.5,1.326645,612289,28861
1257.96,1.323165,619125,29418
1261.41,1.329190,624551,29267
1264.86,1.328156,629900,29588
1268.31,1.325726,634345,29964
1271.75,1.328930,638574,29942
1276.33,1.331302,642499,29962
1279.76,1.322408,645905,30744
1283.19,1.319663,648307,31054
1286.61,1.332644,650446,30239
1290.03,1.328642,652132,30598
1293.44,1.325305,653907,30918
1296.85,1.330647,655963,30636
1301.39,1.330233,657349,30730
1304.8,1.332227,657558,30599
1308.19,1.329677,658515,30824
1311.58,1.331109,658804,30736
1314.97,1.332207,659011,30668
1318.36,1.334604,658272,30465
1321.73,1.333514,658022,30530
1326.23,1.332362,657870,30604
1329.6,1.332411,656482,30536
1332.97,1.329790,654926,30648
1336.33,1.328074,653727,30713
1339.69,1.329269,652497,30571
1343.04,1.327801,649913,30553
1346.39,1.329897,647671,30301
1349.73,1.329292,645338,30234
1354.18,1.327891,641175,30136
1357.52,1.326582,638376,30095
1360.85,1.324916,635805,30089
1364.17,1.335413,633413,29260
1367.49,1.329799,631026,29529
1370.81,1.326937,628050,29584
1374.12,1.331295,625034,29148
1378.54,1.324279,620272,29397
1381.84,1.328591,616892,28948
1385.14,1.331848,613613,28579
1388.43,1.326495,611526,28835
1391.72,1.330789,610663,28511
1395.01,1.324282,610634,28940
1398.29,1.329156,611700,28667
1402.66,1.330217,614051,28707
1405.93,1.330603,616268,28785
1409.2,1.329841,617795,28907
1412.46,1.327126,618872,29139
1415.72,1.327103,619795,29184
1418.98,1.337680,620495,28514
1422.23,1.329289,621087,29098
1426.56,1.339516,621375,28434
1429.8,1.333617,621616,28834
1433.04,1.334790,622129,28780
1436.27,1.336213,621526,28658
1439.5,1.331927,621113,28923
1442.72,1.331973,620921,28911
1445.94,1.333007,620270,28812
1450.23,1.339177,618860,28341
1453.44,1.331504,617697,28792
1456.64,1.335227,616264,28480
1459.85,1.338566,614413,28177
1463.04,1.329572,612307,28668
1466.24,1.341089,610032,27814
1469.43,1.333356,607345,28189
1473.67,1.340574,603789,27562
1476.85,1.331827,601175,28001
1480.02,1.337936,597737,27452
1483.19,1.332976,594479,27616
1486.36,1.332299,591232,27508
1489.52,1.338227,587853,26980
1492.68,1.335487,583875,26967
1496.89,1.342118,578062,26294
1500.03,1.338796,574159,26317
1503.18,1.329207,570285,26723
1506.32,1.342761,565444,25682
1509.45,1.332840,560571,26049
1512.58,1.331451,555821,25911
1515.71,1.339113,550344,25207
1519.87,1.341905,543983,24756
1522.99,1.339353,538764,24663
1526.1,1.334225,533692,24721
1529.21,1.334132,527902,24458
1532.32,1.334371,521886,24166
1535.42,1.336179,515888,23789
1538.51,1.340968,509987,23259
1541.6,1.333438,503936,23385
1545.72,1.330894,494694,23091
1548.8,1.333841,488378,22642
1551.88,1.332473,481832,22409
1554.95,1.333157,474989,22056
1558.02,1.331063,467818,21828
1561.08,1.343903,460730,20871
1564.15,1.332607,454170,21116
1568.22,1.335023,444181,20537
1571.27,1.335960,436947,20159
1574.32,1.335324,429598,19849
1577.36,1.338133,422039,19374
1580.4,1.336929,414375,19075
1583.43,1.327712,406354,19107
1586.46,1.330841,398475,18602
1590.49,1.324428,388982,18429
1593.51,1.329587,380708,17824
1596.53,1.331141,372727,17388
1599.54,1.337598,365060,16779
1602.55,1.317926,357543,17195
1605.55,1.323202,349495,16605
1608.55,1.316600,341154,16457
1612.54,1.320433,330877,15821
1615.53,1.327116,322904,15204
1618.51,1.326276,315116,14866
1621.49,1.327127,307217,14465
1624.47,1.328446,299481,14058
1627.44,1.319235,292112,14006
1630.41,1.324003,284245,13480
1634.36,1.313632,274079,13312
1637.32,1.322332,266916,12707
1640.27,1.307794,259612,12780
1643.22,1.304396,251804,12493
1646.16,1.320120,244348,11692
1649.1,1.312638,236703,11523
1652.04,1.311882,228171,11127
1655.95,1.327352,215408,10137
1658.88,1.298404,204937,10309
1661.8,1.294422,193395,9818
1664.72,1.296100,179728,9089
1667.63,1.265629,163642,8877
1670.54,1.252261,146312,8185
1673.44,1.257173,128451,7105
1677.31,1.212297,105080,6445
1680.21,1.222204,88906,5330
1683.1,1.242896,75033,4289
1685.99,1.239667,63520,3658
1688.87,1.237187,53714,3111
1691.75,1.165872,45653,3116
1694.62,1.192395,39137,2513
1697.49,1.232162,33776,1979
1701.31,1.372496,28175,1195