File: ML/samples/unknown/Column 1_078365_20241121_165828.csv
Method:,Column 1,,
Host Date-Time:,21/11/24 @ 16:58:28,,
Header Version:,1,,
System Temp (C):,34.88,,
Detector Temp (C):,33.36,,
Humidity (%):,2.11,,
Lamp PD:,3801,,
Shift Vector Coefficients:,-10.5391,0.0761263,-0.000134223,,
Pixel to Wavelength Coefficients:,1775.68,-0.916766,-0.000235065,,
Serial Number:,5510004,,
Scan Config Name:,Column 1,,
Scan Config Type:,Slew,,
Section 1,,
Start wavelength (nm):,900,,
End wavelength (nm):,1700,,
Pattern Pixel Width (nm):,   7.03,,,,
Exposure (ms):,  0.635,,,,
Digital Resolution:,228,,
Num Repeats:,6,,
PGA Gain:,64,,
Total Measurement Time in sec:,  2.729,,
Wavelength (nm),Absorbance (AU),Reference Signal (unitless),Sample Signal (unitless)
901.51,1.329335,108485,5082
905.376,1.350846,121306,5408
909.237,1.319420,131909,6322
913.095,1.352786,143299,6360
916.948,1.303143,156982,7811
922.079,1.338719,179937,8249
925.923,1.334294,200504,9286
929.762,1.320823,222660,10637
933.597,1.330671,244426,11415
937.427,1.329891,263972,12350
941.254,1.325539,281845,13319
945.076,1.321078,297271,14193
950.165,1.318903,315605,15144
953.978,1.311385,328029,16015
957.786,1.320611,340470,16273
961.59,1.305811,352317,17423
965.389,1.308871,363056,17828
969.185,1.306372,373162,18430
972.976,1.309132,382632,18778
976.763,1.312210,391202,19063
981.806,1.309589,400190,19619
985.583,1.311517,406088,19820
989.355,1.316071,410162,19810
993.124,1.308829,412868,20276
996.888,1.310380,414263,20272
1000.65,1.313087,415476,20205
1004.4,1.310732,415479,20315
1009.41,1.311165,414358,20240
1013.15,1.308715,412923,20284
1016.89,1.311720,411526,20076
1020.63,1.312766,409066,19908
1024.36,1.306766,406777,20072
1028.09,1.318434,404427,19427
1031.82,1.316955,401911,19372
1036.78,1.310496,398410,19491
1040.49,1.308553,396204,19470
1044.2,1.308335,394236,19383
1047.91,1.315403,392042,18964
1051.61,1.311954,389823,19007
1055.31,1.326382,388234,18311
1059,1.308169,387599,19064
1063.92,1.317241,386688,18626
1067.61,1.315743,386598,18686
1071.29,1.321432,387377,18480
1074.96,1.324094,388536,18422
1078.63,1.312355,389855,18991
1082.3,1.315242,391215,18931
1085.96,1.315123,393215,19033
1090.84,1.321162,396270,18916
1094.49,1.312060,398760,19438
1098.14,1.323920,400987,19020
1101.79,1.319587,403477,19330
1105.43,1.311788,406116,19809
1109.06,1.315589,407701,19713
1112.7,1.318367,409859,19691
1117.53,1.326119,412494,19467
1121.15,1.318511,414909,19927
1124.77,1.313016,416559,20261
1128.38,1.324428,418532,19829
1131.99,1.317144,419956,20233
1135.6,1.318918,421946,20246
1139.2,1.310477,423881,20738
1143.99,1.316765,426786,20580
1147.58,1.328917,428617,20098
1151.17,1.322555,431169,20516
1154.75,1.327651,433579,20390
1158.33,1.322836,436264,20745
1161.91,1.320997,439132,20970
1165.48,1.325388,442389,20913
1169.04,1.320117,446101,21346
1173.79,1.318350,451929,21713
1177.34,1.314204,456026,22120
1180.9,1.320640,461306,22047
1184.44,1.324809,467657,22137
1187.99,1.322218,473969,22570
1191.52,1.315623,479856,23200
1195.06,1.329640,487372,22815
1199.76,1.322021,497347,23694
1203.29,1.320916,504311,24087
1206.81,1.326168,511507,24137
1210.33,1.322817,519078,24684
1213.84,1.322306,527163,25098
1217.35,1.333819,534208,24768
1220.85,1.327461,540472,25428
1225.51,1.321657,549929,26221
1229.01,1.329860,556888,26056
1232.5,1.331989,562180,26175
1235.98,1.319457,567975,27219
1239.46,1.326254,574815,27119
1242.94,1.325858,582782,27520
1246.41,1.329175,591476,27718
1251.03,1.329155,604016,28307
1254.5,1.326600,612289,28864
1257.96,1.325222,619125,29279
1261.41,1.325864,624551,29492
1264.86,1.325201,629900,29790
1268.31,1.327891,634345,29815
1271.75,1.328032,638574,30004
1276.33,1.331795,642499,29928
1279.76,1.334164,645905,29923
1283.19,1.325747,648307,30622
1286.61,1.336365,650446,29981
1290.03,1.338345,652132,29922
1293.44,1.339424,653907,29929
1296.85,1.332537,655963,30503
1301.39,1.329443,657349,30786
1304.8,1.334889,657558,30412
1308.19,1.334252,658515,30501
1311.58,1.334528,658804,30495
1314.97,1.334579,659011,30501
1318.36,1.338916,658272,30164
1321.73,1.337099,658022,30279
1326.23,1.334610,657870,30446
1329.6,1.337763,656482,30162
1332.97,1.332548,654926,30454
1336.33,1.332737,653727,30385
1339.69,1.337313,652497,30010
1343.04,1.334823,649913,30063
1346.39,1.331031,647671,30222
1349.73,1.335352,645338,29815
1354.18,1.329899,641175,29997
1357.52,1.329115,638376,29920
1360.85,1.333590,635805,29494
1364.17,1.322846,633413,30119
1367.49,1.326721,631026,29739
1370.81,1.328776,628050,29459
1374.12,1.330595,625034,29195
1378.54,1.327378,620272,29188
1381.84,1.329386,616892,28895
1385.14,1.327463,613613,28869
1388.43,1.334567,611526,28304
1391.72,1.327693,610663,28715
1395.01,1.330129,610634,28553
1398.29,1.323527,611700,29041
1402.66,1.328013,614051,28853
1405.93,1.332751,616268,28643
1409.2,1.338782,617795,28318
1412.46,1.330433,618872,28918
1415.72,1.337418,619795,28499
1418.98,1.336843,620495,28569
1422.23,1.331489,621087,28951
1426.56,1.332366,621375,28906
1429.8,1.339715,621616,28432
1433.04,1.333705,622129,28852
1436.27,1.340722,621526,28362
1439.5,1.338128,621113,28513
1442.72,1.330878,620921,28984
1445.94,1.336823,620270,28560
1450.23,1.342207,618860,28144
1453.44,1.342378,617697,28080
1456.64,1.341091,616264,28098
1459.85,1.338720,614413,28167
1463.04,1.342394,612307,27834
1466.24,1.344035,610032,27626
1469.43,1.338298,607345,27870
1473.67,1.339473,603789,27632
1476.85,1.339368,601175,27519
1480.02,1.334470,597737,27672
1483.19,1.341392,594479,27086
1486.36,1.341360,591232,26940
1489.52,1.342010,587853,26746
1492.68,1.341422,583875,26601
1496.89,1.333564,578062,26817
1500.03,1.337906,574159,26371
1503.18,1.338753,570285,26142
1506.32,1.346173,565444,25481
1509.45,1.341665,560571,25525
1512.58,1.335188,555821,25689
1515.71,1.340995,550344,25098
1519.87,1.337229,543983,25024
1522.99,1.340322,538764,24608
1526.1,1.334471,533692,24707
1529.21,1.339133,527902,24178
1532.32,1.367173,521886,22408
1535.42,1.337569,515888,23713
1538.51,1.357660,509987,22382
1541.6,1.338876,503936,23094
1545.72,1.337183,494694,22759
1548.8,1.335263,488378,22568
1551.88,1.340532,481832,21997
1554.95,1.338985,474989,21762
1558.02,1.339521,467818,21407
1561.08,1.365445,460730,19861
1564.15,1.334049,454170,21046
1568.22,1.335234,444181,20527
1571.27,1.334497,436947,20227
1574.32,1.334668,429598,19879
1577.36,1.336165,422039,19462
1580.4,1.340702,414375,18910
1583.43,1.335255,406354,18778
1586.46,1.325459,398475,18834
1590.49,1.336713,388982,17915
1593.51,1.336142,380708,17557
1596.53,1.332467,372727,17335
1599.54,1.326054,365060,17231
1602.55,1.323416,357543,16979
1605.55,1.324276,349495,16564
1608.55,1.325585,341154,16120
1612.54,1.328747,330877,15521
1615.53,1.339340,322904,14782
1618.51,1.328708,315116,14783
1621.49,1.334515,307217,14221
1624.47,1.332512,299481,13927
1627.44,1.330067,292112,13661
1630.41,1.321081,284245,13571
1634.36,1.341487,274079,12485
1637.32,1.310132,266916,13069
1640.27,1.310658,259612,12696
1643.22,1.310205,251804,12327
1646.16,1.313339,244348,11876
1649.1,1.310683,236703,11575
1652.04,1.315291,228171,11040
1655.95,1.301167,215408,10767
1658.88,1.302467,204937,10213
1661.8,1.295618,193395,9791
1664.72,1.270223,179728,9647
1667.63,1.271539,163642,8757
1670.54,1.236423,146312,8489
1673.44,1.246964,128451,7274
1677.31,1.220391,105080,6326
1680.21,1.211977,88906,5457
1683.1,1.199199,75033,4743
1685.99,1.194064,63520,4063
1688.87,1.183421,53714,3521
1691.75,1.176739,45653,3039
1694.62,1.144655,39137,2805
1697.49,1.158280,33776,2346
1701.31,1.227668,28175,1668