File: ML/samples/unknown/Column 1_078432_20241121_170223.csv
Method:,Column 1,,
Host Date-Time:,21/11/24 @ 17:2:23,,
Header Version:,1,,
System Temp (C):,34.69,,
Detector Temp (C):,33.78,,
Humidity (%):,2.05,,
Lamp PD:,3801,,
Shift Vector Coefficients:,-10.5391,0.0761263,-0.000134223,,
Pixel to Wavelength Coefficients:,1775.68,-0.916766,-0.000235065,,
Serial Number:,5510004,,
Scan Config Name:,Column 1,,
Scan Config Type:,Slew,,
Section 1,,
Start wavelength (nm):,900,,
End wavelength (nm):,1700,,
Pattern Pixel Width (nm):,   7.03,,,,
Exposure (ms):,  0.635,,,,
Digital Resolution:,228,,
Num Repeats:,6,,
PGA Gain:,64,,
Total Measurement Time in sec:,  2.725,,
Wavelength (nm),Absorbance (AU),Reference Signal (unitless),Sample Signal (unitless)
901.51,1.310275,108485,5310
905.376,1.321654,121306,5784
909.237,1.316544,131909,6364
913.095,1.316514,143299,6914
916.948,1.334794,156982,7262
922.079,1.321633,179937,8580
925.923,1.336169,200504,9246
929.762,1.323115,222660,10581
933.597,1.317002,244426,11780
937.427,1.322603,263972,12559
941.254,1.330161,281845,13178
945.076,1.318364,297271,14282
950.165,1.308476,315605,15512
953.978,1.323150,328029,15587
957.786,1.323772,340470,16155
961.59,1.304268,352317,17485
965.389,1.299163,363056,18231
969.185,1.311635,373162,18208
972.976,1.315469,382632,18506
976.763,1.310164,391202,19153
981.806,1.311586,400190,19529
985.583,1.308634,406088,19952
989.355,1.307432,410162,20208
993.124,1.313156,412868,20075
996.888,1.313950,414263,20106
1000.65,1.312121,415476,20250
1004.4,1.308132,415479,20437
1009.41,1.313618,414358,20126
1013.15,1.321557,412923,19693
1016.89,1.313107,411526,20012
1020.63,1.311807,409066,19952
1024.36,1.324182,406777,19283
1028.09,1.312970,404427,19673
1031.82,1.314652,401911,19475
1036.78,1.312685,398410,19393
1040.49,1.315750,396204,19150
1044.2,1.301268,394236,19701
1047.91,1.315632,392042,18954
1051.61,1.309880,389823,19098
1055.31,1.315699,388234,18767
1059,1.323164,387599,18417
1063.92,1.312949,386688,18811
1067.61,1.315395,386598,18701
1071.29,1.319018,387377,18583
1074.96,1.318473,388536,18662
1078.63,1.313477,389855,18942
1082.3,1.305981,391215,19339
1085.96,1.318490,393215,18886
1090.84,1.313357,396270,19259
1094.49,1.321638,398760,19014
1098.14,1.320576,400987,19167
1101.79,1.324172,403477,19127
1105.43,1.318861,406116,19489
1109.06,1.321333,407701,19454
1112.7,1.314349,409859,19874
1117.53,1.315736,412494,19938
1121.15,1.319078,414909,19901
1124.77,1.328419,416559,19555
1128.38,1.319614,418532,20050
1131.99,1.321371,419956,20037
1135.6,1.325140,421946,19958
1139.2,1.315532,423881,20498
1143.99,1.319283,426786,20461
1147.58,1.327557,428617,20161
1151.17,1.318908,431169,20689
1154.75,1.319736,433579,20765
1158.33,1.322208,436264,20775
1161.91,1.309571,439132,21529
1165.48,1.320864,442389,21132
1169.04,1.316147,446101,21542
1173.79,1.320858,451929,21588
1177.34,1.323572,456026,21648
1180.9,1.317930,461306,22185
1184.44,1.312031,467657,22798
1187.99,1.321795,473969,22592
1191.52,1.315492,479856,23207
1195.06,1.319890,487372,23333
1199.76,1.328540,497347,23341
1203.29,1.329934,504311,23592
1206.81,1.325988,511507,24147
1210.33,1.326315,519078,24486
1213.84,1.325920,527163,24890
1217.35,1.323664,534208,25354
1220.85,1.326557,540472,25481
1225.51,1.321956,549929,26203
1229.01,1.327052,556888,26225
1232.5,1.320883,562180,26853
1235.98,1.320367,567975,27162
1239.46,1.316876,574815,27711
1242.94,1.322055,582782,27762
1246.41,1.323664,591476,28072
1251.03,1.326402,604016,28487
1254.5,1.327157,612289,28827
1257.96,1.326381,619125,29201
1261.41,1.331585,624551,29106
1264.86,1.328714,629900,29550
1268.31,1.325581,634345,29974
1271.75,1.331389,638574,29773
1276.33,1.328355,642499,30166
1279.76,1.331804,645905,30086
1283.19,1.327381,648307,30507
1286.61,1.326908,650446,30641
1290.03,1.335971,652132,30086
1293.44,1.330008,653907,30585
1296.85,1.332978,655963,30472
1301.39,1.334922,657349,30400
1304.8,1.334104,657558,30467
1308.19,1.339307,658515,30148
1311.58,1.334357,658804,30507
1314.97,1.333029,659011,30610
1318.36,1.330165,658272,30778
1321.73,1.335982,658022,30357
1326.23,1.335624,657870,30375
1329.6,1.339740,656482,30025
1332.97,1.338651,654926,30029
1336.33,1.334527,653727,30260
1339.69,1.332720,652497,30329
1343.04,1.327944,649913,30543
1346.39,1.339681,647671,29626
1349.73,1.331957,645338,30049
1354.18,1.328858,641175,30069
1357.52,1.334093,638376,29579
1360.85,1.335124,635805,29390
1364.17,1.329267,633413,29677
1367.49,1.329651,631026,29539
1370.81,1.335192,628050,29027
1374.12,1.327350,625034,29414
1378.54,1.332572,620272,28841
1381.84,1.329176,616892,28909
1385.14,1.329710,613613,28720
1388.43,1.330474,611526,28572
1391.72,1.330469,610663,28532
1395.01,1.332585,610634,28392
1398.29,1.327886,611700,28751
1402.66,1.333421,614051,28496
1405.93,1.331464,616268,28728
1409.2,1.329121,617795,28955
1412.46,1.331425,618872,28852
1415.72,1.337342,619795,28504
1418.98,1.338153,620495,28483
1422.23,1.329842,621087,29061
1426.56,1.338159,621375,28523
1429.8,1.335776,621616,28691
1433.04,1.334337,622129,28810
1436.27,1.334338,621526,28782
1439.5,1.328175,621113,29174
1442.72,1.340376,620921,28357
1445.94,1.336275,620270,28596
1450.23,1.331206,618860,28866
1453.44,1.332697,617697,28713
1456.64,1.341710,616264,28058
1459.85,1.335264,614413,28392
1463.04,1.338340,612307,28095
1466.24,1.339904,610032,27890
1469.43,1.329628,607345,28432
1473.67,1.338641,603789,27685
1476.85,1.333693,601175,27881
1480.02,1.336925,597737,27516
1483.19,1.338181,594479,27287
1486.36,1.335182,591232,27326
1489.52,1.335723,587853,27136
1492.68,1.341863,583875,26574
1496.89,1.337191,578062,26594
1500.03,1.334036,574159,26607
1503.18,1.336731,570285,26264
1506.32,1.332649,565444,26287
1509.45,1.341274,560571,25548
1512.58,1.337187,555821,25571
1515.71,1.342087,550344,25035
1519.87,1.341169,543983,24798
1522.99,1.337175,538764,24787
1526.1,1.335192,533692,24666
1529.21,1.340933,527902,24078
1532.32,1.336497,521886,24048
1535.42,1.344157,515888,23356
1538.51,1.337601,509987,23440
1541.6,1.338106,503936,23135
1545.72,1.335526,494694,22846
1548.8,1.337811,488378,22436
1551.88,1.335839,481832,22236
1554.95,1.334933,474989,21966
1558.02,1.334980,467818,21632
1561.08,1.340091,460730,21055
1564.15,1.344766,454170,20533
1568.22,1.342058,444181,20207
1571.27,1.339616,436947,19990
1574.32,1.336704,429598,19786
1577.36,1.332587,422039,19623
1580.4,1.332106,414375,19288
1583.43,1.330060,406354,19004
1586.46,1.340330,398475,18200
1590.49,1.334030,388982,18026
1593.51,1.327933,380708,17892
1596.53,1.348518,372727,16706
1599.54,1.326482,365060,17214
1602.55,1.337347,357543,16443
1605.55,1.330109,349495,16343
1608.55,1.331444,341154,15904
1612.54,1.324764,330877,15664
1615.53,1.326231,322904,15235
1618.51,1.328914,315116,14776
1621.49,1.324463,307217,14554
1624.47,1.326473,299481,14122
1627.44,1.313720,292112,14185
1630.41,1.327399,284245,13375
1634.36,1.315594,274079,13252
1637.32,1.323084,266916,12685
1640.27,1.314472,259612,12585
1643.22,1.319463,251804,12067
1646.16,1.319378,244348,11712
1649.1,1.317489,236703,11395
1652.04,1.319481,228171,10934
1655.95,1.317860,215408,10361
1658.88,1.316424,204937,9890
1661.8,1.299674,193395,9700
1664.72,1.282320,179728,9382
1667.63,1.274226,163642,8703
1670.54,1.274021,146312,7785
1673.44,1.260056,128451,7058
1677.31,1.181100,105080,6925
1680.21,1.201908,88906,5585
1683.1,1.174376,75033,5022
1685.99,1.214975,63520,3872
1688.87,1.143500,53714,3860
1691.75,1.171342,45653,3077
1694.62,1.205910,39137,2436
1697.49,1.105035,33776,2652
1701.31,1.273194,28175,1502