File: ML/samples/unknown/Column 1_078810_20241121_172316.csv
Method:,Column 1,,
Host Date-Time:,21/11/24 @ 17:23:16,,
Header Version:,1,,
System Temp (C):,37.02,,
Detector Temp (C):,35.34,,
Humidity (%):,0.83,,
Lamp PD:,3797,,
Shift Vector Coefficients:,-10.5391,0.0761263,-0.000134223,,
Pixel to Wavelength Coefficients:,1775.68,-0.916766,-0.000235065,,
Serial Number:,5510004,,
Scan Config Name:,Column 1,,
Scan Config Type:,Slew,,
Section 1,,
Start wavelength (nm):,900,,
End wavelength (nm):,1700,,
Pattern Pixel Width (nm):,   7.03,,,,
Exposure (ms):,  0.635,,,,
Digital Resolution:,228,,
Num Repeats:,6,,
PGA Gain:,64,,
Total Measurement Time in sec:,  2.724,,
Wavelength (nm),Absorbance (AU),Reference Signal (unitless),Sample Signal (unitless)
901.51,1.296827,108485,5477
905.376,1.299336,121306,6089
909.237,1.339669,131909,6034
913.095,1.321060,143299,6842
916.948,1.327323,156982,7388
922.079,1.319512,179937,8622
925.923,1.316652,200504,9671
929.762,1.317488,222660,10719
933.597,1.320816,244426,11677
937.427,1.338019,263972,12121
941.254,1.311771,281845,13748
945.076,1.321783,297271,14170
950.165,1.307693,315605,15540
953.978,1.307283,328029,16167
957.786,1.314964,340470,16486
961.59,1.315082,352317,17055
965.389,1.313672,363056,17632
969.185,1.308972,373162,18320
972.976,1.314180,382632,18561
976.763,1.310323,391202,19146
981.806,1.311920,400190,19514
985.583,1.310838,406088,19851
989.355,1.309241,410162,20124
993.124,1.301144,412868,20638
996.888,1.308904,414263,20341
1000.65,1.299419,415476,20851
1004.4,1.310369,415479,20332
1009.41,1.306343,414358,20466
1013.15,1.297931,412923,20794
1016.89,1.309842,411526,20163
1020.63,1.312482,409066,19921
1024.36,1.310132,406777,19917
1028.09,1.296274,404427,20444
1031.82,1.324258,401911,19049
1036.78,1.314570,398410,19309
1040.49,1.305574,396204,19604
1044.2,1.314087,394236,19128
1047.91,1.305889,392042,19384
1051.61,1.299388,389823,19565
1055.31,1.306245,388234,19180
1059,1.321234,387599,18499
1063.92,1.319907,386688,18512
1067.61,1.309353,386598,18963
1071.29,1.313168,387377,18835
1074.96,1.306900,388536,19166
1078.63,1.312584,389855,18981
1082.3,1.305151,391215,19376
1085.96,1.314530,393215,19059
1090.84,1.309273,396270,19441
1094.49,1.310499,398760,19508
1098.14,1.311806,400987,19558
1101.79,1.319250,403477,19345
1105.43,1.314338,406116,19693
1109.06,1.312559,407701,19851
1112.7,1.316826,409859,19761
1117.53,1.326699,412494,19441
1121.15,1.318903,414909,19909
1124.77,1.319103,416559,19979
1128.38,1.317174,418532,20163
1131.99,1.319943,419956,20103
1135.6,1.314033,421946,20475
1139.2,1.324805,423881,20065
1143.99,1.323378,426786,20269
1147.58,1.323783,428617,20337
1151.17,1.313671,431169,20940
1154.75,1.316050,433579,20942
1158.33,1.320060,436264,20878
1161.91,1.311229,439132,21447
1165.48,1.314377,442389,21450
1169.04,1.315664,446101,21566
1173.79,1.318190,451929,21721
1177.34,1.319280,456026,21863
1180.9,1.314265,461306,22373
1184.44,1.310452,467657,22881
1187.99,1.310412,473969,23192
1191.52,1.313047,479856,23338
1195.06,1.318218,487372,23423
1199.76,1.321325,497347,23732
1203.29,1.320213,504311,24126
1206.81,1.318641,511507,24559
1210.33,1.324121,519078,24610
1213.84,1.325833,527163,24895
1217.35,1.317811,534208,25698
1220.85,1.317850,540472,25997
1225.51,1.320847,549929,26270
1229.01,1.322440,556888,26505
1232.5,1.324260,562180,26645
1235.98,1.323658,567975,26957
1239.46,1.324114,574815,27253
1242.94,1.321602,582782,27791
1246.41,1.320673,591476,28266
1251.03,1.319700,604016,28930
1254.5,1.320267,612289,29288
1257.96,1.324629,619125,29319
1261.41,1.321337,624551,29801
1264.86,1.330098,629900,29456
1268.31,1.323024,634345,30151
1271.75,1.326342,638574,30121
1276.33,1.325800,642499,30344
1279.76,1.329860,645905,30221
1283.19,1.325818,648307,30617
1286.61,1.327121,650446,30626
1290.03,1.329779,652132,30518
1293.44,1.330476,653907,30552
1296.85,1.323017,655963,31179
1301.39,1.321046,657349,31387
1304.8,1.326698,657558,30991
1308.19,1.332376,658515,30633
1311.58,1.329459,658804,30853
1314.97,1.325672,659011,31133
1318.36,1.332528,658272,30611
1321.73,1.327047,658022,30988
1326.23,1.330041,657870,30768
1329.6,1.336096,656482,30278
1332.97,1.329224,654926,30688
1336.33,1.325452,653727,30899
1339.69,1.328843,652497,30601
1343.04,1.324812,649913,30764
1346.39,1.328438,647671,30403
1349.73,1.330846,645338,30126
1354.18,1.324117,641175,30399
1357.52,1.321532,638376,30447
1360.85,1.330889,635805,29678
1364.17,1.323294,633413,30088
1367.49,1.329872,631026,29524
1370.81,1.327481,628050,29547
1374.12,1.327793,625034,29384
1378.54,1.331669,620272,28901
1381.84,1.324633,616892,29213
1385.14,1.325856,613613,28976
1388.43,1.325262,611526,28917
1391.72,1.326273,610663,28809
1395.01,1.325876,610634,28834
1398.29,1.327297,611700,28790
1402.66,1.325806,614051,29000
1405.93,1.333328,616268,28605
1409.2,1.325536,617795,29195
1412.46,1.327231,618872,29132
1415.72,1.330810,619795,28936
1418.98,1.333466,620495,28792
1422.23,1.333489,621087,28818
1426.56,1.330028,621375,29062
1429.8,1.331829,621616,28953
1433.04,1.334594,622129,28793
1436.27,1.328582,621526,29166
1439.5,1.329054,621113,29115
1442.72,1.329636,620921,29067
1445.94,1.328822,620270,29091
1450.23,1.331477,618860,28848
1453.44,1.333772,617697,28642
1456.64,1.329410,616264,28864
1459.85,1.335249,614413,28393
1463.04,1.330467,612307,28609
1466.24,1.327698,610032,28685
1469.43,1.327571,607345,28567
1473.67,1.333960,603789,27985
1476.85,1.329816,601175,28131
1480.02,1.333529,597737,27732
1483.19,1.326111,594479,28056
1486.36,1.335277,591232,27320
1489.52,1.326867,587853,27695
1492.68,1.340411,583875,26663
1496.89,1.338139,578062,26536
1500.03,1.334298,574159,26591
1503.18,1.340301,570285,26049
1506.32,1.329603,565444,26472
1509.45,1.340985,560571,25565
1512.58,1.332525,555821,25847
1515.71,1.330515,550344,25711
1519.87,1.333083,543983,25264
1522.99,1.336649,538764,24817
1526.1,1.334717,533692,24693
1529.21,1.341908,527902,24024
1532.32,1.327630,521886,24544
1535.42,1.329333,515888,24167
1538.51,1.331493,509987,23772
1541.6,1.334479,503936,23329
1545.72,1.332514,494694,23005
1548.8,1.332482,488378,22713
1551.88,1.339822,481832,22033
1554.95,1.333098,474989,22059
1558.02,1.330308,467818,21866
1561.08,1.335414,460730,21283
1564.15,1.333410,454170,21077
1568.22,1.335129,444181,20532
1571.27,1.332569,436947,20317
1574.32,1.329240,429598,20129
1577.36,1.326783,422039,19887
1580.4,1.329614,414375,19399
1583.43,1.331295,406354,18950
1586.46,1.333676,398475,18481
1590.49,1.321422,388982,18557
1593.51,1.331516,380708,17745
1596.53,1.323123,372727,17712
1599.54,1.334426,365060,16902
1602.55,1.326445,357543,16861
1605.55,1.320153,349495,16722
1608.55,1.312947,341154,16596
1612.54,1.319857,330877,15842
1615.53,1.323220,322904,15341
1618.51,1.324440,315116,14929
1621.49,1.319095,307217,14735
1624.47,1.311511,299481,14617
1627.44,1.318925,292112,14016
1630.41,1.308683,284245,13964
1634.36,1.316874,274079,13213
1637.32,1.332883,266916,12402
1640.27,1.309974,259612,12716
1643.22,1.308658,251804,12371
1646.16,1.311405,244348,11929
1649.1,1.319093,236703,11353
1652.04,1.309353,228171,11192
1655.95,1.303270,215408,10715
1658.88,1.274832,204937,10884
1661.8,1.295529,193395,9793
1664.72,1.269684,179728,9659
1667.63,1.232575,163642,9579
1670.54,1.232857,146312,8559
1673.44,1.233792,128451,7498
1677.31,1.192409,105080,6747
1680.21,1.151179,88906,6277
1683.1,1.197098,75033,4766
1685.99,1.139021,63520,4612
1688.87,1.165303,53714,3671
1691.75,1.116395,45653,3492
1694.62,1.159618,39137,2710
1697.49,1.203914,33776,2112
1701.31,1.135154,28175,2064