File: ML/samples/unknown/Column 1_078338_20241121_165709.csv
Method:,Column 1,,
Host Date-Time:,21/11/24 @ 16:57:9,,
Header Version:,1,,
System Temp (C):,34.7,,
Detector Temp (C):,33.23,,
Humidity (%):,2.5,,
Lamp PD:,3802,,
Shift Vector Coefficients:,-10.5391,0.0761263,-0.000134223,,
Pixel to Wavelength Coefficients:,1775.68,-0.916766,-0.000235065,,
Serial Number:,5510004,,
Scan Config Name:,Column 1,,
Scan Config Type:,Slew,,
Section 1,,
Start wavelength (nm):,900,,
End wavelength (nm):,1700,,
Pattern Pixel Width (nm):,   7.03,,,,
Exposure (ms):,  0.635,,,,
Digital Resolution:,228,,
Num Repeats:,6,,
PGA Gain:,64,,
Total Measurement Time in sec:,  2.726,,
Wavelength (nm),Absorbance (AU),Reference Signal (unitless),Sample Signal (unitless)
901.51,1.304426,108485,5382
905.376,1.315170,121306,5871
909.237,1.314366,131909,6396
913.095,1.310463,143299,7011
916.948,1.304312,156982,7790
922.079,1.313311,179937,8746
925.923,1.324811,200504,9491
929.762,1.316476,222660,10744
933.597,1.318331,244426,11744
937.427,1.312047,263972,12868
941.254,1.319966,281845,13491
945.076,1.300666,297271,14876
950.165,1.299882,315605,15822
953.978,1.319377,328029,15723
957.786,1.306356,340470,16816
961.59,1.309189,352317,17288
965.389,1.318901,363056,17421
969.185,1.302618,373162,18590
972.976,1.307470,382632,18850
976.763,1.308580,391202,19223
981.806,1.311497,400190,19533
985.583,1.313185,406088,19744
989.355,1.300757,410162,20521
993.124,1.309236,412868,20257
996.888,1.310551,414263,20264
1000.65,1.306623,415476,20508
1004.4,1.308961,415479,20398
1009.41,1.310629,414358,20265
1013.15,1.314362,412923,20022
1016.89,1.303959,411526,20438
1020.63,1.305068,409066,20264
1024.36,1.313504,406777,19763
1028.09,1.304856,404427,20044
1031.82,1.315948,401911,19417
1036.78,1.317957,398410,19159
1040.49,1.302660,396204,19736
1044.2,1.302062,394236,19665
1047.91,1.300324,392042,19634
1051.61,1.311064,389823,19046
1055.31,1.305069,388234,19232
1059,1.313648,387599,18825
1063.92,1.306828,386688,19078
1067.61,1.310867,386598,18897
1071.29,1.307647,387377,19076
1074.96,1.306719,388536,19174
1078.63,1.309847,389855,19101
1082.3,1.326725,391215,18437
1085.96,1.310222,393215,19249
1090.84,1.323118,396270,18831
1094.49,1.308123,398760,19615
1098.14,1.314300,400987,19446
1101.79,1.324945,403477,19093
1105.43,1.326549,406116,19147
1109.06,1.314665,407701,19755
1112.7,1.320312,409859,19603
1117.53,1.317920,412494,19838
1121.15,1.323685,414909,19691
1124.77,1.324285,416559,19742
1128.38,1.315733,418532,20230
1131.99,1.327747,419956,19745
1135.6,1.324075,421946,20007
1139.2,1.319684,423881,20303
1143.99,1.318689,426786,20489
1147.58,1.314612,428617,20771
1151.17,1.312428,431169,21000
1154.75,1.311512,433579,21162
1158.33,1.328017,436264,20499
1161.91,1.319034,439132,21065
1165.48,1.320946,442389,21128
1169.04,1.308098,446101,21945
1173.79,1.314765,451929,21893
1177.34,1.316982,456026,21979
1180.9,1.318282,461306,22167
1184.44,1.317320,467657,22522
1187.99,1.317434,473969,22820
1191.52,1.319345,479856,23002
1195.06,1.326794,487372,22965
1199.76,1.321051,497347,23747
1203.29,1.319781,504311,24150
1206.81,1.319951,511507,24485
1210.33,1.320308,519078,24827
1213.84,1.322237,527163,25102
1217.35,1.317558,534208,25713
1220.85,1.314107,540472,26222
1225.51,1.323799,549929,26092
1229.01,1.330945,556888,25991
1232.5,1.328815,562180,26367
1235.98,1.325450,567975,26846
1239.46,1.315015,574815,27830
1242.94,1.325085,582782,27569
1246.41,1.325214,591476,27972
1251.03,1.321988,604016,28778
1254.5,1.321618,612289,29197
1257.96,1.326187,619125,29214
1261.41,1.327472,624551,29383
1264.86,1.324822,629900,29816
1268.31,1.325364,634345,29989
1271.75,1.329337,638574,29914
1276.33,1.332332,642499,29891
1279.76,1.329860,645905,30221
1283.19,1.330453,648307,30292
1286.61,1.329510,650446,30458
1290.03,1.328841,652132,30584
1293.44,1.336301,653907,30145
1296.85,1.334764,655963,30347
1301.39,1.326785,657349,30975
1304.8,1.326446,657558,31009
1308.19,1.332291,658515,30639
1311.58,1.330502,658804,30779
1314.97,1.329384,659011,30868
1318.36,1.332613,658272,30605
1321.73,1.328535,658022,30882
1326.23,1.328688,657870,30864
1329.6,1.338440,656482,30115
1332.97,1.333262,654926,30404
1336.33,1.334068,653727,30292
1339.69,1.336402,652497,30073
1343.04,1.330697,649913,30350
1346.39,1.328824,647671,30376
1349.73,1.328760,645338,30271
1354.18,1.333344,641175,29760
1357.52,1.328144,638376,29987
1360.85,1.326811,635805,29958
1364.17,1.331041,633413,29556
1367.49,1.327715,631026,29671
1370.81,1.324376,628050,29759
1374.12,1.328296,625034,29350
1378.54,1.330994,620272,28946
1381.84,1.325481,616892,29156
1385.14,1.328035,613613,28831
1388.43,1.331722,611526,28490
1391.72,1.329041,610663,28626
1395.01,1.323773,610634,28974
1398.29,1.330294,611700,28592
1402.66,1.327577,614051,28882
1405.93,1.332342,616268,28670
1409.2,1.330232,617795,28881
1412.46,1.328978,618872,29015
1415.72,1.333097,619795,28784
1418.98,1.330520,620495,28988
1422.23,1.329080,621087,29112
1426.56,1.331570,621375,28959
1429.8,1.326240,621616,29328
1433.04,1.328646,622129,29190
1436.27,1.338036,621526,28538
1439.5,1.331372,621113,28960
1442.72,1.336367,620921,28620
1445.94,1.330078,620270,29007
1450.23,1.331793,618860,28827
1453.44,1.343633,617697,27999
1456.64,1.336250,616264,28413
1459.85,1.337227,614413,28264
1463.04,1.333055,612307,28439
1466.24,1.338024,610032,28011
1469.43,1.336495,607345,27986
1473.67,1.335982,603789,27855
1476.85,1.332837,601175,27936
1480.02,1.328763,597737,28038
1483.19,1.334804,594479,27500
1486.36,1.339254,591232,27071
1489.52,1.340940,587853,26812
1492.68,1.334747,583875,27013
1496.89,1.336995,578062,26606
1500.03,1.334543,574159,26576
1503.18,1.338687,570285,26146
1506.32,1.339442,565444,25879
1509.45,1.333307,560571,26021
1512.58,1.330079,555821,25993
1515.71,1.334145,550344,25497
1519.87,1.332911,543983,25274
1522.99,1.335252,538764,24897
1526.1,1.342525,533692,24253
1529.21,1.336590,527902,24320
1532.32,1.348063,521886,23416
1535.42,1.335851,515888,23807
1538.51,1.340334,509987,23293
1541.6,1.332195,503936,23452
1545.72,1.333838,494694,22935
1548.8,1.340432,488378,22301
1551.88,1.332357,481832,22415
1554.95,1.336795,474989,21872
1558.02,1.340801,467818,21344
1561.08,1.327768,460730,21661
1564.15,1.334420,454170,21028
1568.22,1.336442,444181,20470
1571.27,1.334648,436947,20220
1574.32,1.328335,429598,20171
1577.36,1.334450,422039,19539
1580.4,1.331679,414375,19307
1583.43,1.335764,406354,18756
1586.46,1.329024,398475,18680
1590.49,1.337004,388982,17903
1593.51,1.331051,380708,17764
1596.53,1.328924,372727,17477
1599.54,1.330997,365060,17036
1602.55,1.325185,357543,16910
1605.55,1.330455,349495,16330
1608.55,1.317366,341154,16428
1612.54,1.323712,330877,15702
1615.53,1.319190,322904,15484
1618.51,1.319954,315116,15084
1621.49,1.322468,307217,14621
1624.47,1.320517,299481,14317
1627.44,1.306313,292112,14429
1630.41,1.315706,284245,13740
1634.36,1.303539,274079,13625
1637.32,1.316492,266916,12879
1640.27,1.320343,259612,12416
1643.22,1.324969,251804,11915
1646.16,1.312790,244348,11891
1649.1,1.313279,236703,11506
1652.04,1.296168,228171,11537
1655.95,1.314021,215408,10453
1658.88,1.301278,204937,10241
1661.8,1.293538,193395,9838
1664.72,1.266012,179728,9741
1667.63,1.264651,163642,8897
1670.54,1.262624,146312,7992
1673.44,1.216699,128451,7799
1677.31,1.202437,105080,6593
1680.21,1.220172,88906,5355
1683.1,1.191125,75033,4832
1685.99,1.205215,63520,3960
1688.87,1.189383,53714,3473
1691.75,1.296610,45653,2306
1694.62,1.148387,39137,2781
1697.49,1.136615,33776,2466
1701.31,1.168603,28175,1911