File: ML/samples/unknown/Column 1_078581_20241121_170944.csv
Method:,Column 1,,
Host Date-Time:,21/11/24 @ 17:9:44,,
Header Version:,1,,
System Temp (C):,36.51,,
Detector Temp (C):,34.6,,
Humidity (%):,1.27,,
Lamp PD:,3798,,
Shift Vector Coefficients:,-10.5391,0.0761263,-0.000134223,,
Pixel to Wavelength Coefficients:,1775.68,-0.916766,-0.000235065,,
Serial Number:,5510004,,
Scan Config Name:,Column 1,,
Scan Config Type:,Slew,,
Section 1,,
Start wavelength (nm):,900,,
End wavelength (nm):,1700,,
Pattern Pixel Width (nm):,   7.03,,,,
Exposure (ms):,  0.635,,,,
Digital Resolution:,228,,
Num Repeats:,6,,
PGA Gain:,64,,
Total Measurement Time in sec:,  2.725,,
Wavelength (nm),Absorbance (AU),Reference Signal (unitless),Sample Signal (unitless)
901.51,1.303378,108485,5395
905.376,1.320305,121306,5802
909.237,1.342196,131909,5999
913.095,1.318528,143299,6882
916.948,1.337975,156982,7209
922.079,1.319261,179937,8627
925.923,1.332940,200504,9315
929.762,1.320089,222660,10655
933.597,1.309908,244426,11974
937.427,1.327541,263972,12417
941.254,1.304503,281845,13980
945.076,1.319948,297271,14230
950.165,1.306883,315605,15569
953.978,1.313642,328029,15932
957.786,1.316362,340470,16433
961.59,1.308210,352317,17327
965.389,1.313918,363056,17622
969.185,1.305125,373162,18483
972.976,1.307401,382632,18853
976.763,1.309575,391202,19179
981.806,1.306897,400190,19741
985.583,1.306766,406088,20038
989.355,1.301795,410162,20472
993.124,1.307610,412868,20333
996.888,1.305416,414263,20505
1000.65,1.300441,415476,20802
1004.4,1.306986,415479,20491
1009.41,1.305749,414358,20494
1013.15,1.300739,412923,20660
1016.89,1.310942,411526,20112
1020.63,1.302547,409066,20382
1024.36,1.310460,406777,19902
1028.09,1.310899,404427,19767
1031.82,1.304339,401911,19943
1036.78,1.297005,398410,20106
1040.49,1.302550,396204,19741
1044.2,1.304188,394236,19569
1047.91,1.304614,392042,19441
1051.61,1.307227,389823,19215
1055.31,1.308971,388234,19060
1059,1.305783,387599,19169
1063.92,1.299000,386688,19425
1067.61,1.307501,386598,19044
1071.29,1.315179,387377,18748
1074.96,1.311456,388536,18966
1078.63,1.310006,389855,19094
1082.3,1.303228,391215,19462
1085.96,1.309906,393215,19263
1090.84,1.310234,396270,19398
1094.49,1.308677,398760,19590
1098.14,1.308488,400987,19708
1101.79,1.309944,403477,19764
1105.43,1.319619,406116,19455
1109.06,1.317510,407701,19626
1112.7,1.310390,409859,20056
1117.53,1.317876,412494,19840
1121.15,1.321639,414909,19784
1124.77,1.314454,416559,20194
1128.38,1.315604,418532,20236
1131.99,1.319511,419956,20123
1135.6,1.314266,421946,20464
1139.2,1.316317,423881,20461
1143.99,1.314366,426786,20694
1147.58,1.324295,428617,20313
1151.17,1.312490,431169,20997
1154.75,1.310999,433579,21187
1158.33,1.315117,436264,21117
1161.91,1.316608,439132,21183
1165.48,1.310086,442389,21663
1169.04,1.314497,446101,21624
1173.79,1.317052,451929,21778
1177.34,1.314185,456026,22121
1180.9,1.313857,461306,22394
1184.44,1.313634,467657,22714
1187.99,1.311556,473969,23131
1191.52,1.320839,479856,22923
1195.06,1.320244,487372,23314
1199.76,1.315238,497347,24067
1203.29,1.324282,504311,23901
1206.81,1.318641,511507,24559
1210.33,1.314850,519078,25141
1213.84,1.323814,527163,25011
1217.35,1.313238,534208,25970
1220.85,1.321305,540472,25791
1225.51,1.318999,549929,26382
1229.01,1.325449,556888,26322
1232.5,1.317772,562180,27046
1235.98,1.319984,567975,27186
1239.46,1.317064,574815,27699
1242.94,1.323011,582782,27701
1246.41,1.317626,591476,28465
1251.03,1.320873,604016,28852
1254.5,1.318993,612289,29374
1257.96,1.322693,619125,29450
1261.41,1.327767,624551,29363
1264.86,1.326033,629900,29733
1268.31,1.323687,634345,30105
1271.75,1.323468,638574,30321
1276.33,1.327233,642499,30244
1279.76,1.321717,645905,30793
1283.19,1.324119,648307,30737
1286.61,1.319419,650446,31174
1290.03,1.322610,652132,31026
1293.44,1.325543,653907,30901
1296.85,1.326149,655963,30955
1301.39,1.328288,657349,30868
1304.8,1.326460,657558,31008
1308.19,1.324272,658515,31210
1311.58,1.330643,658804,30769
1314.97,1.328892,659011,30903
1318.36,1.321780,658272,31378
1321.73,1.334183,658022,30483
1326.23,1.324027,657870,31197
1329.6,1.322150,656482,31266
1332.97,1.335481,654926,30249
1336.33,1.325283,653727,30911
1339.69,1.327002,652497,30731
1343.04,1.325095,649913,30744
1346.39,1.330801,647671,30238
1349.73,1.322649,645338,30700
1354.18,1.323803,641175,30421
1357.52,1.321775,638376,30430
1360.85,1.323001,635805,30222
1364.17,1.327005,633413,29832
1367.49,1.323447,631026,29964
1370.81,1.324624,628050,29742
1374.12,1.331474,625034,29136
1378.54,1.322304,620272,29531
1381.84,1.322527,616892,29355
1385.14,1.324270,613613,29082
1388.43,1.325863,611526,28877
1391.72,1.321819,610663,29106
1395.01,1.326358,610634,28802
1398.29,1.331404,611700,28519
1402.66,1.323134,614051,29179
1405.93,1.319962,616268,29499
1409.2,1.329481,617795,28931
1412.46,1.328365,618872,29056
1415.72,1.327520,619795,29156
1418.98,1.333768,620495,28772
1422.23,1.333338,621087,28828
1426.56,1.325953,621375,29336
1429.8,1.329644,621616,29099
1433.04,1.329823,622129,29111
1436.27,1.327720,621526,29224
1439.5,1.332513,621113,28884
1442.72,1.330309,620921,29022
1445.94,1.332706,620270,28832
1450.23,1.333514,618860,28713
1453.44,1.333105,617697,28686
1456.64,1.330299,616264,28805
1459.85,1.335203,614413,28396
1463.04,1.337614,612307,28142
1466.24,1.331851,610032,28412
1469.43,1.327814,607345,28551
1473.67,1.331114,603789,28169
1476.85,1.330573,601175,28082
1480.02,1.330113,597737,27951
1483.19,1.331422,594479,27715
1486.36,1.329200,591232,27705
1489.52,1.330378,587853,27472
1492.68,1.334892,583875,27004
1496.89,1.333516,578062,26820
1500.03,1.335786,574159,26500
1503.18,1.331145,570285,26604
1506.32,1.332302,565444,26308
1509.45,1.335599,560571,25884
1512.58,1.338020,555821,25522
1515.71,1.337188,550344,25319
1519.87,1.330666,543983,25405
1522.99,1.337543,538764,24766
1526.1,1.334348,533692,24714
1529.21,1.328014,527902,24805
1532.32,1.325882,521886,24643
1535.42,1.329387,515888,24164
1538.51,1.327873,509987,23971
1541.6,1.331714,503936,23478
1545.72,1.327839,494694,23254
1548.8,1.334283,488378,22619
1551.88,1.335468,481832,22255
1554.95,1.326397,474989,22402
1558.02,1.337699,467818,21497
1561.08,1.326067,460730,21746
1564.15,1.335144,454170,20993
1568.22,1.330061,444181,20773
1571.27,1.327385,436947,20561
1574.32,1.327990,429598,20187
1577.36,1.328578,422039,19805
1580.4,1.332106,414375,19288
1583.43,1.325807,406354,19191
1586.46,1.332268,398475,18541
1590.49,1.324852,388982,18411
1593.51,1.329148,380708,17842
1596.53,1.313568,372727,18106
1599.54,1.315890,365060,17639
1602.55,1.306510,357543,17653
1605.55,1.313606,349495,16976
1608.55,1.322124,341154,16249
1612.54,1.317860,330877,15915
1615.53,1.312787,322904,15714
1618.51,1.305095,315116,15609
1621.49,1.319862,307217,14709
1624.47,1.328322,299481,14062
1627.44,1.325765,292112,13797
1630.41,1.319006,284245,13636
1634.36,1.307253,274079,13509
1637.32,1.309767,266916,13080
1640.27,1.321709,259612,12377
1643.22,1.318062,251804,12106
1646.16,1.301934,244348,12192
1649.1,1.315778,236703,11440
1652.04,1.309741,228171,11182
1655.95,1.308776,215408,10580
1658.88,1.307815,204937,10088
1661.8,1.286358,193395,10002
1664.72,1.259200,179728,9895
1667.63,1.237041,163642,9481
1670.54,1.222974,146312,8756
1673.44,1.219044,128451,7757
1677.31,1.199090,105080,6644
1680.21,1.186328,88906,5789
1683.1,1.178634,75033,4973
1685.99,1.186015,63520,4139
1688.87,1.173182,53714,3605
1691.75,1.130810,45653,3378
1694.62,1.222074,39137,2347
1697.49,1.164245,33776,2314
1701.31,1.290297,28175,1444