File: ML/samples/unknown/Column 1_078522_20241121_170648.csv
Method:,Column 1,,
Host Date-Time:,21/11/24 @ 17:6:48,,
Header Version:,1,,
System Temp (C):,35.12,,
Detector Temp (C):,34,,
Humidity (%):,1.96,,
Lamp PD:,3800,,
Shift Vector Coefficients:,-10.5391,0.0761263,-0.000134223,,
Pixel to Wavelength Coefficients:,1775.68,-0.916766,-0.000235065,,
Serial Number:,5510004,,
Scan Config Name:,Column 1,,
Scan Config Type:,Slew,,
Section 1,,
Start wavelength (nm):,900,,
End wavelength (nm):,1700,,
Pattern Pixel Width (nm):,   7.03,,,,
Exposure (ms):,  0.635,,,,
Digital Resolution:,228,,
Num Repeats:,6,,
PGA Gain:,64,,
Total Measurement Time in sec:,  2.724,,
Wavelength (nm),Absorbance (AU),Reference Signal (unitless),Sample Signal (unitless)
901.51,1.290686,108485,5555
905.376,1.338651,121306,5562
909.237,1.312131,131909,6429
913.095,1.322522,143299,6819
916.948,1.326912,156982,7395
922.079,1.289637,179937,9236
925.923,1.333127,200504,9311
929.762,1.327696,222660,10470
933.597,1.319035,244426,11725
937.427,1.315061,263972,12779
941.254,1.315706,281845,13624
945.076,1.314187,297271,14420
950.165,1.309654,315605,15470
953.978,1.311765,328029,16001
957.786,1.308531,340470,16732
961.59,1.318354,352317,16927
965.389,1.305716,363056,17958
969.185,1.300707,373162,18672
972.976,1.312895,382632,18616
976.763,1.294619,391202,19851
981.806,1.311675,400190,19525
985.583,1.298309,406088,20432
989.355,1.295916,410162,20751
993.124,1.306884,412868,20367
996.888,1.300195,414263,20753
1000.65,1.310986,415476,20303
1004.4,1.308940,415479,20399
1009.41,1.303298,414358,20610
1013.15,1.300298,412923,20681
1016.89,1.300024,411526,20624
1020.63,1.310047,409066,20033
1024.36,1.312823,406777,19794
1028.09,1.297551,404427,20384
1031.82,1.307092,401911,19817
1036.78,1.299257,398410,20002
1040.49,1.300246,396204,19846
1044.2,1.309569,394236,19328
1047.91,1.304569,392042,19443
1051.61,1.302618,389823,19420
1055.31,1.299014,388234,19502
1059,1.299753,387599,19437
1063.92,1.308447,386688,19007
1067.61,1.300893,386598,19336
1071.29,1.309677,387377,18987
1074.96,1.314512,388536,18833
1078.63,1.309642,389855,19110
1082.3,1.314119,391215,18980
1085.96,1.308713,393215,19316
1090.84,1.316322,396270,19128
1094.49,1.308921,398760,19579
1098.14,1.305545,400987,19842
1101.79,1.305528,403477,19966
1105.43,1.314868,406116,19669
1109.06,1.309225,407701,20004
1112.7,1.318941,409859,19665
1117.53,1.317548,412494,19855
1121.15,1.312946,414909,20184
1124.77,1.318364,416559,20013
1128.38,1.313848,418532,20318
1131.99,1.318498,419956,20170
1135.6,1.318018,421946,20288
1139.2,1.314644,423881,20540
1143.99,1.318054,426786,20519
1147.58,1.319575,428617,20535
1151.17,1.314003,431169,20924
1154.75,1.319109,433579,20795
1158.33,1.315776,436264,21085
1161.91,1.314440,439132,21289
1165.48,1.311592,442389,21588
1169.04,1.316894,446101,21505
1173.79,1.308170,451929,22228
1177.34,1.309965,456026,22337
1180.9,1.317284,461306,22218
1184.44,1.319718,467657,22398
1187.99,1.318063,473969,22787
1191.52,1.315099,479856,23228
1195.06,1.312856,487372,23714
1199.76,1.315472,497347,24054
1203.29,1.315220,504311,24405
1206.81,1.318659,511507,24558
1210.33,1.312731,519078,25264
1213.84,1.314503,527163,25553
1217.35,1.319148,534208,25619
1220.85,1.325433,540472,25547
1225.51,1.311249,549929,26857
1229.01,1.316242,556888,26886
1232.5,1.317532,562180,27061
1235.98,1.324383,567975,26912
1239.46,1.320259,574815,27496
1242.94,1.317063,582782,28083
1246.41,1.322737,591476,28132
1251.03,1.319040,604016,28974
1254.5,1.315298,612289,29625
1257.96,1.320281,619125,29614
1261.41,1.320842,624551,29835
1264.86,1.327657,629900,29622
1268.31,1.322045,634345,30219
1271.75,1.325147,638574,30204
1276.33,1.322478,642499,30577
1279.76,1.327138,645905,30411
1283.19,1.317195,648307,31231
1286.61,1.321569,650446,31020
1290.03,1.324996,652132,30856
1293.44,1.321361,653907,31200
1296.85,1.327301,655963,30873
1301.39,1.324505,657349,31138
1304.8,1.322723,657558,31276
1308.19,1.321014,658515,31445
1311.58,1.321744,658804,31406
1314.97,1.321977,659011,31399
1318.36,1.324752,658272,31164
1321.73,1.326893,658022,30999
1326.23,1.327816,657870,30926
1329.6,1.325749,656482,31008
1332.97,1.326670,654926,30869
1336.33,1.322203,653727,31131
1339.69,1.325042,652497,30870
1343.04,1.328086,649913,30533
1346.39,1.329253,647671,30346
1349.73,1.325018,645338,30533
1354.18,1.326280,641175,30248
1357.52,1.326236,638376,30119
1360.85,1.321222,635805,30346
1364.17,1.317430,633413,30497
1367.49,1.322998,631026,29995
1370.81,1.316093,628050,30332
1374.12,1.321381,625034,29821
1378.54,1.325774,620272,29296
1381.84,1.324009,616892,29255
1385.14,1.320849,613613,29312
1388.43,1.324317,611526,28980
1391.72,1.326711,610663,28780
1395.01,1.328232,610634,28678
1398.29,1.325896,611700,28883
1402.66,1.322569,614051,29217
1405.93,1.326130,616268,29083
1409.2,1.325476,617795,29199
1412.46,1.330237,618872,28931
1415.72,1.320209,619795,29651
1418.98,1.324406,620495,29399
1422.23,1.323242,621087,29506
1426.56,1.327837,621375,29209
1429.8,1.325057,621616,29408
1433.04,1.327220,622129,29286
1436.27,1.327883,621526,29213
1439.5,1.330788,621113,28999
1442.72,1.326154,620921,29301
1445.94,1.329868,620270,29021
1450.23,1.332577,618860,28775
1453.44,1.327899,617697,29032
1456.64,1.327938,616264,28962
1459.85,1.324329,614413,29116
1463.04,1.325306,612307,28951
1466.24,1.327047,610032,28728
1469.43,1.328880,607345,28481
1473.67,1.324990,603789,28569
1476.85,1.332837,601175,27936
1480.02,1.328639,597737,28046
1483.19,1.327926,594479,27939
1486.36,1.330016,591232,27653
1489.52,1.335691,587853,27138
1492.68,1.329378,583875,27349
1496.89,1.325351,578062,27329
1500.03,1.333270,574159,26654
1503.18,1.337410,570285,26223
1506.32,1.336849,565444,26034
1509.45,1.334159,560571,25970
1512.58,1.332105,555821,25872
1515.71,1.328443,550344,25834
1519.87,1.332225,543983,25314
1522.99,1.333824,538764,24979
1526.1,1.329420,533692,24996
1529.21,1.330384,527902,24670
1532.32,1.330221,521886,24398
1535.42,1.329297,515888,24169
1538.51,1.330909,509987,23804
1541.6,1.332863,503936,23416
1545.72,1.332024,494694,23031
1548.8,1.329110,488378,22890
1551.88,1.329249,481832,22576
1554.95,1.327834,474989,22328
1558.02,1.331063,467818,21828
1561.08,1.334945,460730,21306
1564.15,1.329512,454170,21267
1568.22,1.330605,444181,20747
1571.27,1.323662,436947,20738
1574.32,1.318563,429598,20630
1577.36,1.322848,422039,20068
1580.4,1.323302,414375,19683
1583.43,1.321304,406354,19391
1586.46,1.314529,398475,19314
1590.49,1.318436,388982,18685
1593.51,1.325078,380708,18010
1596.53,1.326570,372727,17572
1599.54,1.325928,365060,17236
1602.55,1.313303,357543,17379
1605.55,1.323752,349495,16584
1608.55,1.316072,341154,16477
1612.54,1.311871,330877,16136
1615.53,1.315253,322904,15625
1618.51,1.314177,315116,15286
1621.49,1.318271,307217,14763
1624.47,1.326104,299481,14134
1627.44,1.312650,292112,14220
1630.41,1.313091,284245,13823
1634.36,1.309121,274079,13451
1637.32,1.310232,266916,13066
1640.27,1.312440,259612,12644
1643.22,1.310417,251804,12321
1646.16,1.305223,244348,12100
1649.1,1.304277,236703,11747
1652.04,1.305990,228171,11279
1655.95,1.289114,215408,11070
1658.88,1.283415,204937,10671
1661.8,1.285014,193395,10033
1664.72,1.255572,179728,9978
1667.63,1.255665,163642,9083
1670.54,1.238886,146312,8441
1673.44,1.219268,128451,7753
1677.31,1.180975,105080,6927
1680.21,1.196575,88906,5654
1683.1,1.181701,75033,4938
1685.99,1.173807,63520,4257
1688.87,1.138022,53714,3909
1691.75,1.139379,45653,3312
1694.62,1.167869,39137,2659
1697.49,1.088014,33776,2758
1701.31,1.153199,28175,1980