File: ML/samples/unknown/Column 1_078613_20241121_171119.csv
Method:,Column 1,,
Host Date-Time:,21/11/24 @ 17:11:19,,
Header Version:,1,,
System Temp (C):,36.92,,
Detector Temp (C):,35.1,,
Humidity (%):,0.73,,
Lamp PD:,3797,,
Shift Vector Coefficients:,-10.5391,0.0761263,-0.000134223,,
Pixel to Wavelength Coefficients:,1775.68,-0.916766,-0.000235065,,
Serial Number:,5510004,,
Scan Config Name:,Column 1,,
Scan Config Type:,Slew,,
Section 1,,
Start wavelength (nm):,900,,
End wavelength (nm):,1700,,
Pattern Pixel Width (nm):,   7.03,,,,
Exposure (ms):,  0.635,,,,
Digital Resolution:,228,,
Num Repeats:,6,,
PGA Gain:,64,,
Total Measurement Time in sec:,  2.724,,
Wavelength (nm),Absorbance (AU),Reference Signal (unitless),Sample Signal (unitless)
901.51,1.328396,108485,5093
905.376,1.337871,121306,5572
909.237,1.297649,131909,6647
913.095,1.301148,143299,7163
916.948,1.330154,156982,7340
922.079,1.300010,179937,9018
925.923,1.315172,200504,9704
929.762,1.323444,222660,10573
933.597,1.313660,244426,11871
937.427,1.304452,263972,13095
941.254,1.324074,281845,13364
945.076,1.312144,297271,14488
950.165,1.324299,315605,14957
953.978,1.310681,328029,16041
957.786,1.319545,340470,16313
961.59,1.311784,352317,17185
965.389,1.306830,363056,17912
969.185,1.309470,373162,18299
972.976,1.303662,382632,19016
976.763,1.293963,391202,19881
981.806,1.298638,400190,20120
985.583,1.302946,406088,20215
989.355,1.298225,410162,20641
993.124,1.307460,412868,20340
996.888,1.308840,414263,20344
1000.65,1.298961,415476,20873
1004.4,1.302915,415479,20684
1009.41,1.303551,414358,20598
1013.15,1.305006,412923,20458
1016.89,1.300193,411526,20616
1020.63,1.297442,409066,20623
1024.36,1.299067,406777,20431
1028.09,1.299944,404427,20272
1031.82,1.307289,401911,19808
1036.78,1.298346,398410,20044
1040.49,1.298630,396204,19920
1044.2,1.303545,394236,19598
1047.91,1.299352,392042,19678
1051.61,1.306820,389823,19233
1055.31,1.308720,388234,19071
1059,1.302016,387599,19336
1063.92,1.312418,386688,18834
1067.61,1.308346,386598,19007
1071.29,1.300668,387377,19385
1074.96,1.308944,388536,19076
1078.63,1.307760,389855,19193
1082.3,1.303005,391215,19472
1085.96,1.313642,393215,19098
1090.84,1.309116,396270,19448
1094.49,1.311413,398760,19467
1098.14,1.307805,400987,19739
1101.79,1.318936,403477,19359
1105.43,1.307034,406116,20027
1109.06,1.302867,407701,20299
1112.7,1.312191,409859,19973
1117.53,1.308585,412494,20269
1121.15,1.315124,414909,20083
1124.77,1.308135,416559,20490
1128.38,1.308853,418532,20553
1131.99,1.310794,419956,20531
1135.6,1.311116,421946,20613
1139.2,1.316020,423881,20475
1143.99,1.320559,426786,20401
1147.58,1.313359,428617,20831
1151.17,1.314564,431169,20897
1154.75,1.313177,433579,21081
1158.33,1.314583,436264,21143
1161.91,1.309067,439132,21554
1165.48,1.311270,442389,21604
1169.04,1.308830,446101,21908
1173.79,1.319813,451929,21640
1177.34,1.308257,456026,22425
1180.9,1.308289,461306,22683
1184.44,1.314668,467657,22660
1187.99,1.306553,473969,23399
1191.52,1.315417,479856,23211
1195.06,1.310026,487372,23869
1199.76,1.314066,497347,24132
1203.29,1.316967,504311,24307
1206.81,1.320626,511507,24447
1210.33,1.321026,519078,24786
1213.84,1.322548,527163,25084
1217.35,1.320353,534208,25548
1220.85,1.319775,540472,25882
1225.51,1.317635,549929,26465
1229.01,1.326291,556888,26271
1232.5,1.316234,562180,27142
1235.98,1.321632,567975,27083
1239.46,1.322698,574815,27342
1242.94,1.320011,582782,27893
1246.41,1.318084,591476,28435
1251.03,1.313366,604016,29355
1254.5,1.317901,612289,29448
1257.96,1.319139,619125,29692
1261.41,1.317955,624551,30034
1264.86,1.320085,629900,30143
1268.31,1.322736,634345,30171
1271.75,1.320840,638574,30505
1276.33,1.322748,642499,30558
1279.76,1.322267,645905,30754
1283.19,1.325180,648307,30662
1286.61,1.327916,650446,30570
1290.03,1.324251,652132,30909
1293.44,1.324350,653907,30986
1296.85,1.327526,655963,30857
1301.39,1.323029,657349,31244
1304.8,1.328172,657558,30886
1308.19,1.324717,658515,31178
1311.58,1.324365,658804,31217
1314.97,1.324933,659011,31186
1318.36,1.325743,658272,31093
1321.73,1.328057,658022,30916
1326.23,1.321155,657870,31404
1329.6,1.324728,656482,31081
1332.97,1.320412,654926,31317
1336.33,1.323923,653727,31008
1339.69,1.325675,652497,30825
1343.04,1.327318,649913,30587
1346.39,1.321733,647671,30876
1349.73,1.320631,645338,30843
1354.18,1.324503,641175,30372
1357.52,1.319057,638376,30621
1360.85,1.329866,635805,29748
1364.17,1.326641,633413,29857
1367.49,1.323970,631026,29928
1370.81,1.323166,628050,29842
1374.12,1.321731,625034,29797
1378.54,1.321966,620272,29554
1381.84,1.320387,616892,29500
1385.14,1.323033,613613,29165
1388.43,1.320631,611526,29227
1391.72,1.321223,610663,29146
1395.01,1.326343,610634,28803
1398.29,1.322899,611700,29083
1402.66,1.327592,614051,28881
1405.93,1.322858,616268,29303
1409.2,1.326236,617795,29148
1412.46,1.324867,618872,29291
1415.72,1.326761,619795,29207
1418.98,1.324997,620495,29359
1422.23,1.322360,621087,29566
1426.56,1.331645,621375,28954
1429.8,1.330765,621616,29024
1433.04,1.328899,622129,29173
1436.27,1.332637,621526,28895
1439.5,1.327178,621113,29241
1442.72,1.331178,620921,28964
1445.94,1.327793,620270,29160
1450.23,1.325110,618860,29274
1453.44,1.326853,617697,29102
1456.64,1.328689,616264,28912
1459.85,1.331912,614413,28612
1463.04,1.327200,612307,28825
1466.24,1.328820,610032,28611
1469.43,1.329430,607345,28445
1473.67,1.328271,603789,28354
1476.85,1.329847,601175,28129
1480.02,1.333263,597737,27749
1483.19,1.328454,594479,27905
1486.36,1.328933,591232,27722
1489.52,1.336412,587853,27093
1492.68,1.331863,583875,27193
1496.89,1.331464,578062,26947
1500.03,1.334363,574159,26587
1503.18,1.336582,570285,26273
1506.32,1.327459,565444,26603
1509.45,1.331358,560571,26138
1512.58,1.330179,555821,25987
1515.71,1.327586,550344,25885
1519.87,1.328892,543983,25509
1522.99,1.325387,538764,25469
1526.1,1.332489,533692,24820
1529.21,1.329259,527902,24734
1532.32,1.337654,521886,23984
1535.42,1.326146,515888,24345
1538.51,1.329652,509987,23873
1541.6,1.324614,503936,23865
1545.72,1.331590,494694,23054
1548.8,1.328409,488378,22927
1551.88,1.322473,481832,22931
1554.95,1.323075,474989,22574
1558.02,1.332558,467818,21753
1561.08,1.329033,460730,21598
1564.15,1.328696,454170,21307
1568.22,1.336930,444181,20447
1571.27,1.328908,436947,20489
1574.32,1.321075,429598,20511
1577.36,1.327636,422039,19848
1580.4,1.326469,414375,19540
1583.43,1.320901,406354,19409
1586.46,1.328745,398475,18692
1590.49,1.328048,388982,18276
1593.51,1.320783,380708,18189
1596.53,1.319266,372727,17870
1599.54,1.322040,365060,17391
1602.55,1.316338,357543,17258
1605.55,1.321245,349495,16680
1608.55,1.323972,341154,16180
1612.54,1.325986,330877,15620
1615.53,1.317148,322904,15557
1618.51,1.313467,315116,15311
1621.49,1.319833,307217,14710
1624.47,1.310710,299481,14644
1627.44,1.314302,292112,14166
1630.41,1.305460,284245,14068
1634.36,1.310350,274079,13413
1637.32,1.321307,266916,12737
1640.27,1.330786,259612,12121
1643.22,1.321520,251804,12010
1646.16,1.322653,244348,11624
1649.1,1.305424,236703,11716
1652.04,1.299569,228171,11447
1655.95,1.298954,215408,10822
1658.88,1.308591,204937,10070
1661.8,1.282038,193395,10102
1664.72,1.277350,179728,9490
1667.63,1.255857,163642,9079
1670.54,1.219516,146312,8826
1673.44,1.204671,128451,8018
1677.31,1.178537,105080,6966
1680.21,1.194965,88906,5675
1683.1,1.164966,75033,5132
1685.99,1.135177,63520,4653
1688.87,1.143050,53714,3864
1691.75,1.134036,45653,3353
1694.62,1.094967,39137,3145
1697.49,1.175462,33776,2255
1701.31,1.156722,28175,1964