File: ML/samples/unknown/Column 1_078990_20241121_173156.csv
Method:,Column 1,,
Host Date-Time:,21/11/24 @ 17:31:56,,
Header Version:,1,,
System Temp (C):,37.73,,
Detector Temp (C):,36.93,,
Humidity (%):,0.93,,
Lamp PD:,3795,,
Shift Vector Coefficients:,-10.5391,0.0761263,-0.000134223,,
Pixel to Wavelength Coefficients:,1775.68,-0.916766,-0.000235065,,
Serial Number:,5510004,,
Scan Config Name:,Column 1,,
Scan Config Type:,Slew,,
Section 1,,
Start wavelength (nm):,900,,
End wavelength (nm):,1700,,
Pattern Pixel Width (nm):,   7.03,,,,
Exposure (ms):,  0.635,,,,
Digital Resolution:,228,,
Num Repeats:,6,,
PGA Gain:,64,,
Total Measurement Time in sec:,  2.727,,
Wavelength (nm),Absorbance (AU),Reference Signal (unitless),Sample Signal (unitless)
901.51,1.326185,108485,5119
905.376,1.305514,121306,6003
909.237,1.332531,131909,6134
913.095,1.312263,143299,6982
916.948,1.326442,156982,7403
922.079,1.328212,179937,8451
925.923,1.333033,200504,9313
929.762,1.324925,222660,10537
933.597,1.333917,244426,11330
937.427,1.311575,263972,12882
941.254,1.325539,281845,13319
945.076,1.302861,297271,14801
950.165,1.313573,315605,15331
953.978,1.307659,328029,16153
957.786,1.308272,340470,16742
961.59,1.320385,352317,16848
965.389,1.320124,363056,17372
969.185,1.314339,373162,18095
972.976,1.307355,382632,18855
976.763,1.308422,391202,19230
981.806,1.304615,400190,19845
985.583,1.306333,406088,20058
989.355,1.310430,410162,20069
993.124,1.308636,412868,20285
996.888,1.302693,414263,20634
1000.65,1.304426,415476,20612
1004.4,1.304576,415479,20605
1009.41,1.308811,414358,20350
1013.15,1.306367,412923,20394
1016.89,1.306837,411526,20303
1020.63,1.305647,409066,20237
1024.36,1.312801,406777,19795
1028.09,1.308162,404427,19892
1031.82,1.300006,401911,20143
1036.78,1.306151,398410,19687
1040.49,1.316681,396204,19109
1044.2,1.316888,394236,19005
1047.91,1.312458,392042,19093
1051.61,1.313717,389823,18930
1055.31,1.312012,388234,18927
1059,1.306486,387599,19138
1063.92,1.305646,386688,19130
1067.61,1.319009,386598,18546
1071.29,1.317176,387377,18662
1074.96,1.314466,388536,18835
1078.63,1.313088,389855,18959
1082.3,1.313228,391215,19019
1085.96,1.313369,393215,19110
1090.84,1.310346,396270,19393
1094.49,1.311212,398760,19476
1098.14,1.312539,400987,19525
1101.79,1.315072,403477,19532
1105.43,1.316350,406116,19602
1109.06,1.313348,407701,19815
1112.7,1.305310,409859,20292
1117.53,1.310195,412494,20194
1121.15,1.315276,414909,20076
1124.77,1.321719,416559,19859
1128.38,1.314447,418532,20290
1131.99,1.317186,419956,20231
1135.6,1.323793,421946,20020
1139.2,1.321742,423881,20207
1143.99,1.318139,426786,20515
1147.58,1.309437,428617,21020
1151.17,1.316542,431169,20802
1154.75,1.315159,433579,20985
1158.33,1.311533,436264,21292
1161.91,1.316956,439132,21166
1165.48,1.312518,442389,21542
1169.04,1.306419,446101,22030
1173.79,1.314190,451929,21922
1177.34,1.312480,456026,22208
1180.9,1.316893,461306,22238
1184.44,1.312431,467657,22777
1187.99,1.316427,473969,22873
1191.52,1.315080,479856,23229
1195.06,1.312654,487372,23725
1199.76,1.319572,497347,23828
1203.29,1.313586,504311,24497
1206.81,1.319969,511507,24484
1210.33,1.324739,519078,24575
1213.84,1.314112,527163,25576
1217.35,1.324899,534208,25282
1220.85,1.319574,540472,25894
1225.51,1.319262,549929,26366
1229.01,1.324921,556888,26354
1232.5,1.317644,562180,27054
1235.98,1.320559,567975,27150
1239.46,1.318635,574815,27599
1242.94,1.323575,582782,27665
1246.41,1.322737,591476,28132
1251.03,1.321204,604016,28830
1254.5,1.326209,612289,28890
1257.96,1.325445,619125,29264
1261.41,1.327058,624551,29411
1264.86,1.324808,629900,29817
1268.31,1.323153,634345,30142
1271.75,1.327511,638574,30040
1276.33,1.328945,642499,30125
1279.76,1.325954,645905,30494
1283.19,1.323188,648307,30803
1286.61,1.325070,650446,30771
1290.03,1.326971,652132,30716
1293.44,1.329709,653907,30606
1296.85,1.327329,655963,30871
1301.39,1.324157,657349,31163
1304.8,1.324839,657558,31124
1308.19,1.325456,658515,31125
1311.58,1.330883,658804,30752
1314.97,1.330779,659011,30769
1318.36,1.325338,658272,31122
1321.73,1.329267,658022,30830
1326.23,1.326610,657870,31012
1329.6,1.329745,656482,30724
1332.97,1.325433,654926,30957
1336.33,1.329093,653727,30641
1339.69,1.325704,652497,30823
1343.04,1.326326,649913,30657
1346.39,1.328824,647671,30376
1349.73,1.323201,645338,30661
1354.18,1.325878,641175,30276
1357.52,1.326351,638376,30111
1360.85,1.330714,635805,29690
1364.17,1.323149,633413,30098
1367.49,1.327905,631026,29658
1370.81,1.317441,628050,30238
1374.12,1.323894,625034,29649
1378.54,1.325611,620272,29307
1381.84,1.317146,616892,29721
1385.14,1.327553,613613,28863
1388.43,1.326359,611526,28844
1391.72,1.328859,610663,28638
1395.01,1.327309,610634,28739
1398.29,1.326890,611700,28817
1402.66,1.321426,614051,29294
1405.93,1.334042,616268,28558
1409.2,1.327848,617795,29040
1412.46,1.330222,618872,28932
1415.72,1.331275,619795,28905
1418.98,1.328890,620495,29097
1422.23,1.329274,621087,29099
1426.56,1.330447,621375,29034
1429.8,1.332009,621616,28941
1433.04,1.332938,622129,28903
1436.27,1.334852,621526,28748
1439.5,1.329367,621113,29094
1442.72,1.332214,620921,28895
1445.94,1.333520,620270,28778
1450.23,1.330244,618860,28930
1453.44,1.332500,617697,28726
1456.64,1.335196,616264,28482
1459.85,1.332748,614413,28557
1463.04,1.341381,612307,27899
1466.24,1.332677,610032,28358
1469.43,1.333325,607345,28191
1473.67,1.332689,603789,28067
1476.85,1.337259,601175,27653
1480.02,1.326169,597737,28206
1483.19,1.332929,594479,27619
1486.36,1.334388,591232,27376
1489.52,1.334109,587853,27237
1492.68,1.335375,583875,26974
1496.89,1.332254,578062,26898
1500.03,1.339440,574159,26278
1503.18,1.334949,570285,26372
1506.32,1.333939,565444,26209
1509.45,1.333841,560571,25989
1512.58,1.330446,555821,25971
1515.71,1.333975,550344,25507
1519.87,1.328518,543983,25531
1522.99,1.337753,538764,24754
1526.1,1.339403,533692,24428
1529.21,1.339978,527902,24131
1532.32,1.338216,521886,23953
1535.42,1.335103,515888,23848
1538.51,1.337713,509987,23434
1541.6,1.336457,503936,23223
1545.72,1.325566,494694,23376
1548.8,1.329186,488378,22886
1551.88,1.333482,481832,22357
1554.95,1.332173,474989,22106
1558.02,1.335784,467818,21592
1561.08,1.334822,460730,21312
1564.15,1.335558,454170,20973
1568.22,1.321163,444181,21203
1571.27,1.334154,436947,20243
1574.32,1.336222,429598,19808
1577.36,1.335363,422039,19498
1580.4,1.331297,414375,19324
1583.43,1.329557,406354,19026
1586.46,1.324882,398475,18859
1590.49,1.322664,388982,18504
1593.51,1.329100,380708,17844
1596.53,1.324917,372727,17639
1599.54,1.339206,365060,16717
1602.55,1.322063,357543,17032
1605.55,1.325825,349495,16505
1608.55,1.320603,341154,16306
1612.54,1.320597,330877,15815
1615.53,1.330154,322904,15098
1618.51,1.325138,315116,14905
1621.49,1.325239,307217,14528
1624.47,1.310561,299481,14649
1627.44,1.315100,292112,14140
1630.41,1.322780,284245,13518
1634.36,1.319743,274079,13126
1637.32,1.328666,266916,12523
1640.27,1.318667,259612,12464
1643.22,1.310487,251804,12319
1646.16,1.311114,244348,11937
1649.1,1.303944,236703,11756
1652.04,1.298659,228171,11471
1655.95,1.302217,215408,10741
1658.88,1.303873,204937,10180
1661.8,1.280150,193395,10146
1664.72,1.260607,179728,9863
1667.63,1.244013,163642,9330
1670.54,1.232806,146312,8560
1673.44,1.207170,128451,7972
1677.31,1.151995,105080,7405
1680.21,1.129387,88906,6600
1683.1,1.128074,75033,5587
1685.99,1.148060,63520,4517
1688.87,1.153861,53714,3769
1691.75,1.142670,45653,3287
1694.62,1.137438,39137,2852
1697.49,1.167636,33776,2296
1701.31,1.123119,28175,2122