File: ML/samples/unknown/Column 1_078941_20241121_172934.csv
Method:,Column 1,,
Host Date-Time:,21/11/24 @ 17:29:34,,
Header Version:,1,,
System Temp (C):,37.68,,
Detector Temp (C):,36.54,,
Humidity (%):,0.54,,
Lamp PD:,3796,,
Shift Vector Coefficients:,-10.5391,0.0761263,-0.000134223,,
Pixel to Wavelength Coefficients:,1775.68,-0.916766,-0.000235065,,
Serial Number:,5510004,,
Scan Config Name:,Column 1,,
Scan Config Type:,Slew,,
Section 1,,
Start wavelength (nm):,900,,
End wavelength (nm):,1700,,
Pattern Pixel Width (nm):,   7.03,,,,
Exposure (ms):,  0.635,,,,
Digital Resolution:,228,,
Num Repeats:,6,,
PGA Gain:,64,,
Total Measurement Time in sec:,  2.726,,
Wavelength (nm),Absorbance (AU),Reference Signal (unitless),Sample Signal (unitless)
901.51,1.327714,108485,5101
905.376,1.337092,121306,5582
909.237,1.311523,131909,6438
913.095,1.307254,143299,7063
916.948,1.337493,156982,7217
922.079,1.321684,179937,8579
925.923,1.326232,200504,9460
929.762,1.316517,222660,10743
933.597,1.316597,244426,11791
937.427,1.311709,263972,12878
941.254,1.330062,281845,13181
945.076,1.314398,297271,14413
950.165,1.308252,315605,15520
953.978,1.307175,328029,16171
957.786,1.318694,340470,16345
961.59,1.314522,352317,17077
965.389,1.317556,363056,17475
969.185,1.306372,373162,18430
972.976,1.304051,382632,18999
976.763,1.295977,391202,19789
981.806,1.305864,400190,19788
985.583,1.306419,406088,20054
989.355,1.309997,410162,20089
993.124,1.303528,412868,20525
996.888,1.298962,414263,20812
1000.65,1.308129,415476,20437
1004.4,1.310070,415479,20346
1009.41,1.304141,414358,20570
1013.15,1.303925,412923,20509
1016.89,1.308058,411526,20246
1020.63,1.310698,409066,20003
1024.36,1.304070,406777,20197
1028.09,1.304617,404427,20055
1031.82,1.309575,401911,19704
1036.78,1.307122,398410,19643
1040.49,1.308754,396204,19461
1044.2,1.309322,394236,19339
1047.91,1.305800,392042,19388
1051.61,1.304321,389823,19344
1055.31,1.308310,388234,19089
1059,1.308830,387599,19035
1063.92,1.315124,386688,18717
1067.61,1.311902,386598,18852
1071.29,1.312247,387377,18875
1074.96,1.311960,388536,18944
1078.63,1.319573,389855,18678
1082.3,1.311359,391215,19101
1085.96,1.308263,393215,19336
1090.84,1.313606,396270,19248
1094.49,1.312149,398760,19434
1098.14,1.308157,400987,19723
1101.79,1.307949,403477,19855
1105.43,1.306774,406116,20039
1109.06,1.320352,407701,19498
1112.7,1.327505,409859,19281
1117.53,1.314105,412494,20013
1121.15,1.313807,414909,20144
1124.77,1.317216,416559,20066
1128.38,1.320612,418532,20004
1131.99,1.325050,419956,19868
1135.6,1.308762,421946,20725
1139.2,1.318616,423881,20353
1143.99,1.307164,426786,21040
1147.58,1.314717,428617,20766
1151.17,1.314751,431169,20888
1154.75,1.311347,433579,21170
1158.33,1.317551,436264,20999
1161.91,1.324929,439132,20781
1165.48,1.312962,442389,21520
1169.04,1.315684,446101,21565
1173.79,1.317112,451929,21775
1177.34,1.320354,456026,21809
1180.9,1.317226,461306,22221
1184.44,1.313959,467657,22697
1187.99,1.315157,473969,22940
1191.52,1.321978,479856,22863
1195.06,1.318756,487372,23394
1199.76,1.319317,497347,23842
1203.29,1.317396,504311,24283
1206.81,1.322531,511507,24340
1210.33,1.318580,519078,24926
1213.84,1.319374,527163,25268
1217.35,1.325157,534208,25267
1220.85,1.315052,540472,26165
1225.51,1.315213,549929,26613
1229.01,1.319175,556888,26705
1232.5,1.318496,562180,27001
1235.98,1.321424,567975,27096
1239.46,1.321746,574815,27402
1242.94,1.317589,582782,28049
1246.41,1.321750,591476,28196
1251.03,1.318321,604016,29022
1254.5,1.327368,612289,28813
1257.96,1.322560,619125,29459
1261.41,1.319781,624551,29908
1264.86,1.328406,629900,29571
1268.31,1.322045,634345,30219
1271.75,1.322423,638574,30394
1276.33,1.321768,642499,30627
1279.76,1.328970,645905,30283
1283.19,1.324147,648307,30735
1286.61,1.322663,650446,30942
1290.03,1.327296,652132,30693
1293.44,1.324561,653907,30971
1296.85,1.327033,655963,30892
1301.39,1.325846,657349,31042
1304.8,1.322584,657558,31286
1308.19,1.332731,658515,30608
1311.58,1.331109,658804,30736
1314.97,1.325993,659011,31110
1318.36,1.326470,658272,31041
1321.73,1.331428,658022,30677
1326.23,1.340267,657870,30052
1329.6,1.328912,656482,30783
1332.97,1.323250,654926,31113
1336.33,1.331282,653727,30487
1339.69,1.332034,652497,30377
1343.04,1.328883,649913,30477
1346.39,1.328395,647671,30406
1349.73,1.324549,645338,30566
1354.18,1.328367,641175,30103
1357.52,1.323147,638376,30334
1360.85,1.324238,635805,30136
1364.17,1.323193,633413,30095
1367.49,1.330240,631026,29499
1370.81,1.322439,628050,29892
1374.12,1.320044,625034,29913
1378.54,1.323718,620272,29435
1381.84,1.326734,616892,29072
1385.14,1.323360,613613,29143
1388.43,1.317979,611526,29406
1391.72,1.323658,610663,28983
1395.01,1.320592,610634,29187
1398.29,1.329702,611700,28631
1402.66,1.328556,614051,28817
1405.93,1.331041,616268,28756
1409.2,1.326251,617795,29147
1412.46,1.328769,618872,29029
1415.72,1.332886,619795,28798
1418.98,1.326954,620495,29227
1422.23,1.330305,621087,29030
1426.56,1.327555,621375,29228
1429.8,1.330765,621616,29024
1433.04,1.331632,622129,28990
1436.27,1.335396,621526,28712
1439.5,1.330024,621113,29050
1442.72,1.336898,620921,28585
1445.94,1.328061,620270,29142
1450.23,1.333529,618860,28712
1453.44,1.336297,617697,28476
1456.64,1.329019,616264,28890
1459.85,1.325778,614413,29019
1463.04,1.332170,612307,28497
1466.24,1.327652,610032,28688
1469.43,1.328911,607345,28479
1473.67,1.327124,603789,28429
1476.85,1.332992,601175,27926
1480.02,1.335318,597737,27618
1483.19,1.328953,594479,27873
1486.36,1.333532,591232,27430
1489.52,1.330157,587853,27486
1492.68,1.330906,583875,27253
1496.89,1.331803,578062,26926
1500.03,1.335295,574159,26530
1503.18,1.331521,570285,26581
1506.32,1.332500,565444,26296
1509.45,1.336809,560571,25812
1512.58,1.338054,555821,25520
1515.71,1.329840,550344,25751
1519.87,1.334064,543983,25207
1522.99,1.336247,538764,24840
1526.1,1.334822,533692,24687
1529.21,1.336983,527902,24298
1532.32,1.332846,521886,24251
1535.42,1.329261,515888,24171
1538.51,1.328580,509987,23932
1541.6,1.339818,503936,23044
1545.72,1.333592,494694,22948
1548.8,1.331813,488378,22748
1551.88,1.330134,481832,22530
1554.95,1.335744,474989,21925
1558.02,1.330248,467818,21869
1561.08,1.338465,460730,21134
1564.15,1.329553,454170,21265
1568.22,1.327414,444181,20900
1571.27,1.326330,436947,20611
1574.32,1.334668,429598,19879
1577.36,1.331438,422039,19675
1580.4,1.332918,414375,19252
1583.43,1.324835,406354,19234
1586.46,1.321739,398475,18996
1590.49,1.328334,388982,18264
1593.51,1.324861,380708,18019
1596.53,1.327559,372727,17532
1599.54,1.322165,365060,17386
1602.55,1.308977,357543,17553
1605.55,1.323490,349495,16594
1608.55,1.322017,341154,16253
1612.54,1.324431,330877,15676
1615.53,1.327230,322904,15200
1618.51,1.314575,315116,15272
1621.49,1.325120,307217,14532
1624.47,1.319124,299481,14363
1627.44,1.309334,292112,14329
1630.41,1.313940,284245,13796
1634.36,1.315496,274079,13255
1637.32,1.302654,266916,13296
1640.27,1.313782,259612,12605
1643.22,1.317596,251804,12119
1646.16,1.320715,244348,11676
1649.1,1.306464,236703,11688
1652.04,1.319402,228171,10936
1655.95,1.303432,215408,10711
1658.88,1.296722,204937,10349
1661.8,1.282942,193395,10081
1664.72,1.272978,179728,9586
1667.63,1.250107,163642,9200
1670.54,1.216671,146312,8884
1673.44,1.190865,128451,8277
1677.31,1.162742,105080,7224
1680.21,1.144587,88906,6373
1683.1,1.135522,75033,5492
1685.99,1.112892,63520,4898
1688.87,1.141816,53714,3875
1691.75,1.104254,45653,3591
1694.62,1.126016,39137,2928
1697.49,1.156249,33776,2357
1701.31,1.149703,28175,1996