File: ML/samples/unknown/Column 1_078720_20241121_171855.csv
Method:,Column 1,,
Host Date-Time:,21/11/24 @ 17:18:55,,
Header Version:,1,,
System Temp (C):,35.92,,
Detector Temp (C):,34.45,,
Humidity (%):,1.57,,
Lamp PD:,3799,,
Shift Vector Coefficients:,-10.5391,0.0761263,-0.000134223,,
Pixel to Wavelength Coefficients:,1775.68,-0.916766,-0.000235065,,
Serial Number:,5510004,,
Scan Config Name:,Column 1,,
Scan Config Type:,Slew,,
Section 1,,
Start wavelength (nm):,900,,
End wavelength (nm):,1700,,
Pattern Pixel Width (nm):,   7.03,,,,
Exposure (ms):,  0.635,,,,
Digital Resolution:,228,,
Num Repeats:,6,,
PGA Gain:,64,,
Total Measurement Time in sec:,  2.727,,
Wavelength (nm),Absorbance (AU),Reference Signal (unitless),Sample Signal (unitless)
901.51,1.304749,108485,5378
905.376,1.312809,121306,5903
909.237,1.305428,131909,6529
913.095,1.313946,143299,6955
916.948,1.311168,156982,7668
922.079,1.305535,179937,8904
925.923,1.320033,200504,9596
929.762,1.327488,222660,10475
933.597,1.316486,244426,11794
937.427,1.320671,263972,12615
941.254,1.310478,281845,13789
945.076,1.305510,297271,14711
950.165,1.309289,315605,15483
953.978,1.313179,328029,15949
957.786,1.309857,340470,16681
961.59,1.303350,352317,17522
965.389,1.304605,363056,18004
969.185,1.301335,373162,18645
972.976,1.305218,382632,18948
976.763,1.301477,391202,19540
981.806,1.302541,400190,19940
985.583,1.302903,406088,20217
989.355,1.304071,410162,20365
993.124,1.307396,412868,20343
996.888,1.305226,414263,20514
1000.65,1.296927,415476,20971
1004.4,1.300068,415479,20820
1009.41,1.309067,414358,20338
1013.15,1.309015,412923,20270
1016.89,1.305278,411526,20376
1020.63,1.303314,409066,20346
1024.36,1.300515,406777,20363
1028.09,1.303752,404427,20095
1031.82,1.302514,401911,20027
1036.78,1.301783,398410,19886
1040.49,1.301956,396204,19768
1044.2,1.307999,394236,19398
1047.91,1.299594,392042,19667
1051.61,1.312548,389823,18981
1055.31,1.299059,388234,19500
1059,1.308739,387599,19039
1063.92,1.308996,386688,18983
1067.61,1.306841,386598,19073
1071.29,1.307396,387377,19087
1074.96,1.304324,388536,19280
1078.63,1.312012,389855,19006
1082.3,1.305465,391215,19362
1085.96,1.303372,393215,19555
1090.84,1.310033,396270,19407
1094.49,1.314794,398760,19316
1098.14,1.306553,400987,19796
1101.79,1.310010,403477,19761
1105.43,1.305670,406116,20090
1109.06,1.313852,407701,19792
1112.7,1.301941,409859,20450
1117.53,1.316063,412494,19923
1121.15,1.310971,414909,20276
1124.77,1.320213,416559,19928
1128.38,1.312205,418532,20395
1131.99,1.318929,419956,20150
1135.6,1.310169,421946,20658
1139.2,1.306350,423881,20936
1143.99,1.311792,426786,20817
1147.58,1.320952,428617,20470
1151.17,1.304416,431169,21391
1154.75,1.313672,433579,21057
1158.33,1.320414,436264,20861
1161.91,1.312526,439132,21383
1165.48,1.311733,442389,21581
1169.04,1.310360,446101,21831
1173.79,1.310933,451929,22087
1177.34,1.310062,456026,22332
1180.9,1.307810,461306,22708
1184.44,1.308105,467657,23005
1187.99,1.312495,473969,23081
1191.52,1.305831,479856,23729
1195.06,1.323291,487372,23151
1199.76,1.316123,497347,24018
1203.29,1.319116,504311,24187
1206.81,1.313735,511507,24838
1210.33,1.323486,519078,24646
1213.84,1.324700,527163,24960
1217.35,1.316343,534208,25785
1220.85,1.317483,540472,26019
1225.51,1.320847,549929,26270
1229.01,1.315290,556888,26945
1232.5,1.321498,562180,26815
1235.98,1.317324,567975,27353
1239.46,1.312742,574815,27976
1242.94,1.315750,582782,28168
1246.41,1.316788,591476,28520
1251.03,1.320873,604016,28852
1254.5,1.318521,612289,29406
1257.96,1.323136,619125,29420
1261.41,1.321439,624551,29794
1264.86,1.323571,629900,29902
1268.31,1.319252,634345,30414
1271.75,1.329860,638574,29878
1276.33,1.322790,642499,30555
1279.76,1.316683,645905,31152
1283.19,1.325237,648307,30658
1286.61,1.321429,650446,31030
1290.03,1.321743,652132,31088
1293.44,1.326528,653907,30831
1296.85,1.328343,655963,30799
1301.39,1.322390,657349,31290
1304.8,1.322390,657558,31300
1308.19,1.326141,658515,31076
1311.58,1.328517,658804,30920
1314.97,1.325435,659011,31150
1318.36,1.318966,658272,31582
1321.73,1.324490,658022,31171
1326.23,1.329124,657870,30833
1329.6,1.327194,656482,30905
1332.97,1.330230,654926,30617
1336.33,1.326959,653727,30792
1339.69,1.320299,652497,31209
1343.04,1.326652,649913,30634
1346.39,1.328552,647671,30395
1349.73,1.321533,645338,30779
1354.18,1.322705,641175,30498
1357.52,1.321247,638376,30467
1360.85,1.318597,635805,30530
1364.17,1.326524,633413,29865
1367.49,1.319150,631026,30262
1370.81,1.322192,628050,29909
1374.12,1.317034,625034,30121
1378.54,1.321349,620272,29596
1381.84,1.319622,616892,29552
1385.14,1.324763,613613,29049
1388.43,1.326555,611526,28831
1391.72,1.322147,610663,29084
1395.01,1.326027,610634,28824
1398.29,1.321319,611700,29189
1402.66,1.328737,614051,28805
1405.93,1.329338,616268,28869
1409.2,1.320522,617795,29534
1412.46,1.325638,618872,29239
1415.72,1.322794,619795,29475
1418.98,1.331615,620495,28915
1422.23,1.328305,621087,29164
1426.56,1.329685,621375,29085
1429.8,1.334960,621616,28745
1433.04,1.328572,622129,29195
1436.27,1.326918,621526,29278
1439.5,1.328026,621113,29184
1442.72,1.332544,620921,28873
1445.94,1.335017,620270,28679
1450.23,1.327505,618860,29113
1453.44,1.330554,617697,28855
1456.64,1.327698,616264,28978
1459.85,1.327638,614413,28895
1463.04,1.331485,612307,28542
1466.24,1.332141,610032,28393
1469.43,1.331220,607345,28328
1473.67,1.326605,603789,28463
1476.85,1.333350,601175,27903
1480.02,1.330673,597737,27915
1483.19,1.335041,594479,27485
1486.36,1.331826,591232,27538
1489.52,1.334828,587853,27192
1492.68,1.332438,583875,27157
1496.89,1.333807,578062,26802
1500.03,1.326111,574159,27097
1503.18,1.333010,570285,26490
1506.32,1.327998,565444,26570
1509.45,1.330910,560571,26165
1512.58,1.335424,555821,25675
1515.71,1.331124,550344,25675
1519.87,1.327261,543983,25605
1522.99,1.330533,538764,25169
1526.1,1.338231,533692,24494
1529.21,1.332909,527902,24527
1532.32,1.334730,521886,24146
1535.42,1.325059,515888,24406
1538.51,1.332188,509987,23734
1541.6,1.328471,503936,23654
1545.72,1.328044,494694,23243
1548.8,1.334148,488378,22626
1551.88,1.325304,481832,22782
1554.95,1.335071,474989,21959
1558.02,1.329157,467818,21924
1561.08,1.332404,460730,21431
1564.15,1.330965,454170,21196
1568.22,1.327663,444181,20888
1571.27,1.327786,436947,20542
1574.32,1.321372,429598,20497
1577.36,1.330886,422039,19700
1580.4,1.322817,414375,19705
1583.43,1.325083,406354,19223
1586.46,1.329489,398475,18660
1590.49,1.321937,388982,18535
1593.51,1.332913,380708,17688
1596.53,1.321386,372727,17783
1599.54,1.311603,365060,17814
1602.55,1.322292,357543,17023
1605.55,1.316506,349495,16863
1608.55,1.320550,341154,16308
1612.54,1.322883,330877,15732
1615.53,1.322541,322904,15365
1618.51,1.320271,315116,15073
1621.49,1.315339,307217,14863
1624.47,1.305902,299481,14807
1627.44,1.315745,292112,14119
1630.41,1.310334,284245,13911
1634.36,1.316119,274079,13236
1637.32,1.312364,266916,13002
1640.27,1.315923,259612,12543
1643.22,1.297430,251804,12695
1646.16,1.297645,244348,12313
1649.1,1.311246,236703,11560
1652.04,1.304683,228171,11313
1655.95,1.304691,215408,10680
1658.88,1.292463,204937,10451
1661.8,1.268119,193395,10431
1664.72,1.272526,179728,9596
1667.63,1.238555,163642,9448
1670.54,1.227111,146312,8673
1673.44,1.208698,128451,7944
1677.31,1.198372,105080,6655
1680.21,1.194277,88906,5684
1683.1,1.169474,75033,5079
1685.99,1.169341,63520,4301
1688.87,1.200914,53714,3382
1691.75,1.163509,45653,3133
1694.62,1.163320,39137,2687
1697.49,1.155696,33776,2360
1701.31,1.115611,28175,2159