File: ML/samples/unknown/Column 1_078527_20241121_170703.csv
Method:,Column 1,,
Host Date-Time:,21/11/24 @ 17:7:3,,
Header Version:,1,,
System Temp (C):,35.39,,
Detector Temp (C):,34.05,,
Humidity (%):,1.86,,
Lamp PD:,3800,,
Shift Vector Coefficients:,-10.5391,0.0761263,-0.000134223,,
Pixel to Wavelength Coefficients:,1775.68,-0.916766,-0.000235065,,
Serial Number:,5510004,,
Scan Config Name:,Column 1,,
Scan Config Type:,Slew,,
Section 1,,
Start wavelength (nm):,900,,
End wavelength (nm):,1700,,
Pattern Pixel Width (nm):,   7.03,,,,
Exposure (ms):,  0.635,,,,
Digital Resolution:,228,,
Num Repeats:,6,,
PGA Gain:,64,,
Total Measurement Time in sec:,  2.729,,
Wavelength (nm),Absorbance (AU),Reference Signal (unitless),Sample Signal (unitless)
901.51,1.318199,108485,5214
905.376,1.333837,121306,5624
909.237,1.336085,131909,6084
913.095,1.335648,143299,6616
916.948,1.300041,156982,7867
922.079,1.320269,179937,8607
925.923,1.324399,200504,9500
929.762,1.305500,222660,11019
933.597,1.321300,244426,11664
937.427,1.316082,263972,12749
941.254,1.315355,281845,13635
945.076,1.311096,297271,14523
950.165,1.311567,315605,15402
953.978,1.315171,328029,15876
957.786,1.312547,340470,16578
961.59,1.314369,352317,17083
965.389,1.306660,363056,17919
969.185,1.311754,373162,18203
972.976,1.308716,382632,18796
976.763,1.304935,391202,19385
981.806,1.314285,400190,19408
985.583,1.303505,406088,20189
989.355,1.304647,410162,20338
993.124,1.303909,412868,20507
996.888,1.301369,414263,20697
1000.65,1.305565,415476,20558
1004.4,1.304872,415479,20591
1009.41,1.298520,414358,20838
1013.15,1.304370,412923,20488
1016.89,1.301353,411526,20561
1020.63,1.304854,409066,20274
1024.36,1.295531,406777,20598
1028.09,1.310570,404427,19782
1031.82,1.299661,401911,20159
1036.78,1.303862,398410,19791
1040.49,1.309781,396204,19415
1044.2,1.298806,394236,19813
1047.91,1.300368,392042,19632
1051.61,1.310016,389823,19092
1055.31,1.305024,388234,19234
1059,1.299999,387599,19426
1063.92,1.302907,386688,19251
1067.61,1.310683,386598,18905
1071.29,1.306760,387377,19115
1074.96,1.306719,388536,19174
1078.63,1.315753,389855,18843
1082.3,1.312794,391215,19038
1085.96,1.321420,393215,18759
1090.84,1.309250,396270,19442
1094.49,1.307018,398760,19665
1098.14,1.310608,400987,19612
1101.79,1.313297,403477,19612
1105.43,1.320066,406116,19435
1109.06,1.310508,407701,19945
1112.7,1.318676,409859,19677
1117.53,1.311250,412494,20145
1121.15,1.313786,414909,20145
1124.77,1.313037,416559,20260
1128.38,1.321242,418532,19975
1131.99,1.309020,419956,20615
1135.6,1.316756,421946,20347
1139.2,1.309076,423881,20805
1143.99,1.318435,426786,20501
1147.58,1.308590,428617,21061
1151.17,1.317378,431169,20762
1154.75,1.320511,433579,20728
1158.33,1.316044,436264,21072
1161.91,1.311695,439132,21424
1165.48,1.314013,442389,21468
1169.04,1.312973,446101,21700
1173.79,1.316056,451929,21828
1177.34,1.314421,456026,22109
1180.9,1.325911,461306,21781
1184.44,1.313863,467657,22702
1187.99,1.319935,473969,22689
1191.52,1.313271,479856,23326
1195.06,1.317070,487372,23485
1199.76,1.313760,497347,24149
1203.29,1.320735,504311,24097
1206.81,1.317546,511507,24621
1210.33,1.317571,519078,24984
1213.84,1.313807,527163,25594
1217.35,1.321255,534208,25495
1220.85,1.314953,540472,26171
1225.51,1.317241,549929,26489
1229.01,1.319924,556888,26659
1232.5,1.319639,562180,26930
1235.98,1.319042,567975,27245
1239.46,1.321128,574815,27441
1242.94,1.317233,582782,28072
1246.41,1.321488,591476,28213
1251.03,1.325169,604016,28568
1254.5,1.314200,612289,29700
1257.96,1.327423,619125,29131
1261.41,1.319157,624551,29951
1264.86,1.322035,629900,30008
1268.31,1.318610,634345,30459
1271.75,1.322466,638574,30391
1276.33,1.324885,642499,30408
1279.76,1.328439,645905,30320
1283.19,1.325492,648307,30640
1286.61,1.323126,650446,30909
1290.03,1.321212,652132,31126
1293.44,1.328547,653907,30688
1296.85,1.322419,655963,31222
1301.39,1.327135,657349,30950
1304.8,1.321974,657558,31330
1308.19,1.323813,658515,31243
1311.58,1.325131,658804,31162
1314.97,1.325239,659011,31164
1318.36,1.325659,658272,31099
1321.73,1.329492,658022,30814
1326.23,1.328561,657870,30873
1329.6,1.325721,656482,31010
1332.97,1.325854,654926,30927
1336.33,1.328683,653727,30670
1339.69,1.327610,652497,30688
1343.04,1.323783,649913,30837
1346.39,1.323834,647671,30727
1349.73,1.325559,645338,30495
1354.18,1.325520,641175,30301
1357.52,1.321561,638376,30445
1360.85,1.329735,635805,29757
1364.17,1.325958,633413,29904
1367.49,1.322087,631026,30058
1370.81,1.323210,628050,29839
1374.12,1.325523,625034,29538
1378.54,1.319241,620272,29740
1381.84,1.322571,616892,29352
1385.14,1.322601,613613,29194
1388.43,1.324496,611526,28968
1391.72,1.321252,610663,29144
1395.01,1.321232,610634,29144
1398.29,1.330324,611700,28590
1402.66,1.325747,614051,29004
1405.93,1.322783,616268,29308
1409.2,1.327908,617795,29036
1412.46,1.331004,618872,28880
1415.72,1.327580,619795,29152
1418.98,1.325145,620495,29349
1422.23,1.329797,621087,29064
1426.56,1.324593,621375,29428
1429.8,1.334477,621616,28777
1433.04,1.327532,622129,29265
1436.27,1.328166,621526,29194
1439.5,1.328219,621113,29171
1442.72,1.330384,620921,29017
1445.94,1.328181,620270,29134
1450.23,1.326210,618860,29200
1453.44,1.328138,617697,29016
1456.64,1.324324,616264,29204
1459.85,1.335387,614413,28384
1463.04,1.326192,612307,28892
1466.24,1.333474,610032,28306
1469.43,1.329140,607345,28464
1473.67,1.338656,603789,27684
1476.85,1.329970,601175,28121
1480.02,1.331436,597737,27866
1483.19,1.328190,594479,27922
1486.36,1.334689,591232,27357
1489.52,1.332645,587853,27329
1492.68,1.328823,583875,27384
1496.89,1.327581,578062,27189
1500.03,1.333107,574159,26664
1503.18,1.329629,570285,26697
1506.32,1.326709,565444,26649
1509.45,1.332806,560571,26051
1512.58,1.328195,555821,26106
1515.71,1.334043,550344,25503
1519.87,1.329369,543983,25481
1522.99,1.331102,538764,25136
1526.1,1.331825,533692,24858
1529.21,1.331883,527902,24585
1532.32,1.324404,521886,24727
1535.42,1.333395,515888,23942
1538.51,1.332976,509987,23691
1541.6,1.334610,503936,23322
1545.72,1.330537,494694,23110
1548.8,1.326821,488378,23011
1551.88,1.325742,481832,22759
1554.95,1.329881,474989,22223
1558.02,1.325135,467818,22128
1561.08,1.334089,460730,21348
1564.15,1.330023,454170,21242
1568.22,1.325320,444181,21001
1571.27,1.331928,436947,20347
1574.32,1.327603,429598,20205
1577.36,1.328512,422039,19808
1580.4,1.331117,414375,19332
1583.43,1.321349,406354,19389
1586.46,1.328885,398475,18686
1590.49,1.327953,388982,18280
1593.51,1.331663,380708,17739
1596.53,1.314120,372727,18083
1599.54,1.319947,365060,17475
1602.55,1.317951,357543,17194
1605.55,1.329127,349495,16380
1608.55,1.322471,341154,16236
1612.54,1.328859,330877,15517
1615.53,1.314976,322904,15635
1618.51,1.317542,315116,15168
1621.49,1.314609,307217,14888
1624.47,1.317494,299481,14417
1627.44,1.319421,292112,14000
1630.41,1.304535,284245,14098
1634.36,1.309735,274079,13432
1637.32,1.321137,266916,12742
1640.27,1.306708,259612,12812
1643.22,1.318852,251804,12084
1646.16,1.321608,244348,11652
1649.1,1.319438,236703,11344
1652.04,1.305990,228171,11279
1655.95,1.297232,215408,10865
1658.88,1.298067,204937,10317
1661.8,1.271799,193395,10343
1664.72,1.277075,179728,9496
1667.63,1.272383,163642,8740
1670.54,1.240432,146312,8411
1673.44,1.231078,128451,7545
1677.31,1.203823,105080,6572
1680.21,1.171142,88906,5995
1683.1,1.187100,75033,4877
1685.99,1.159162,63520,4403
1688.87,1.178394,53714,3562
1691.75,1.165733,45653,3117
1694.62,1.190498,39137,2524
1697.49,1.154777,33776,2365
1701.31,1.193387,28175,1805