File: ML/samples/unknown/Column 1_078402_20241121_170055.csv
Method:,Column 1,,
Host Date-Time:,21/11/24 @ 17:0:55,,
Header Version:,1,,
System Temp (C):,34.69,,
Detector Temp (C):,33.88,,
Humidity (%):,2.45,,
Lamp PD:,3802,,
Shift Vector Coefficients:,-10.5391,0.0761263,-0.000134223,,
Pixel to Wavelength Coefficients:,1775.68,-0.916766,-0.000235065,,
Serial Number:,5510004,,
Scan Config Name:,Column 1,,
Scan Config Type:,Slew,,
Section 1,,
Start wavelength (nm):,900,,
End wavelength (nm):,1700,,
Pattern Pixel Width (nm):,   7.03,,,,
Exposure (ms):,  0.635,,,,
Digital Resolution:,228,,
Num Repeats:,6,,
PGA Gain:,64,,
Total Measurement Time in sec:,  2.727,,
Wavelength (nm),Absorbance (AU),Reference Signal (unitless),Sample Signal (unitless)
901.51,1.307828,108485,5340
905.376,1.293245,121306,6175
909.237,1.329497,131909,6177
913.095,1.335779,143299,6614
916.948,1.320847,156982,7499
922.079,1.297561,179937,9069
925.923,1.329088,200504,9398
929.762,1.308188,222660,10951
933.597,1.328811,244426,11464
937.427,1.316423,263972,12739
941.254,1.318135,281845,13548
945.076,1.317270,297271,14318
950.165,1.316530,315605,15227
953.978,1.307041,328029,16176
957.786,1.304861,340470,16874
961.59,1.298053,352317,17737
965.389,1.317159,363056,17491
969.185,1.304679,373162,18502
972.976,1.308116,382632,18822
976.763,1.303794,391202,19436
981.806,1.309368,400190,19629
985.583,1.298139,406088,20440
989.355,1.306488,410162,20252
993.124,1.310696,412868,20189
996.888,1.305777,414263,20488
1000.65,1.304594,415476,20604
1004.4,1.300528,415479,20798
1009.41,1.306746,414358,20447
1013.15,1.298035,412923,20789
1016.89,1.305108,411526,20384
1020.63,1.301376,409066,20437
1024.36,1.313196,406777,19777
1028.09,1.308358,404427,19883
1031.82,1.299704,401911,20157
1036.78,1.299257,398410,20002
1040.49,1.304070,396204,19672
1044.2,1.309996,394236,19309
1047.91,1.312663,392042,19084
1051.61,1.308404,389823,19163
1055.31,1.303987,388234,19280
1059,1.322504,387599,18445
1063.92,1.309935,386688,18942
1067.61,1.312040,386598,18846
1071.29,1.311098,387377,18925
1074.96,1.313176,388536,18891
1078.63,1.302878,389855,19410
1082.3,1.307331,391215,19279
1085.96,1.312870,393215,19132
1090.84,1.311153,396270,19357
1094.49,1.302820,398760,19856
1098.14,1.321756,400987,19115
1101.79,1.313518,403477,19602
1105.43,1.312007,406116,19799
1109.06,1.318596,407701,19577
1112.7,1.315575,409859,19818
1117.53,1.311639,412494,20127
1121.15,1.325453,414909,19611
1124.77,1.320845,416559,19899
1128.38,1.317023,418532,20170
1131.99,1.325596,419956,19843
1135.6,1.315776,421946,20393
1139.2,1.312261,423881,20653
1143.99,1.306504,426786,21072
1147.58,1.314487,428617,20777
1151.17,1.318866,431169,20691
1154.75,1.319904,433579,20757
1158.33,1.313536,436264,21194
1161.91,1.311978,439132,21410
1165.48,1.315533,442389,21393
1169.04,1.325295,446101,21093
1173.79,1.315003,451929,21881
1177.34,1.310665,456026,22301
1180.9,1.319400,461306,22110
1184.44,1.308804,467657,22968
1187.99,1.320126,473969,22679
1191.52,1.324168,479856,22748
1195.06,1.321699,487372,23236
1199.76,1.317898,497347,23920
1203.29,1.326560,504311,23776
1206.81,1.327141,511507,24083
1210.33,1.318110,519078,24953
1213.84,1.313943,527163,25586
1217.35,1.316310,534208,25787
1220.85,1.320514,540472,25838
1225.51,1.315801,549929,26577
1229.01,1.320136,556888,26646
1232.5,1.318560,562180,26997
1235.98,1.324496,567975,26905
1239.46,1.320606,574815,27474
1242.94,1.323575,582782,27665
1246.41,1.322027,591476,28178
1251.03,1.325153,604016,28569
1254.5,1.324603,612289,28997
1257.96,1.332808,619125,28772
1261.41,1.324584,624551,29579
1264.86,1.322904,629900,29948
1268.31,1.324886,634345,30022
1271.75,1.324730,638574,30233
1276.33,1.330071,642499,30047
1279.76,1.323993,645905,30632
1283.19,1.326329,648307,30581
1286.61,1.325098,650446,30769
1290.03,1.329694,652132,30524
1293.44,1.327840,653907,30738
1296.85,1.329119,655963,30744
1301.39,1.331295,657349,30655
1304.8,1.327723,657558,30918
1308.19,1.326392,658515,31058
1311.58,1.329839,658804,30826
1314.97,1.332221,659011,30667
1318.36,1.330109,658272,30782
1321.73,1.325787,658022,31078
1326.23,1.333556,657870,30520
1329.6,1.331303,656482,30614
1332.97,1.328559,654926,30735
1336.33,1.330144,653727,30567
1339.69,1.331120,652497,30441
1343.04,1.329140,649913,30459
1346.39,1.327924,647671,30439
1349.73,1.325958,645338,30467
1354.18,1.323446,641175,30446
1357.52,1.330671,638376,29813
1360.85,1.322512,635805,30256
1364.17,1.318756,633413,30404
1367.49,1.329064,631026,29579
1370.81,1.323559,628050,29815
1374.12,1.332220,625034,29086
1378.54,1.327661,620272,29169
1381.84,1.320564,616892,29488
1385.14,1.331604,613613,28595
1388.43,1.320230,611526,29254
1391.72,1.327088,610663,28755
1395.01,1.329506,610634,28594
1398.29,1.328263,611700,28726
1402.66,1.331611,614051,28615
1405.93,1.332706,616268,28646
1409.2,1.329661,617795,28919
1412.46,1.335068,618872,28611
1415.72,1.333504,619795,28757
1418.98,1.340170,620495,28351
1422.23,1.333323,621087,28829
1426.56,1.329969,621375,29066
1429.8,1.330361,621616,29051
1433.04,1.332157,622129,28955
1436.27,1.332486,621526,28905
1439.5,1.332934,621113,28856
1442.72,1.331793,620921,28923
1445.94,1.334049,620270,28743
1450.23,1.332260,618860,28796
1453.44,1.333378,617697,28668
1456.64,1.333902,616264,28567
1459.85,1.332444,614413,28577
1463.04,1.331105,612307,28567
1466.24,1.335458,610032,28177
1469.43,1.333757,607345,28163
1473.67,1.335406,603789,27892
1476.85,1.330851,601175,28064
1480.02,1.337920,597737,27453
1483.19,1.333637,594479,27574
1486.36,1.330377,591232,27630
1489.52,1.329699,587853,27515
1492.68,1.335600,583875,26960
1496.89,1.340042,578062,26420
1500.03,1.339523,574159,26273
1503.18,1.337327,570285,26228
1506.32,1.335383,565444,26122
1509.45,1.326961,560571,26404
1512.58,1.330179,555821,25987
1515.71,1.341757,550344,25054
1519.87,1.338550,543983,24948
1522.99,1.336439,538764,24829
1526.1,1.335333,533692,24658
1529.21,1.330490,527902,24664
1532.32,1.341949,521886,23748
1535.42,1.333703,515888,23925
1538.51,1.336621,509987,23493
1541.6,1.329279,503936,23610
1545.72,1.327093,494694,23294
1548.8,1.329870,488378,22850
1551.88,1.328461,481832,22617
1554.95,1.339025,474989,21760
1558.02,1.336730,467818,21545
1561.08,1.334720,460730,21317
1564.15,1.331354,454170,21177
1568.22,1.337653,444181,20413
1571.27,1.327765,436947,20543
1574.32,1.335236,429598,19853
1577.36,1.330093,422039,19736
1580.4,1.328608,414375,19444
1583.43,1.329694,406354,19020
1586.46,1.328745,398475,18692
1590.49,1.327835,388982,18285
1593.51,1.323538,380708,18074
1596.53,1.319923,372727,17843
1599.54,1.336306,365060,16829
1602.55,1.324774,357543,16926
1605.55,1.332080,349495,16269
1608.55,1.326908,341154,16071
1612.54,1.320900,330877,15804
1615.53,1.315309,322904,15623
1618.51,1.339385,315116,14424
1621.49,1.316744,307217,14815
1624.47,1.312076,299481,14598
1627.44,1.306795,292112,14413
1630.41,1.318656,284245,13647
1634.36,1.317598,274079,13191
1637.32,1.308408,266916,13121
1640.27,1.299714,259612,13020
1643.22,1.305858,251804,12451
1646.16,1.315685,244348,11812
1649.1,1.312751,236703,11520
1652.04,1.289370,228171,11719
1655.95,1.314645,215408,10438
1658.88,1.302850,204937,10204
1661.8,1.281522,193395,10114
1664.72,1.266458,179728,9731
1667.63,1.253757,163642,9123
1670.54,1.239865,146312,8422
1673.44,1.222247,128451,7700
1677.31,1.205942,105080,6540
1680.21,1.198114,88906,5634
1683.1,1.179596,75033,4962
1685.99,1.184026,63520,4158
1688.87,1.151792,53714,3787
1691.75,1.194682,45653,2916
1694.62,1.170984,39137,2640
1697.49,1.204738,33776,2108
1701.31,1.200910,28175,1774