File: ML/samples/unknown/Column 1_078408_20241121_170113.csv
Method:,Column 1,,
Host Date-Time:,21/11/24 @ 17:1:13,,
Header Version:,1,,
System Temp (C):,34.7,,
Detector Temp (C):,33.75,,
Humidity (%):,2.25,,
Lamp PD:,3801,,
Shift Vector Coefficients:,-10.5391,0.0761263,-0.000134223,,
Pixel to Wavelength Coefficients:,1775.68,-0.916766,-0.000235065,,
Serial Number:,5510004,,
Scan Config Name:,Column 1,,
Scan Config Type:,Slew,,
Section 1,,
Start wavelength (nm):,900,,
End wavelength (nm):,1700,,
Pattern Pixel Width (nm):,   7.03,,,,
Exposure (ms):,  0.635,,,,
Digital Resolution:,228,,
Num Repeats:,6,,
PGA Gain:,64,,
Total Measurement Time in sec:,  2.736,,
Wavelength (nm),Absorbance (AU),Reference Signal (unitless),Sample Signal (unitless)
901.51,1.330190,108485,5072
905.376,1.323384,121306,5761
909.237,1.317980,131909,6343
913.095,1.311207,143299,6999
916.948,1.307558,156982,7732
922.079,1.328778,179937,8440
925.923,1.318813,200504,9623
929.762,1.313455,222660,10819
933.597,1.313258,244426,11882
937.427,1.306613,263972,13030
941.254,1.327991,281845,13244
945.076,1.324149,297271,14093
950.165,1.302995,315605,15709
953.978,1.315554,328029,15862
957.786,1.315860,340470,16452
961.59,1.307885,352317,17340
965.389,1.313475,363056,17640
969.185,1.311015,373162,18234
972.976,1.309572,382632,18759
976.763,1.307564,391202,19268
981.806,1.307139,400190,19730
985.583,1.309483,406088,19913
989.355,1.303964,410162,20370
993.124,1.304693,412868,20470
996.888,1.300467,414263,20740
1000.65,1.304026,415476,20631
1004.4,1.312167,415479,20248
1009.41,1.308470,414358,20366
1013.15,1.300214,412923,20685
1016.89,1.302643,411526,20500
1020.63,1.305240,409066,20256
1024.36,1.313306,406777,19772
1028.09,1.309014,404427,19853
1031.82,1.304753,401911,19924
1036.78,1.315066,398410,19287
1040.49,1.301846,396204,19773
1044.2,1.313293,394236,19163
1047.91,1.304525,392042,19445
1051.61,1.308268,389823,19169
1055.31,1.309039,388234,19057
1059,1.307668,387599,19086
1063.92,1.309843,386688,18946
1067.61,1.312248,386598,18837
1071.29,1.307601,387377,19078
1074.96,1.311021,388536,18985
1078.63,1.315454,389855,18856
1082.3,1.313228,391215,19019
1085.96,1.318122,393215,18902
1090.84,1.306733,396270,19555
1094.49,1.314278,398760,19339
1098.14,1.320259,400987,19181
1101.79,1.315028,403477,19534
1105.43,1.317570,406116,19547
1109.06,1.312231,407701,19866
1112.7,1.317375,409859,19736
1117.53,1.314366,412494,20001
1121.15,1.315947,414909,20045
1124.77,1.318581,416559,20003
1128.38,1.313655,418532,20327
1131.99,1.313829,419956,20388
1135.6,1.320121,421946,20190
1139.2,1.317188,423881,20420
1143.99,1.321603,426786,20352
1147.58,1.326718,428617,20200
1151.17,1.317546,431169,20754
1154.75,1.320322,433579,20737
1158.33,1.322208,436264,20775
1161.91,1.311431,439132,21437
1165.48,1.317384,442389,21302
1169.04,1.315402,446101,21579
1173.79,1.316654,451929,21798
1177.34,1.313557,456026,22153
1180.9,1.319224,461306,22119
1184.44,1.316415,467657,22569
1187.99,1.322623,473969,22549
1191.52,1.317668,479856,23091
1195.06,1.327210,487372,22943
1199.76,1.316394,497347,24003
1203.29,1.322035,504311,24025
1206.81,1.318853,511507,24547
1210.33,1.332657,519078,24131
1213.84,1.321960,527163,25118
1217.35,1.325036,534208,25274
1220.85,1.322925,540472,25695
1225.51,1.319905,549929,26327
1229.01,1.321491,556888,26563
1232.5,1.318898,562180,26976
1235.98,1.323819,567975,26947
1239.46,1.313831,574815,27906
1242.94,1.322964,582782,27704
1246.41,1.321134,591476,28236
1251.03,1.317603,604016,29070
1254.5,1.319408,612289,29346
1257.96,1.321177,619125,29553
1261.41,1.320827,624551,29836
1264.86,1.320186,629900,30136
1268.31,1.323254,634345,30135
1271.75,1.327193,638574,30062
1276.33,1.326932,642499,30265
1279.76,1.325499,645905,30526
1283.19,1.328179,648307,30451
1286.61,1.334327,650446,30122
1290.03,1.323815,652132,30940
1293.44,1.329440,653907,30625
1296.85,1.328724,655963,30772
1301.39,1.327585,657349,30918
1304.8,1.334432,657558,30444
1308.19,1.328888,658515,30880
1311.58,1.333574,658804,30562
1314.97,1.326691,659011,31060
1318.36,1.328953,658272,30864
1321.73,1.328760,658022,30866
1326.23,1.334268,657870,30470
1329.6,1.331743,656482,30583
1332.97,1.329379,654926,30677
1336.33,1.328102,653727,30711
1339.69,1.328233,652497,30644
1343.04,1.330611,649913,30356
1346.39,1.330041,647671,30291
1349.73,1.326271,645338,30445
1354.18,1.327257,641175,30180
1357.52,1.328999,638376,29928
1360.85,1.326956,635805,29948
1364.17,1.326147,633413,29891
1367.49,1.330078,631026,29510
1370.81,1.331423,628050,29280
1374.12,1.328606,625034,29329
1378.54,1.331805,620272,28892
1381.84,1.326914,616892,29060
1385.14,1.321502,613613,29268
1388.43,1.330550,611526,28567
1391.72,1.329739,610663,28580
1395.01,1.326615,610634,28785
1398.29,1.324815,611700,28955
1402.66,1.330141,614051,28712
1405.93,1.327881,616268,28966
1409.2,1.318015,617795,29705
1412.46,1.329487,618872,28981
1415.72,1.327461,619795,29160
1418.98,1.332487,620495,28857
1422.23,1.330934,621087,28988
1426.56,1.325820,621375,29345
1429.8,1.329778,621616,29090
1433.04,1.332217,622129,28951
1436.27,1.332516,621526,28903
1439.5,1.334065,621113,28781
1442.72,1.330025,620921,29041
1445.94,1.335562,620270,28643
1450.23,1.330950,618860,28883
1453.44,1.336297,617697,28476
1456.64,1.333492,616264,28594
1459.85,1.330397,614413,28712
1463.04,1.335659,612307,28269
1466.24,1.337157,610032,28067
1469.43,1.329781,607345,28422
1473.67,1.339646,603789,27621
1476.85,1.333303,601175,27906
1480.02,1.333388,597737,27741
1483.19,1.335246,594479,27472
1486.36,1.339494,591232,27056
1489.52,1.337423,587853,27030
1492.68,1.338834,583875,26760
1496.89,1.338516,578062,26513
1500.03,1.335590,574159,26512
1503.18,1.339268,570285,26111
1506.32,1.341427,565444,25761
1509.45,1.339374,560571,25660
1512.58,1.339162,555821,25455
1515.71,1.336091,550344,25383
1519.87,1.337211,543983,25025
1522.99,1.337157,538764,24788
1526.1,1.339030,533692,24449
1529.21,1.330613,527902,24657
1532.32,1.325160,521886,24684
1535.42,1.332978,515888,23965
1538.51,1.338733,509987,23379
1541.6,1.332233,503936,23450
1545.72,1.337279,494694,22754
1548.8,1.327085,488378,22997
1551.88,1.331718,481832,22448
1554.95,1.331820,474989,22124
1558.02,1.330864,467818,21838
1561.08,1.332870,460730,21408
1564.15,1.332977,454170,21098
1568.22,1.329476,444181,20801
1571.27,1.328167,436947,20524
1574.32,1.331230,429598,20037
1577.36,1.333473,422039,19583
1580.4,1.329749,414375,19393
1583.43,1.322875,406354,19321
1586.46,1.331823,398475,18560
1590.49,1.328881,388982,18241
1593.51,1.323105,380708,18092
1596.53,1.333897,372727,17278
1599.54,1.330233,365060,17066
1602.55,1.328226,357543,16792
1605.55,1.332401,349495,16257
1608.55,1.330380,341154,15943
1612.54,1.327462,330877,15567
1615.53,1.328145,322904,15168
1618.51,1.318029,315116,15151
1621.49,1.325389,307217,14523
1624.47,1.319608,299481,14347
1627.44,1.318213,292112,14039
1630.41,1.315864,284245,13735
1634.36,1.316185,274079,13234
1637.32,1.325694,266916,12609
1640.27,1.307862,259612,12778
1643.22,1.321194,251804,12019
1646.16,1.299200,244348,12269
1649.1,1.307393,236703,11663
1652.04,1.302691,228171,11365
1655.95,1.299155,215408,10817
1658.88,1.287586,204937,10569
1661.8,1.286880,193395,9990
1664.72,1.283479,179728,9357
1667.63,1.246487,163642,9277
1670.54,1.243593,146312,8350
1673.44,1.202780,128451,8053
1677.31,1.200138,105080,6628
1680.21,1.190852,88906,5729
1683.1,1.203524,75033,4696
1685.99,1.196207,63520,4043
1688.87,1.178882,53714,3558
1691.75,1.173464,45653,3062
1694.62,1.172137,39137,2633
1697.49,1.223472,33776,2019
1701.31,1.168831,28175,1910