File: ML/samples/unknown/Column 1_078920_20241121_172834.csv
Method:,Column 1,,
Host Date-Time:,21/11/24 @ 17:28:34,,
Header Version:,1,,
System Temp (C):,37.21,,
Detector Temp (C):,36.38,,
Humidity (%):,0.48,,
Lamp PD:,3796,,
Shift Vector Coefficients:,-10.5391,0.0761263,-0.000134223,,
Pixel to Wavelength Coefficients:,1775.68,-0.916766,-0.000235065,,
Serial Number:,5510004,,
Scan Config Name:,Column 1,,
Scan Config Type:,Slew,,
Section 1,,
Start wavelength (nm):,900,,
End wavelength (nm):,1700,,
Pattern Pixel Width (nm):,   7.03,,,,
Exposure (ms):,  0.635,,,,
Digital Resolution:,228,,
Num Repeats:,6,,
PGA Gain:,64,,
Total Measurement Time in sec:,  2.727,,
Wavelength (nm),Absorbance (AU),Reference Signal (unitless),Sample Signal (unitless)
901.51,1.289437,108485,5571
905.376,1.303637,121306,6029
909.237,1.300994,131909,6596
913.095,1.311704,143299,6991
916.948,1.319979,156982,7514
922.079,1.322545,179937,8562
925.923,1.313787,200504,9735
929.762,1.320089,222660,10655
933.597,1.314942,244426,11836
937.427,1.324196,263972,12513
941.254,1.320417,281845,13477
945.076,1.313405,297271,14446
950.165,1.316501,315605,15228
953.978,1.301015,328029,16402
957.786,1.317951,340470,16373
961.59,1.306909,352317,17379
965.389,1.301887,363056,18117
969.185,1.302571,373162,18592
972.976,1.314765,382632,18536
976.763,1.307069,391202,19290
981.806,1.305579,400190,19801
985.583,1.304863,406088,20126
989.355,1.298667,410162,20620
993.124,1.309065,412868,20265
996.888,1.292808,414263,21109
1000.65,1.302701,415476,20694
1004.4,1.305441,415479,20564
1009.41,1.302245,414358,20660
1013.15,1.307347,412923,20348
1016.89,1.306666,411526,20311
1020.63,1.301631,409066,20425
1024.36,1.304457,406777,20179
1028.09,1.298724,404427,20329
1031.82,1.305954,401911,19869
1036.78,1.297631,398410,20077
1040.49,1.298695,396204,19917
1044.2,1.305855,394236,19494
1047.91,1.300877,392042,19609
1051.61,1.302462,389823,19427
1055.31,1.304257,388234,19268
1059,1.305036,387599,19202
1063.92,1.308424,386688,19008
1067.61,1.300377,386598,19359
1071.29,1.305489,387377,19171
1074.96,1.304234,388536,19284
1078.63,1.316399,389855,18815
1082.3,1.320179,391215,18717
1085.96,1.309906,393215,19263
1090.84,1.304452,396270,19658
1094.49,1.301466,398760,19918
1098.14,1.310808,400987,19603
1101.79,1.312191,403477,19662
1105.43,1.314184,406116,19700
1109.06,1.305098,407701,20195
1112.7,1.314983,409859,19845
1117.53,1.316499,412494,19903
1121.15,1.308621,414909,20386
1124.77,1.314067,416559,20212
1128.38,1.317324,418532,20156
1131.99,1.301047,419956,20997
1135.6,1.310400,421946,20647
1139.2,1.313419,423881,20598
1143.99,1.317124,426786,20563
1147.58,1.306287,428617,21173
1151.17,1.323190,431169,20486
1154.75,1.318275,433579,20835
1158.33,1.315529,436264,21097
1161.91,1.303681,439132,21823
1165.48,1.308325,442389,21751
1169.04,1.314236,446101,21637
1173.79,1.304357,451929,22424
1177.34,1.310354,456026,22317
1180.9,1.312367,461306,22471
1184.44,1.308748,467657,22971
1187.99,1.314249,473969,22988
1191.52,1.309471,479856,23531
1195.06,1.321307,487372,23257
1199.76,1.310910,497347,24308
1203.29,1.311710,504311,24603
1206.81,1.315101,511507,24760
1210.33,1.321359,519078,24767
1213.84,1.318224,527163,25335
1217.35,1.318708,534208,25645
1220.85,1.319876,540472,25876
1225.51,1.318785,549929,26395
1229.01,1.315209,556888,26950
1232.5,1.320592,562180,26871
1235.98,1.316167,567975,27426
1239.46,1.320069,574815,27508
1242.94,1.321352,582782,27807
1246.41,1.315465,591476,28607
1251.03,1.318411,604016,29016
1254.5,1.320920,612289,29244
1257.96,1.320472,619125,29601
1261.41,1.324599,624551,29578
1264.86,1.322773,629900,29957
1268.31,1.318596,634345,30460
1271.75,1.321382,638574,30467
1276.33,1.319026,642499,30821
1279.76,1.319227,645905,30970
1283.19,1.324049,648307,30742
1286.61,1.327263,650446,30616
1290.03,1.323436,652132,30967
1293.44,1.327290,653907,30777
1296.85,1.328131,655963,30814
1301.39,1.326715,657349,30980
1304.8,1.325761,657558,31058
1308.19,1.325945,658515,31090
1311.58,1.323906,658804,31250
1314.97,1.328176,659011,30954
1318.36,1.326400,658272,31046
1321.73,1.324545,658022,31167
1326.23,1.327255,657870,30966
1329.6,1.323625,656482,31160
1332.97,1.327740,654926,30793
1336.33,1.327947,653727,30722
1339.69,1.331162,652497,30438
1343.04,1.329568,649913,30429
1346.39,1.329582,647671,30323
1349.73,1.327686,645338,30346
1354.18,1.320008,641175,30688
1357.52,1.325199,638376,30191
1360.85,1.324642,635805,30108
1364.17,1.325696,633413,29922
1367.49,1.323563,631026,29956
1370.81,1.328143,628050,29502
1374.12,1.331161,625034,29157
1378.54,1.323069,620272,29479
1381.84,1.327482,616892,29022
1385.14,1.318706,613613,29457
1388.43,1.319221,611526,29322
1391.72,1.321506,610663,29127
1395.01,1.320562,610634,29189
1398.29,1.326242,611700,28860
1402.66,1.317926,614051,29531
1405.93,1.322546,616268,29324
1409.2,1.325968,617795,29166
1412.46,1.329802,618872,28960
1415.72,1.322721,619795,29480
1418.98,1.329458,620495,29059
1422.23,1.328246,621087,29168
1426.56,1.329386,621375,29105
1429.8,1.331094,621616,29002
1433.04,1.326361,622129,29344
1436.27,1.332757,621526,28887
1439.5,1.326555,621113,29283
1442.72,1.328890,620921,29117
1445.94,1.325047,620270,29345
1450.23,1.325942,618860,29218
1453.44,1.323523,617697,29326
1456.64,1.330163,616264,28814
1459.85,1.333083,614413,28535
1463.04,1.328105,612307,28765
1466.24,1.330371,610032,28509
1469.43,1.327708,607345,28558
1473.67,1.333975,603789,27984
1476.85,1.328998,601175,28184
1480.02,1.328531,597737,28053
1483.19,1.331484,594479,27711
1486.36,1.326777,591232,27860
1489.52,1.330837,587853,27443
1492.68,1.327414,583875,27473
1496.89,1.329631,578062,27061
1500.03,1.334396,574159,26585
1503.18,1.333240,570285,26476
1506.32,1.334752,565444,26160
1509.45,1.339831,560571,25633
1512.58,1.326750,555821,26193
1515.71,1.332259,550344,25608
1519.87,1.330906,543983,25391
1522.99,1.329946,538764,25203
1526.1,1.331301,533692,24888
1529.21,1.324457,527902,25009
1532.32,1.330756,521886,24368
1535.42,1.336490,515888,23772
1538.51,1.329688,509987,23871
1541.6,1.335598,503936,23269
1545.72,1.324601,494694,23428
1548.8,1.332443,488378,22715
1551.88,1.327272,481832,22679
1554.95,1.328437,474989,22297
1558.02,1.325606,467818,22104
1561.08,1.329254,460730,21587
1564.15,1.327292,454170,21376
1568.22,1.327102,444181,20915
1571.27,1.327406,436947,20560
1574.32,1.327324,429598,20218
1577.36,1.324648,422039,19985
1580.4,1.321870,414375,19748
1583.43,1.325309,406354,19213
1586.46,1.329839,398475,18645
1590.49,1.319903,388982,18622
1593.51,1.320688,380708,18193
1596.53,1.316287,372727,17993
1599.54,1.314857,365060,17681
1602.55,1.323723,357543,16967
1605.55,1.318597,349495,16782
1608.55,1.327205,341154,16060
1612.54,1.322689,330877,15739
1615.53,1.311738,322904,15752
1618.51,1.323916,315116,14947
1621.49,1.325090,307217,14533
1624.47,1.327089,299481,14102
1627.44,1.299030,292112,14673
1630.41,1.304381,284245,14103
1634.36,1.317203,274079,13203
1637.32,1.303733,266916,13263
1640.27,1.311377,259612,12675
1643.22,1.316594,251804,12147
1646.16,1.307563,244348,12035
1649.1,1.306055,236703,11699
1652.04,1.307726,228171,11234
1655.95,1.292501,215408,10984
1658.88,1.289976,204937,10511
1661.8,1.269495,193395,10398
1664.72,1.271305,179728,9623
1667.63,1.244246,163642,9325
1670.54,1.238064,146312,8457
1673.44,1.187988,128451,8332
1677.31,1.151702,105080,7410
1680.21,1.160480,88906,6144
1683.1,1.118692,75033,5709
1685.99,1.111564,63520,4913
1688.87,1.124782,53714,4030
1691.75,1.146385,45653,3259
1694.62,1.157062,39137,2726
1697.49,1.131016,33776,2498
1701.31,1.084938,28175,2317