File: ML/samples/unknown/Column 1_078427_20241121_170208.csv
Method:,Column 1,,
Host Date-Time:,21/11/24 @ 17:2:8,,
Header Version:,1,,
System Temp (C):,34.83,,
Detector Temp (C):,33.7,,
Humidity (%):,2.5,,
Lamp PD:,3802,,
Shift Vector Coefficients:,-10.5391,0.0761263,-0.000134223,,
Pixel to Wavelength Coefficients:,1775.68,-0.916766,-0.000235065,,
Serial Number:,5510004,,
Scan Config Name:,Column 1,,
Scan Config Type:,Slew,,
Section 1,,
Start wavelength (nm):,900,,
End wavelength (nm):,1700,,
Pattern Pixel Width (nm):,   7.03,,,,
Exposure (ms):,  0.635,,,,
Digital Resolution:,228,,
Num Repeats:,6,,
PGA Gain:,64,,
Total Measurement Time in sec:,  2.718,,
Wavelength (nm),Absorbance (AU),Reference Signal (unitless),Sample Signal (unitless)
901.51,1.319701,108485,5196
905.376,1.326486,121306,5720
909.237,1.299482,131909,6619
913.095,1.315134,143299,6936
916.948,1.319286,156982,7526
922.079,1.326264,179937,8489
925.923,1.321483,200504,9564
929.762,1.330358,222660,10406
933.597,1.320147,244426,11695
937.427,1.316320,263972,12742
941.254,1.328385,281845,13232
945.076,1.318911,297271,14264
950.165,1.310694,315605,15433
953.978,1.316678,328029,15821
957.786,1.312573,340470,16577
961.59,1.309868,352317,17261
965.389,1.307655,363056,17878
969.185,1.297347,373162,18817
972.976,1.312755,382632,18622
976.763,1.305316,391202,19368
981.806,1.307734,400190,19703
985.583,1.313625,406088,19724
989.355,1.307497,410162,20205
993.124,1.304736,412868,20468
996.888,1.307157,414263,20423
1000.65,1.301444,415476,20754
1004.4,1.308089,415479,20439
1009.41,1.308747,414358,20353
1013.15,1.316732,412923,19913
1016.89,1.302283,411526,20517
1020.63,1.311263,409066,19977
1024.36,1.303640,406777,20217
1028.09,1.312396,404427,19699
1031.82,1.310436,401911,19665
1036.78,1.308495,398410,19581
1040.49,1.305929,396204,19588
1044.2,1.310875,394236,19270
1047.91,1.308181,392042,19282
1051.61,1.310653,389823,19064
1055.31,1.310317,388234,19001
1059,1.306327,387599,19145
1063.92,1.310072,386688,18936
1067.61,1.311557,386598,18867
1071.29,1.310044,387377,18971
1074.96,1.309536,388536,19050
1078.63,1.322395,389855,18557
1082.3,1.308052,391215,19247
1085.96,1.312983,393215,19127
1090.84,1.313989,396270,19231
1094.49,1.312127,398760,19435
1098.14,1.325475,400987,18952
1101.79,1.315717,403477,19503
1105.43,1.308272,406116,19970
1109.06,1.314247,407701,19774
1112.7,1.312539,409859,19957
1117.53,1.309894,412494,20208
1121.15,1.312473,414909,20206
1124.77,1.311432,416559,20335
1128.38,1.317432,418532,20151
1131.99,1.313318,419956,20412
1135.6,1.310589,421946,20638
1139.2,1.329877,423881,19832
1143.99,1.316828,426786,20577
1147.58,1.312505,428617,20872
1151.17,1.322767,431169,20506
1154.75,1.309955,433579,21238
1158.33,1.314480,436264,21148
1161.91,1.320583,439132,20990
1165.48,1.314296,442389,21454
1169.04,1.327690,446101,20977
1173.79,1.307116,451929,22282
1177.34,1.321431,456026,21755
1180.9,1.321053,461306,22026
1184.44,1.311422,467657,22830
1187.99,1.313531,473969,23026
1191.52,1.317725,479856,23088
1195.06,1.320598,487372,23295
1199.76,1.319864,497347,23812
1203.29,1.323284,504311,23956
1206.81,1.317105,511507,24646
1210.33,1.322852,519078,24682
1213.84,1.318275,527163,25332
1217.35,1.315132,534208,25857
1220.85,1.326335,540472,25494
1225.51,1.316864,549929,26512
1229.01,1.316985,556888,26840
1232.5,1.326171,562180,26528
1235.98,1.323770,567975,26950
1239.46,1.323907,574815,27266
1242.94,1.322306,582782,27746
1246.41,1.323014,591476,28114
1251.03,1.320166,604016,28899
1254.5,1.327232,612289,28822
1257.96,1.318715,619125,29721
1261.41,1.319403,624551,29934
1264.86,1.325945,629900,29739
1268.31,1.320367,634345,30336
1271.75,1.320072,638574,30559
1276.33,1.326072,642499,30325
1279.76,1.328884,645905,30289
1283.19,1.323653,648307,30770
1286.61,1.323928,650446,30852
1290.03,1.329594,652132,30531
1293.44,1.331102,653907,30508
1296.85,1.327047,655963,30891
1301.39,1.329923,657349,30752
1304.8,1.328651,657558,30852
1308.19,1.329888,658515,30809
1311.58,1.335369,658804,30436
1314.97,1.327980,659011,30968
1318.36,1.327604,658272,30960
1321.73,1.327019,658022,30990
1326.23,1.331695,657870,30651
1329.6,1.327813,656482,30861
1332.97,1.332605,654926,30450
1336.33,1.330712,653727,30527
1339.69,1.326437,652497,30771
1343.04,1.327688,649913,30561
1346.39,1.329926,647671,30299
1349.73,1.331423,645338,30086
1354.18,1.326883,641175,30206
1357.52,1.325559,638376,30166
1360.85,1.326492,635805,29980
1364.17,1.323279,633413,30089
1367.49,1.328140,631026,29642
1370.81,1.328099,628050,29505
1374.12,1.324979,625034,29575
1378.54,1.325418,620272,29320
1381.84,1.322719,616892,29342
1385.14,1.324300,613613,29080
1388.43,1.325547,611526,28898
1391.72,1.322790,610663,29041
1395.01,1.329354,610634,28604
1398.29,1.324920,611700,28948
1402.66,1.332994,614051,28524
1405.93,1.329022,616268,28890
1409.2,1.331588,617795,28791
1412.46,1.326694,618872,29168
1415.72,1.329835,619795,29001
1418.98,1.331450,620495,28926
1422.23,1.331069,621087,28979
1426.56,1.334595,621375,28758
1429.8,1.329092,621616,29136
1433.04,1.325223,622129,29421
1436.27,1.332757,621526,28887
1439.5,1.329726,621113,29070
1442.72,1.330444,620921,29013
1445.94,1.325891,620270,29288
1450.23,1.330064,618860,28942
1453.44,1.332183,617697,28747
1456.64,1.335013,616264,28494
1459.85,1.328947,614413,28808
1463.04,1.336428,612307,28219
1466.24,1.331041,610032,28465
1469.43,1.334189,607345,28135
1473.67,1.328378,603789,28347
1476.85,1.331409,601175,28028
1480.02,1.339093,597737,27379
1483.19,1.331500,594479,27710
1486.36,1.339013,591232,27086
1489.52,1.338114,587853,26987
1492.68,1.327714,583875,27454
1496.89,1.338352,578062,26523
1500.03,1.336574,574159,26452
1503.18,1.330378,570285,26651
1506.32,1.336399,565444,26061
1509.45,1.330810,560571,26171
1512.58,1.342828,555821,25241
1515.71,1.335681,550344,25407
1519.87,1.332705,543983,25286
1522.99,1.339564,538764,24651
1526.1,1.334611,533692,24699
1529.21,1.337734,527902,24256
1532.32,1.337654,521886,23984
1535.42,1.330574,515888,24098
1538.51,1.334850,509987,23589
1541.6,1.337543,503936,23165
1545.72,1.332043,494694,23030
1548.8,1.332922,488378,22690
1551.88,1.333346,481832,22364
1554.95,1.334379,474989,21994
1558.02,1.334138,467818,21674
1561.08,1.330988,460730,21501
1564.15,1.338633,454170,20825
1568.22,1.330458,444181,20754
1571.27,1.335056,436947,20201
1574.32,1.336353,429598,19802
1577.36,1.329544,422039,19761
1580.4,1.336383,414375,19099
1583.43,1.344087,406354,18400
1586.46,1.326289,398475,18798
1590.49,1.322195,388982,18524
1593.51,1.326794,380708,17939
1596.53,1.326644,372727,17569
1599.54,1.330920,365060,17039
1602.55,1.319520,357543,17132
1605.55,1.311997,349495,17039
1608.55,1.323194,341154,16209
1612.54,1.313948,330877,16059
1615.53,1.321214,322904,15412
1618.51,1.326949,315116,14843
1621.49,1.313618,307217,14922
1624.47,1.321976,299481,14269
1627.44,1.318028,292112,14045
1630.41,1.328309,284245,13347
1634.36,1.317039,274079,13208
1637.32,1.316425,266916,12881
1640.27,1.313920,259612,12601
1643.22,1.308904,251804,12364
1646.16,1.307491,244348,12037
1649.1,1.308400,236703,11636
1652.04,1.299569,228171,11447
1655.95,1.304569,215408,10683
1658.88,1.292213,204937,10457
1661.8,1.288055,193395,9963
1664.72,1.270268,179728,9646
1667.63,1.270796,163642,8772
1670.54,1.234789,146312,8521
1673.44,1.222981,128451,7687
1677.31,1.197915,105080,6662
1680.21,1.164456,88906,6088
1683.1,1.175328,75033,5011
1685.99,1.199658,63520,4011
1688.87,1.125430,53714,4024
1691.75,1.158684,45653,3168
1694.62,1.207876,39137,2425
1697.49,1.164245,33776,2314
1701.31,1.131175,28175,2083