File: ML/samples/unknown/Column 1_078250_20241121_165251.csv
Method:,Column 1,,
Host Date-Time:,21/11/24 @ 16:52:51,,
Header Version:,1,,
System Temp (C):,34.34,,
Detector Temp (C):,31.73,,
Humidity (%):,2.45,,
Lamp PD:,3802,,
Shift Vector Coefficients:,-10.5391,0.0761263,-0.000134223,,
Pixel to Wavelength Coefficients:,1775.68,-0.916766,-0.000235065,,
Serial Number:,5510004,,
Scan Config Name:,Column 1,,
Scan Config Type:,Slew,,
Section 1,,
Start wavelength (nm):,900,,
End wavelength (nm):,1700,,
Pattern Pixel Width (nm):,   7.03,,,,
Exposure (ms):,  0.635,,,,
Digital Resolution:,228,,
Num Repeats:,6,,
PGA Gain:,64,,
Total Measurement Time in sec:,  2.726,,
Wavelength (nm),Absorbance (AU),Reference Signal (unitless),Sample Signal (unitless)
901.51,1.286175,108485,5613
905.376,1.346292,121306,5465
909.237,1.287702,131909,6801
913.095,1.347897,143299,6432
916.948,1.321600,156982,7486
922.079,1.334111,179937,8337
925.923,1.323212,200504,9526
929.762,1.319071,222660,10680
933.597,1.327487,244426,11499
937.427,1.319056,263972,12662
941.254,1.297447,281845,14209
945.076,1.305392,297271,14715
950.165,1.312103,315605,15383
953.978,1.318136,328029,15768
957.786,1.306614,340470,16806
961.59,1.312012,352317,17176
965.389,1.306781,363056,17914
969.185,1.322454,373162,17760
972.976,1.310452,382632,18721
976.763,1.307542,391202,19269
981.806,1.308374,400190,19674
985.583,1.310051,406088,19887
989.355,1.320411,410162,19613
993.124,1.310976,412868,20176
996.888,1.309737,414263,20302
1000.65,1.306009,415476,20537
1004.4,1.300319,415479,20808
1009.41,1.311788,414358,20211
1013.15,1.305962,412923,20413
1016.89,1.312391,411526,20045
1020.63,1.316578,409066,19734
1024.36,1.309218,406777,19959
1028.09,1.306027,404427,19990
1031.82,1.312628,401911,19566
1036.78,1.304631,398410,19756
1040.49,1.309022,396204,19449
1044.2,1.307462,394236,19422
1047.91,1.304346,392042,19453
1051.61,1.313075,389823,18958
1055.31,1.312586,388234,18902
1059,1.311484,387599,18919
1063.92,1.319931,386688,18511
1067.61,1.310338,386598,18920
1071.29,1.311925,387377,18889
1074.96,1.309536,388536,19050
1078.63,1.312676,389855,18977
1082.3,1.307601,391215,19267
1085.96,1.303617,393215,19544
1090.84,1.316844,396270,19105
1094.49,1.317049,398760,19216
1098.14,1.323167,400987,19053
1101.79,1.321501,403477,19245
1105.43,1.311809,406116,19808
1109.06,1.303381,407701,20275
1112.7,1.310109,409859,20069
1117.53,1.318906,412494,19793
1121.15,1.317423,414909,19977
1124.77,1.312180,416559,20300
1128.38,1.312524,418532,20380
1131.99,1.319295,419956,20133
1135.6,1.311601,421946,20590
1139.2,1.309306,423881,20794
1143.99,1.312627,426786,20777
1147.58,1.316918,428617,20661
1151.17,1.319055,431169,20682
1154.75,1.315428,433579,20972
1158.33,1.322062,436264,20782
1161.91,1.319157,439132,21059
1165.48,1.309144,442389,21710
1169.04,1.314678,446101,21615
1173.79,1.322692,451929,21497
1177.34,1.308548,456026,22410
1180.9,1.318792,461306,22141
1184.44,1.316396,467657,22570
1187.99,1.328576,473969,22242
1191.52,1.311135,479856,23441
1195.06,1.324644,487372,23079
1199.76,1.318916,497347,23864
1203.29,1.322198,504311,24016
1206.81,1.323406,511507,24291
1210.33,1.324086,519078,24612
1213.84,1.328545,527163,24740
1217.35,1.327380,534208,25138
1220.85,1.330340,540472,25260
1225.51,1.321392,549929,26237
1229.01,1.325581,556888,26314
1232.5,1.320802,562180,26858
1235.98,1.327964,567975,26691
1239.46,1.324592,574815,27223
1242.94,1.322650,582782,27724
1246.41,1.322042,591476,28177
1251.03,1.325169,604016,28568
1254.5,1.324873,612289,28979
1257.96,1.327647,619125,29116
1261.41,1.325216,624551,29536
1264.86,1.329023,629900,29529
1268.31,1.327323,634345,29854
1271.75,1.329322,638574,29915
1276.33,1.328960,642499,30124
1279.76,1.327366,645905,30395
1283.19,1.320910,648307,30965
1286.61,1.331110,650446,30346
1290.03,1.325545,652132,30817
1293.44,1.335480,653907,30202
1296.85,1.332380,655963,30514
1301.39,1.330884,657349,30684
1304.8,1.327751,657558,30916
1308.19,1.332362,658515,30634
1311.58,1.333773,658804,30548
1314.97,1.331401,659011,30725
1318.36,1.331862,658272,30658
1321.73,1.331994,658022,30637
1326.23,1.336454,657870,30317
1329.6,1.331388,656482,30608
1332.97,1.335539,654926,30245
1336.33,1.330229,653727,30561
1339.69,1.330492,652497,30485
1343.04,1.333409,649913,30161
1346.39,1.325321,647671,30622
1349.73,1.330961,645338,30118
1354.18,1.329740,641175,30008
1357.52,1.327767,638376,30013
1360.85,1.325725,635805,30033
1364.17,1.332852,633413,29433
1367.49,1.332424,631026,29351
1370.81,1.332879,628050,29182
1374.12,1.332175,625034,29089
1378.54,1.325241,620272,29332
1381.84,1.330078,616892,28849
1385.14,1.322854,613613,29177
1388.43,1.325712,611526,28887
1391.72,1.325069,610663,28889
1395.01,1.327521,610634,28725
1398.29,1.330142,611700,28602
1402.66,1.330005,614051,28721
1405.93,1.329323,616268,28870
1409.2,1.332479,617795,28732
1412.46,1.327544,618872,29111
1415.72,1.333807,619795,28737
1418.98,1.331180,620495,28944
1422.23,1.334409,621087,28757
1426.56,1.332276,621375,28912
1429.8,1.336579,621616,28638
1433.04,1.336286,622129,28681
1436.27,1.329223,621526,29123
1439.5,1.333492,621113,28819
1442.72,1.336868,620921,28587
1445.94,1.337249,620270,28532
1450.23,1.338335,618860,28396
1453.44,1.339696,617697,28254
1456.64,1.330872,616264,28767
1459.85,1.332261,614413,28589
1463.04,1.336305,612307,28227
1466.24,1.329777,610032,28548
1469.43,1.334219,607345,28133
1473.67,1.333789,603789,27996
1476.85,1.334737,601175,27814
1480.02,1.335365,597737,27615
1483.19,1.325910,594479,28069
1486.36,1.331652,591232,27549
1489.52,1.336444,587853,27091
1492.68,1.336616,583875,26897
1496.89,1.340124,578062,26415
1500.03,1.339605,574159,26268
1503.18,1.336781,570285,26261
1506.32,1.336849,565444,26034
1509.45,1.331541,560571,26127
1512.58,1.333500,555821,25789
1515.71,1.343825,550344,24935
1519.87,1.334219,543983,25198
1522.99,1.337999,538764,24740
1526.1,1.336267,533692,24605
1529.21,1.335591,527902,24376
1532.32,1.335234,521886,24118
1535.42,1.338045,515888,23687
1538.51,1.335790,509987,23538
1541.6,1.337131,503936,23187
1545.72,1.336745,494694,22782
1548.8,1.340451,488378,22300
1551.88,1.338464,481832,22102
1554.95,1.334518,474989,21987
1558.02,1.335141,467818,21624
1561.08,1.326187,460730,21740
1564.15,1.334544,454170,21022
1568.22,1.335192,444181,20529
1571.27,1.339268,436947,20006
1574.32,1.331511,429598,20024
1577.36,1.330027,422039,19739
1580.4,1.334092,414375,19200
1583.43,1.332719,406354,18888
1586.46,1.334052,398475,18465
1590.49,1.337999,388982,17862
1593.51,1.323826,380708,18062
1596.53,1.324081,372727,17673
1599.54,1.323541,365060,17331
1602.55,1.330586,357543,16701
1605.55,1.321948,349495,16653
1608.55,1.319991,341154,16329
1612.54,1.330008,330877,15476
1615.53,1.309346,322904,15839
1618.51,1.315400,315116,15243
1621.49,1.322795,307217,14610
1624.47,1.325797,299481,14144
1627.44,1.323473,292112,13870
1630.41,1.322363,284245,13531
1634.36,1.318521,274079,13163
1637.32,1.315213,266916,12917
1640.27,1.318075,259612,12481
1643.22,1.310170,251804,12328
1646.16,1.305223,244348,12100
1649.1,1.303501,236703,11768
1652.04,1.303265,228171,11350
1655.95,1.293768,215408,10952
1658.88,1.311968,204937,9992
1661.8,1.302503,193395,9637
1664.72,1.297631,179728,9057
1667.63,1.272582,163642,8736
1670.54,1.252898,146312,8173
1673.44,1.250501,128451,7215
1677.31,1.221215,105080,6314
1680.21,1.215413,88906,5414
1683.1,1.202047,75033,4712
1685.99,1.213408,63520,3886
1688.87,1.188758,53714,3478
1691.75,1.177454,45653,3034
1694.62,1.118226,39137,2981
1697.49,1.201045,33776,2126
1701.31,1.186465,28175,1834