File: ML/samples/unknown/Column 1_078977_20241121_173118.csv
Method:,Column 1,,
Host Date-Time:,21/11/24 @ 17:31:18,,
Header Version:,1,,
System Temp (C):,37.54,,
Detector Temp (C):,36.88,,
Humidity (%):,0.39,,
Lamp PD:,3795,,
Shift Vector Coefficients:,-10.5391,0.0761263,-0.000134223,,
Pixel to Wavelength Coefficients:,1775.68,-0.916766,-0.000235065,,
Serial Number:,5510004,,
Scan Config Name:,Column 1,,
Scan Config Type:,Slew,,
Section 1,,
Start wavelength (nm):,900,,
End wavelength (nm):,1700,,
Pattern Pixel Width (nm):,   7.03,,,,
Exposure (ms):,  0.635,,,,
Digital Resolution:,228,,
Num Repeats:,6,,
PGA Gain:,64,,
Total Measurement Time in sec:,  2.721,,
Wavelength (nm),Absorbance (AU),Reference Signal (unitless),Sample Signal (unitless)
901.51,1.301130,108485,5423
905.376,1.292121,121306,6191
909.237,1.325159,131909,6239
913.095,1.334075,143299,6640
916.948,1.343248,156982,7122
922.079,1.305828,179937,8898
925.923,1.342843,200504,9105
929.762,1.333332,222660,10335
933.597,1.329039,244426,11458
937.427,1.325622,263972,12472
941.254,1.328779,281845,13220
945.076,1.316694,297271,14337
950.165,1.324328,315605,14956
953.978,1.320816,328029,15671
957.786,1.317898,340470,16375
961.59,1.311001,352317,17216
965.389,1.310457,363056,17763
969.185,1.321551,373162,17797
972.976,1.307908,382632,18831
976.763,1.305787,391202,19347
981.806,1.301084,400190,20007
985.583,1.305835,406088,20081
989.355,1.307368,410162,20211
993.124,1.315085,412868,19986
996.888,1.312333,414263,20181
1000.65,1.316735,415476,20036
1004.4,1.310818,415479,20311
1009.41,1.306343,414358,20466
1013.15,1.315752,412923,19958
1016.89,1.316309,411526,19865
1020.63,1.304811,409066,20276
1024.36,1.307394,406777,20043
1028.09,1.309780,404427,19818
1031.82,1.316082,401911,19411
1036.78,1.315561,398410,19265
1040.49,1.316136,396204,19133
1044.2,1.315132,394236,19082
1047.91,1.305912,392042,19383
1051.61,1.311954,389823,19007
1055.31,1.312839,388234,18891
1059,1.312105,387599,18892
1063.92,1.308859,386688,18989
1067.61,1.308575,386598,18997
1071.29,1.320516,387377,18519
1074.96,1.310609,388536,19003
1078.63,1.313042,389855,18961
1082.3,1.324212,391215,18544
1085.96,1.314052,393215,19080
1090.84,1.313809,396270,19239
1094.49,1.316394,398760,19245
1098.14,1.306114,400987,19816
1101.79,1.308890,403477,19812
1105.43,1.319061,406116,19480
1109.06,1.308141,407701,20054
1112.7,1.314415,409859,19871
1117.53,1.308928,412494,20253
1121.15,1.316272,414909,20030
1124.77,1.317021,416559,20075
1128.38,1.318511,418532,20101
1131.99,1.318433,419956,20173
1135.6,1.317547,421946,20310
1139.2,1.318125,423881,20376
1143.99,1.312606,426786,20778
1147.58,1.315240,428617,20741
1151.17,1.320886,431169,20595
1154.75,1.314498,433579,21017
1158.33,1.316023,436264,21073
1161.91,1.312303,439132,21394
1165.48,1.315127,442389,21413
1169.04,1.315241,446101,21587
1173.79,1.329493,451929,21163
1177.34,1.318010,456026,21927
1180.9,1.319027,461306,22129
1184.44,1.322188,467657,22271
1187.99,1.311049,473969,23158
1191.52,1.324703,479856,22720
1195.06,1.312618,487372,23727
1199.76,1.323913,497347,23591
1203.29,1.316699,504311,24322
1206.81,1.327303,511507,24074
1210.33,1.317849,519078,24968
1213.84,1.316889,527163,25413
1217.35,1.321392,534208,25487
1220.85,1.324381,540472,25609
1225.51,1.322785,549929,26153
1229.01,1.325185,556888,26338
1232.5,1.320608,562180,26870
1235.98,1.316912,567975,27379
1239.46,1.321492,574815,27418
1242.94,1.316815,582782,28099
1246.41,1.322644,591476,28138
1251.03,1.326341,604016,28491
1254.5,1.328017,612289,28770
1257.96,1.325000,619125,29294
1261.41,1.324042,624551,29616
1264.86,1.324968,629900,29806
1268.31,1.320969,634345,30294
1271.75,1.328481,638574,29973
1276.33,1.330968,642499,29985
1279.76,1.322507,645905,30737
1283.19,1.326627,648307,30560
1286.61,1.327745,650446,30582
1290.03,1.325813,652132,30798
1293.44,1.324659,653907,30964
1296.85,1.330832,655963,30623
1301.39,1.328738,657349,30836
1304.8,1.330951,657558,30689
1308.19,1.326770,658515,31031
1311.58,1.332694,658804,30624
1314.97,1.326677,659011,31061
1318.36,1.332187,658272,30635
1321.73,1.328915,658022,30855
1326.23,1.331016,657870,30699
1329.6,1.328376,656482,30821
1332.97,1.326951,654926,30849
1336.33,1.337566,653727,30049
1339.69,1.330407,652497,30491
1343.04,1.333842,649913,30131
1346.39,1.325761,647671,30591
1349.73,1.334436,645338,29878
1354.18,1.329031,641175,30057
1357.52,1.331794,638376,29736
1360.85,1.326927,635805,29950
1364.17,1.329413,633413,29667
1367.49,1.324405,631026,29898
1370.81,1.328275,628050,29493
1374.12,1.331444,625034,29138
1378.54,1.328674,620272,29101
1381.84,1.327691,616892,29008
1385.14,1.332395,613613,28543
1388.43,1.330079,611526,28598
1391.72,1.326138,610663,28818
1395.01,1.330388,610634,28536
1398.29,1.328778,611700,28692
1402.66,1.329929,614051,28726
1405.93,1.332357,616268,28669
1409.2,1.328731,617795,28981
1412.46,1.326664,618872,29170
1415.72,1.331455,619795,28893
1418.98,1.333587,620495,28784
1422.23,1.328365,621087,29160
1426.56,1.329506,621375,29097
1429.8,1.330855,621616,29018
1433.04,1.331423,622129,29004
1436.27,1.328880,621526,29146
1439.5,1.338737,621113,28473
1442.72,1.334489,620921,28744
1445.94,1.328136,620270,29137
1450.23,1.331627,618860,28838
1453.44,1.333484,617697,28661
1456.64,1.336265,616264,28412
1459.85,1.334195,614413,28462
1463.04,1.330406,612307,28613
1466.24,1.337110,610032,28070
1469.43,1.336727,607345,27971
1473.67,1.339551,603789,27627
1476.85,1.335754,601175,27749
1480.02,1.338474,597737,27418
1483.19,1.332646,594479,27637
1486.36,1.337461,591232,27183
1489.52,1.337760,587853,27009
1492.68,1.345276,583875,26366
1496.89,1.335626,578062,26690
1500.03,1.330573,574159,26820
1503.18,1.331978,570285,26553
1506.32,1.339526,565444,25874
1509.45,1.336540,560571,25828
1512.58,1.333484,555821,25790
1515.71,1.334810,550344,25458
1519.87,1.342554,543983,24719
1522.99,1.338526,538764,24710
1526.1,1.332157,533692,24839
1529.21,1.338451,527902,24216
1532.32,1.341674,521886,23763
1535.42,1.336161,515888,23790
1538.51,1.342315,509987,23187
1541.6,1.340459,503936,23010
1545.72,1.331515,494694,23058
1548.8,1.333918,488378,22638
1551.88,1.344579,481832,21793
1554.95,1.336855,474989,21869
1558.02,1.328425,467818,21961
1561.08,1.328450,460730,21627
1564.15,1.332936,454170,21100
1568.22,1.335446,444181,20517
1571.27,1.324228,436947,20711
1574.32,1.331707,429598,20015
1577.36,1.335541,422039,19490
1580.4,1.331814,414375,19301
1583.43,1.322156,406354,19353
1586.46,1.323710,398475,18910
1590.49,1.326459,388982,18343
1593.51,1.320783,380708,18189
1596.53,1.329969,372727,17435
1599.54,1.320146,365060,17467
1602.55,1.331419,357543,16669
1605.55,1.326352,349495,16485
1608.55,1.335918,341154,15741
1612.54,1.334720,330877,15309
1615.53,1.330355,322904,15091
1618.51,1.308195,315116,15498
1621.49,1.323598,307217,14583
1624.47,1.322646,299481,14247
1627.44,1.313812,292112,14182
1630.41,1.328504,284245,13341
1634.36,1.320903,274079,13091
1637.32,1.315920,266916,12896
1640.27,1.303062,259612,12920
1643.22,1.311299,251804,12296
1646.16,1.299802,244348,12252
1649.1,1.318176,236703,11377
1652.04,1.319243,228171,10940
1655.95,1.289193,215408,11068
1658.88,1.322705,204937,9748
1661.8,1.298288,193395,9731
1664.72,1.286226,179728,9298
1667.63,1.241553,163642,9383
1670.54,1.237910,146312,8460
1673.44,1.198807,128451,8127
1677.31,1.165940,105080,7171
1680.21,1.139978,88906,6441
1683.1,1.151961,75033,5288
1685.99,1.137705,63520,4626
1688.87,1.079586,53714,4472
1691.75,1.107532,45653,3564
1694.62,1.114743,39137,3005
1697.49,1.214741,33776,2060
1701.31,1.115611,28175,2159