File: ML/samples/unknown/Column 1_078636_20241121_171227.csv
Method:,Column 1,,
Host Date-Time:,21/11/24 @ 17:12:27,,
Header Version:,1,,
System Temp (C):,36.83,,
Detector Temp (C):,35.19,,
Humidity (%):,0.68,,
Lamp PD:,3797,,
Shift Vector Coefficients:,-10.5391,0.0761263,-0.000134223,,
Pixel to Wavelength Coefficients:,1775.68,-0.916766,-0.000235065,,
Serial Number:,5510004,,
Scan Config Name:,Column 1,,
Scan Config Type:,Slew,,
Section 1,,
Start wavelength (nm):,900,,
End wavelength (nm):,1700,,
Pattern Pixel Width (nm):,   7.03,,,,
Exposure (ms):,  0.635,,,,
Digital Resolution:,228,,
Num Repeats:,6,,
PGA Gain:,64,,
Total Measurement Time in sec:,  2.725,,
Wavelength (nm),Absorbance (AU),Reference Signal (unitless),Sample Signal (unitless)
901.51,1.304345,108485,5383
905.376,1.310462,121306,5935
909.237,1.296670,131909,6662
913.095,1.289660,143299,7355
916.948,1.316353,156982,7577
922.079,1.319110,179937,8630
925.923,1.324674,200504,9494
929.762,1.328443,222660,10452
933.597,1.304358,244426,12128
937.427,1.318850,263972,12668
941.254,1.306028,281845,13931
945.076,1.311336,297271,14515
950.165,1.314594,315605,15295
953.978,1.306049,328029,16213
957.786,1.300609,340470,17040
961.59,1.315898,352317,17023
965.389,1.303040,363056,18069
969.185,1.301941,373162,18619
972.976,1.313245,382632,18601
976.763,1.299392,391202,19634
981.806,1.300304,400190,20043
985.583,1.301638,406088,20276
989.355,1.309565,410162,20109
993.124,1.301712,412868,20611
996.888,1.298295,414263,20844
1000.65,1.313345,415476,20193
1004.4,1.305167,415479,20577
1009.41,1.301175,414358,20711
1013.15,1.305792,412923,20421
1016.89,1.308401,411526,20230
1020.63,1.308705,409066,20095
1024.36,1.303747,406777,20212
1028.09,1.297423,404427,20390
1031.82,1.297791,401911,20246
1036.78,1.301717,398410,19889
1040.49,1.302506,396204,19743
1044.2,1.305254,394236,19521
1047.91,1.299043,392042,19692
1051.61,1.304883,389823,19319
1055.31,1.301225,388234,19403
1059,1.301208,387599,19372
1063.92,1.296369,386688,19543
1067.61,1.313102,386598,18800
1071.29,1.311373,387377,18913
1074.96,1.308125,388536,19112
1078.63,1.311830,389855,19014
1082.3,1.314440,391215,18966
1085.96,1.306001,393215,19437
1090.84,1.304717,396270,19646
1094.49,1.311881,398760,19446
1098.14,1.307871,400987,19736
1101.79,1.317659,403477,19416
1105.43,1.312995,406116,19754
1109.06,1.308227,407701,20050
1112.7,1.317419,409859,19734
1117.53,1.315998,412494,19926
1121.15,1.310307,414909,20307
1124.77,1.306358,416559,20574
1128.38,1.310568,418532,20472
1131.99,1.312022,419956,20473
1135.6,1.323684,421946,20025
1139.2,1.312808,423881,20627
1143.99,1.317737,426786,20534
1147.58,1.317381,428617,20639
1151.17,1.311891,431169,21026
1154.75,1.313569,433579,21062
1158.33,1.317902,436264,20982
1161.91,1.318271,439132,21102
1165.48,1.311612,442389,21587
1169.04,1.309306,446101,21884
1173.79,1.310265,451929,22121
1177.34,1.304497,456026,22620
1180.9,1.318694,461306,22146
1184.44,1.314533,467657,22667
1187.99,1.318215,473969,22779
1191.52,1.320593,479856,22936
1195.06,1.315298,487372,23581
1199.76,1.322406,497347,23673
1203.29,1.315273,504311,24402
1206.81,1.313683,511507,24841
1210.33,1.318894,519078,24908
1213.84,1.315541,527163,25492
1217.35,1.318420,534208,25662
1220.85,1.314041,540472,26226
1225.51,1.324349,549929,26059
1229.01,1.315322,556888,26943
1232.5,1.315690,562180,27176
1235.98,1.318135,567975,27302
1239.46,1.311425,574815,28061
1242.94,1.331704,582782,27152
1246.41,1.322505,591476,28147
1251.03,1.320015,604016,28909
1254.5,1.320860,612289,29248
1257.96,1.321647,619125,29521
1261.41,1.321366,624551,29799
1264.86,1.324342,629900,29849
1268.31,1.321428,634345,30262
1271.75,1.318682,638574,30657
1276.33,1.316875,642499,30974
1279.76,1.319522,645905,30949
1283.19,1.318602,648307,31130
1286.61,1.324322,650446,30824
1290.03,1.328061,652132,30639
1293.44,1.323231,653907,31066
1296.85,1.323170,655963,31168
1301.39,1.328133,657349,30879
1304.8,1.321891,657558,31336
1308.19,1.325931,658515,31091
1311.58,1.325842,658804,31111
1314.97,1.322309,659011,31375
1318.36,1.326372,658272,31048
1321.73,1.325871,658022,31072
1326.23,1.325827,657870,31068
1329.6,1.323263,656482,31186
1332.97,1.325770,654926,30933
1336.33,1.327241,653727,30772
1339.69,1.319381,652497,31275
1343.04,1.330682,649913,30351
1346.39,1.323749,647671,30733
1349.73,1.326571,645338,30424
1354.18,1.326366,641175,30242
1357.52,1.324523,638376,30238
1360.85,1.328671,635805,29830
1364.17,1.321536,633413,30210
1367.49,1.328228,631026,29636
1370.81,1.326717,628050,29599
1374.12,1.315983,625034,30194
1378.54,1.315186,620272,30019
1381.84,1.320284,616892,29507
1385.14,1.322660,613613,29190
1388.43,1.315270,611526,29590
1391.72,1.316628,610663,29456
1395.01,1.327823,610634,28705
1398.29,1.322690,611700,29097
1402.66,1.321426,614051,29294
1405.93,1.326534,616268,29056
1409.2,1.324704,617795,29251
1412.46,1.330342,618872,28924
1415.72,1.321162,619795,29586
1418.98,1.328786,620495,29104
1422.23,1.327041,621087,29249
1426.56,1.330282,621375,29045
1429.8,1.327991,621616,29210
1433.04,1.327636,622129,29258
1436.27,1.328300,621526,29185
1439.5,1.326525,621113,29285
1442.72,1.331748,620921,28926
1445.94,1.330303,620270,28992
1450.23,1.334028,618860,28679
1453.44,1.334258,617697,28610
1456.64,1.330978,616264,28760
1459.85,1.335724,614413,28362
1463.04,1.330558,612307,28603
1466.24,1.327395,610032,28705
1469.43,1.329796,607345,28421
1473.67,1.330005,603789,28241
1476.85,1.333054,601175,27922
1480.02,1.324095,597737,28341
1483.19,1.333905,594479,27557
1486.36,1.338644,591232,27109
1489.52,1.336059,587853,27115
1492.68,1.327461,583875,27470
1496.89,1.331077,578062,26971
1500.03,1.339572,574159,26270
1503.18,1.328103,570285,26791
1506.32,1.336949,565444,26028
1509.45,1.325713,560571,26480
1512.58,1.335848,555821,25650
1515.71,1.331903,550344,25629
1519.87,1.327651,543983,25582
1522.99,1.331829,538764,25094
1526.1,1.333628,533692,24755
1529.21,1.332838,527902,24531
1532.32,1.324299,521886,24733
1535.42,1.329476,515888,24159
1538.51,1.327511,509987,23991
1541.6,1.330255,503936,23557
1545.72,1.336345,494694,22803
1548.8,1.323175,488378,23205
1551.88,1.331467,481832,22461
1554.95,1.333866,474989,22020
1558.02,1.333017,467818,21730
1561.08,1.325548,460730,21772
1564.15,1.330350,454170,21226
1568.22,1.330186,444181,20767
1571.27,1.332035,436947,20342
1574.32,1.332706,429598,19969
1577.36,1.324453,422039,19994
1580.4,1.328988,414375,19427
1583.43,1.322358,406354,19344
1586.46,1.325966,398475,18812
1590.49,1.315010,388982,18833
1593.51,1.322793,380708,18105
1596.53,1.325385,372727,17620
1599.54,1.311920,365060,17801
1602.55,1.313503,357543,17371
1605.55,1.322105,349495,16647
1608.55,1.323462,341154,16199
1612.54,1.317833,330877,15916
1615.53,1.311297,322904,15768
1618.51,1.315115,315116,15253
1621.49,1.315777,307217,14848
1624.47,1.327335,299481,14094
1627.44,1.315653,292112,14122
1630.41,1.311554,284245,13872
1634.36,1.302870,274079,13646
1637.32,1.297523,266916,13454
1640.27,1.307386,259612,12792
1643.22,1.308798,251804,12367
1646.16,1.321981,244348,11642
1649.1,1.312186,236703,11535
1652.04,1.289074,228171,11727
1655.95,1.301571,215408,10757
1658.88,1.281466,204937,10719
1661.8,1.265960,193395,10483
1664.72,1.266815,179728,9723
1667.63,1.256623,163642,9063
1670.54,1.230731,146312,8601
1673.44,1.216977,128451,7794
1677.31,1.177665,105080,6980
1680.21,1.152565,88906,6257
1683.1,1.125671,75033,5618
1685.99,1.144613,63520,4553
1688.87,1.090701,53714,4359
1691.75,1.172472,45653,3069
1694.62,1.061236,39137,3399
1697.49,1.240135,33776,1943
1701.31,1.109420,28175,2190