File: ML/samples/unknown/Column 1_078519_20241121_170639.csv
Method:,Column 1,,
Host Date-Time:,21/11/24 @ 17:6:39,,
Header Version:,1,,
System Temp (C):,34.98,,
Detector Temp (C):,33.98,,
Humidity (%):,1.96,,
Lamp PD:,3800,,
Shift Vector Coefficients:,-10.5391,0.0761263,-0.000134223,,
Pixel to Wavelength Coefficients:,1775.68,-0.916766,-0.000235065,,
Serial Number:,5510004,,
Scan Config Name:,Column 1,,
Scan Config Type:,Slew,,
Section 1,,
Start wavelength (nm):,900,,
End wavelength (nm):,1700,,
Pattern Pixel Width (nm):,   7.03,,,,
Exposure (ms):,  0.635,,,,
Digital Resolution:,228,,
Num Repeats:,6,,
PGA Gain:,64,,
Total Measurement Time in sec:,  2.727,,
Wavelength (nm),Absorbance (AU),Reference Signal (unitless),Sample Signal (unitless)
901.51,1.321375,108485,5176
905.376,1.349563,121306,5424
909.237,1.334589,131909,6105
913.095,1.310587,143299,7009
916.948,1.310489,156982,7680
922.079,1.314455,179937,8723
925.923,1.340702,200504,9150
929.762,1.306842,222660,10985
933.597,1.324476,244426,11579
937.427,1.327821,263972,12409
941.254,1.302056,281845,14059
945.076,1.313014,297271,14459
950.165,1.318101,315605,15172
953.978,1.312961,328029,15957
957.786,1.310978,340470,16638
961.59,1.309541,352317,17274
965.389,1.306393,363056,17930
969.185,1.309257,373162,18308
972.976,1.313829,382632,18576
976.763,1.306529,391202,19314
981.806,1.308926,400190,19649
985.583,1.307221,406088,20017
989.355,1.306745,410162,20240
993.124,1.312550,412868,20103
996.888,1.299798,414263,20772
1000.65,1.303857,415476,20639
1004.4,1.315742,415479,20082
1009.41,1.316411,414358,19997
1013.15,1.304645,412923,20475
1016.89,1.324095,411526,19512
1020.63,1.303485,409066,20338
1024.36,1.316768,406777,19615
1028.09,1.303990,404427,20084
1031.82,1.309421,401911,19711
1036.78,1.308518,398410,19580
1040.49,1.304777,396204,19640
1044.2,1.301555,394236,19688
1047.91,1.308000,392042,19290
1051.61,1.319467,389823,18681
1055.31,1.303289,388234,19311
1059,1.309012,387599,19027
1063.92,1.311566,386688,18871
1067.61,1.308872,386598,18984
1071.29,1.310983,387377,18930
1074.96,1.311341,388536,18971
1078.63,1.304918,389855,19319
1082.3,1.306768,391215,19304
1085.96,1.308533,393215,19324
1090.84,1.312344,396270,19304
1094.49,1.315627,398760,19279
1098.14,1.315351,400987,19399
1101.79,1.314228,403477,19570
1105.43,1.306622,406116,20046
1109.06,1.324132,407701,19329
1112.7,1.311691,409859,19996
1117.53,1.322365,412494,19636
1121.15,1.319034,414909,19903
1124.77,1.314669,416559,20184
1128.38,1.320113,418532,20027
1131.99,1.308789,419956,20626
1135.6,1.315840,421946,20390
1139.2,1.320069,423881,20285
1143.99,1.317419,426786,20549
1147.58,1.316498,428617,20681
1151.17,1.318111,431169,20727
1154.75,1.316860,433579,20903
1158.33,1.312677,436264,21236
1161.91,1.317162,439132,21156
1165.48,1.312861,442389,21525
1169.04,1.316853,446101,21507
1173.79,1.312470,451929,22009
1177.34,1.315010,456026,22079
1180.9,1.316483,461306,22259
1184.44,1.318208,467657,22476
1187.99,1.322180,473969,22572
1191.52,1.315529,479856,23205
1195.06,1.312032,487372,23759
1199.76,1.317989,497347,23915
1203.29,1.314882,504311,24424
1206.81,1.315663,511507,24728
1210.33,1.322254,519078,24716
1213.84,1.312096,527163,25695
1217.35,1.314763,534208,25879
1220.85,1.330391,540472,25257
1225.51,1.323234,549929,26126
1229.01,1.317325,556888,26819
1232.5,1.324602,562180,26624
1235.98,1.319011,567975,27247
1239.46,1.320006,574815,27512
1242.94,1.317140,582782,28078
1246.41,1.319445,591476,28346
1251.03,1.320812,604016,28856
1254.5,1.323751,612289,29054
1257.96,1.325801,619125,29240
1261.41,1.327679,624551,29369
1264.86,1.326559,629900,29697
1268.31,1.322045,634345,30219
1271.75,1.323353,638574,30329
1276.33,1.323302,642499,30519
1279.76,1.324987,645905,30562
1283.19,1.324954,648307,30678
1286.61,1.325804,650446,30719
1290.03,1.325545,652132,30817
1293.44,1.324687,653907,30962
1296.85,1.326345,655963,30941
1301.39,1.323836,657349,31186
1304.8,1.326895,657558,30977
1308.19,1.323882,658515,31238
1311.58,1.330982,658804,30745
1314.97,1.329652,659011,30849
1318.36,1.324460,658272,31185
1321.73,1.325885,658022,31071
1326.23,1.328364,657870,30887
1329.6,1.322790,656482,31220
1332.97,1.326895,654926,30853
1336.33,1.329632,653727,30603
1339.69,1.335075,652497,30165
1343.04,1.323854,649913,30832
1346.39,1.324924,647671,30650
1349.73,1.329737,645338,30203
1354.18,1.326696,641175,30219
1357.52,1.325616,638376,30162
1360.85,1.326536,635805,29977
1364.17,1.328112,633413,29756
1367.49,1.331419,631026,29419
1370.81,1.320410,628050,30032
1374.12,1.324451,625034,29611
1378.54,1.327006,620272,29213
1381.84,1.320873,616892,29467
1385.14,1.326381,613613,28941
1388.43,1.324586,611526,28962
1391.72,1.324934,610663,28898
1395.01,1.327415,610634,28732
1398.29,1.330932,611700,28550
1402.66,1.335912,614051,28333
1405.93,1.322058,616268,29357
1409.2,1.329316,617795,28942
1412.46,1.326992,618872,29148
1415.72,1.328743,619795,29074
1418.98,1.326939,620495,29228
1422.23,1.327829,621087,29196
1426.56,1.330208,621375,29050
1429.8,1.327322,621616,29255
1433.04,1.331977,622129,28967
1436.27,1.330956,621526,29007
1439.5,1.334216,621113,28771
1442.72,1.334368,620921,28752
1445.94,1.329240,620270,29063
1450.23,1.328088,618860,29074
1453.44,1.326689,617697,29113
1456.64,1.329365,616264,28867
1459.85,1.327217,614413,28923
1463.04,1.326447,612307,28875
1466.24,1.332218,610032,28388
1469.43,1.339844,607345,27771
1473.67,1.336684,603789,27810
1476.85,1.333506,601175,27893
1480.02,1.333560,597737,27730
1483.19,1.336434,594479,27397
1486.36,1.327479,591232,27815
1489.52,1.329762,587853,27511
1492.68,1.328950,583875,27376
1496.89,1.330032,578062,27036
1500.03,1.324160,574159,27219
1503.18,1.331390,570285,26589
1506.32,1.338453,565444,25938
1509.45,1.341104,560571,25558
1512.58,1.334900,555821,25706
1515.71,1.338510,550344,25242
1519.87,1.333720,543983,25227
1522.99,1.337175,538764,24787
1526.1,1.333663,533692,24753
1529.21,1.330437,527902,24667
1532.32,1.328037,521886,24521
1535.42,1.333794,515888,23920
1538.51,1.335052,509987,23578
1541.6,1.335262,503936,23287
1545.72,1.341710,494694,22523
1548.8,1.331488,488378,22765
1551.88,1.334260,481832,22317
1554.95,1.332232,474989,22103
1558.02,1.330486,467818,21857
1561.08,1.337869,460730,21163
1564.15,1.333595,454170,21068
1568.22,1.328058,444181,20869
1571.27,1.320553,436947,20887
1574.32,1.326294,429598,20266
1577.36,1.337305,422039,19411
1580.4,1.342359,414375,18838
1583.43,1.336784,406354,18712
1586.46,1.321122,398475,19023
1590.49,1.329095,388982,18232
1593.51,1.324789,380708,18022
1596.53,1.330892,372727,17398
1599.54,1.338427,365060,16747
1602.55,1.325339,357543,16904
1605.55,1.330428,349495,16331
1608.55,1.323034,341154,16215
1612.54,1.325485,330877,15638
1615.53,1.324382,322904,15300
1618.51,1.331508,315116,14688
1621.49,1.315017,307217,14874
1624.47,1.322768,299481,14243
1627.44,1.315407,292112,14130
1630.41,1.320314,284245,13595
1634.36,1.318026,274079,13178
1637.32,1.318250,266916,12827
1640.27,1.314782,259612,12576
1643.22,1.308623,251804,12372
1646.16,1.305511,244348,12092
1649.1,1.319974,236703,11330
1652.04,1.320436,228171,10910
1655.95,1.327995,215408,10122
1658.88,1.294253,204937,10408
1661.8,1.290372,193395,9910
1664.72,1.266012,179728,9741
1667.63,1.250863,163642,9184
1670.54,1.248826,146312,8250
1673.44,1.223433,128451,7679
1677.31,1.221215,105080,6314
1680.21,1.187906,88906,5768
1683.1,1.189690,75033,4848
1685.99,1.186225,63520,4137
1688.87,1.159194,53714,3723
1691.75,1.161297,45653,3149
1694.62,1.204309,39137,2445
1697.49,1.216854,33776,2050
1701.31,1.179418,28175,1864