File: ML/samples/unknown/Column 1_078511_20241121_170616.csv
Method:,Column 1,,
Host Date-Time:,21/11/24 @ 17:6:16,,
Header Version:,1,,
System Temp (C):,34.65,,
Detector Temp (C):,33.87,,
Humidity (%):,2.05,,
Lamp PD:,3800,,
Shift Vector Coefficients:,-10.5391,0.0761263,-0.000134223,,
Pixel to Wavelength Coefficients:,1775.68,-0.916766,-0.000235065,,
Serial Number:,5510004,,
Scan Config Name:,Column 1,,
Scan Config Type:,Slew,,
Section 1,,
Start wavelength (nm):,900,,
End wavelength (nm):,1700,,
Pattern Pixel Width (nm):,   7.03,,,,
Exposure (ms):,  0.635,,,,
Digital Resolution:,228,,
Num Repeats:,6,,
PGA Gain:,64,,
Total Measurement Time in sec:,  2.726,,
Wavelength (nm),Absorbance (AU),Reference Signal (unitless),Sample Signal (unitless)
901.51,1.328652,108485,5090
905.376,1.288698,121306,6240
909.237,1.311861,131909,6433
913.095,1.329715,143299,6707
916.948,1.317788,156982,7552
922.079,1.317202,179937,8668
925.923,1.312807,200504,9757
929.762,1.307594,222660,10966
933.597,1.323877,244426,11595
937.427,1.321360,263972,12595
941.254,1.309628,281845,13816
945.076,1.304743,297271,14737
950.165,1.302747,315605,15718
953.978,1.310329,328029,16054
957.786,1.319731,340470,16306
961.59,1.307209,352317,17367
965.389,1.318776,363056,17426
969.185,1.313715,373162,18121
972.976,1.314812,382632,18534
976.763,1.310981,391202,19117
981.806,1.311964,400190,19512
985.583,1.301831,406088,20267
989.355,1.307217,410162,20218
993.124,1.309536,412868,20243
996.888,1.309331,414263,20321
1000.65,1.307874,415476,20449
1004.4,1.308281,415479,20430
1009.41,1.302561,414358,20645
1013.15,1.299123,412923,20737
1016.89,1.307929,411526,20252
1020.63,1.301228,409066,20444
1024.36,1.310132,406777,19917
1028.09,1.299729,404427,20282
1031.82,1.313050,401911,19547
1036.78,1.306968,398410,19650
1040.49,1.311485,396204,19339
1044.2,1.309457,394236,19333
1047.91,1.299197,392042,19685
1051.61,1.303693,389823,19372
1055.31,1.307810,388234,19111
1059,1.320179,387599,18544
1063.92,1.308242,386688,19016
1067.61,1.302062,386598,19284
1071.29,1.305331,387377,19178
1074.96,1.305949,388536,19208
1078.63,1.311145,389855,19044
1082.3,1.309590,391215,19179
1085.96,1.307097,393215,19388
1090.84,1.306134,396270,19582
1094.49,1.310855,398760,19492
1098.14,1.308620,400987,19702
1101.79,1.315294,403477,19522
1105.43,1.316860,406116,19579
1109.06,1.317289,407701,19636
1112.7,1.319405,409859,19644
1117.53,1.313672,412494,20033
1121.15,1.314692,414909,20103
1124.77,1.317086,416559,20072
1128.38,1.321307,418532,19972
1131.99,1.324307,419956,19902
1135.6,1.316330,421946,20367
1139.2,1.316976,423881,20430
1143.99,1.310792,426786,20865
1147.58,1.310740,428617,20957
1151.17,1.316104,431169,20823
1154.75,1.320092,433579,20748
1158.33,1.321415,436264,20813
1161.91,1.317983,439132,21116
1165.48,1.312659,442389,21535
1169.04,1.315301,446101,21584
1173.79,1.316056,451929,21828
1177.34,1.311211,456026,22273
1180.9,1.317069,461306,22229
1184.44,1.316916,467657,22543
1187.99,1.317758,473969,22803
1191.52,1.318704,479856,23036
1195.06,1.317644,487372,23454
1199.76,1.320868,497347,23757
1203.29,1.313905,504311,24479
1206.81,1.314768,511507,24779
1210.33,1.326067,519078,24500
1213.84,1.323415,527163,25034
1217.35,1.321733,534208,25467
1220.85,1.322182,540472,25739
1225.51,1.323716,549929,26097
1229.01,1.323063,556888,26467
1232.5,1.325533,562180,26567
1235.98,1.331165,567975,26495
1239.46,1.319328,574815,27555
1242.94,1.324770,582782,27589
1246.41,1.316179,591476,28560
1251.03,1.323394,604016,28685
1254.5,1.320875,612289,29247
1257.96,1.323712,619125,29381
1261.41,1.323954,624551,29622
1264.86,1.326179,629900,29723
1268.31,1.325639,634345,29970
1271.75,1.325837,638574,30156
1276.33,1.330230,642499,30036
1279.76,1.327710,645905,30371
1283.19,1.325790,648307,30619
1286.61,1.327788,650446,30579
1290.03,1.331662,652132,30386
1293.44,1.331245,653907,30498
1296.85,1.328837,655963,30764
1301.39,1.326532,657349,30993
1304.8,1.331844,657558,30626
1308.19,1.321871,658515,31383
1311.58,1.328924,658804,30891
1314.97,1.335705,659011,30422
1318.36,1.332741,658272,30596
1321.73,1.329859,658022,30788
1326.23,1.329575,657870,30801
1329.6,1.328588,656482,30806
1332.97,1.328079,654926,30769
1336.33,1.328810,653727,30661
1339.69,1.330151,652497,30509
1343.04,1.330840,649913,30340
1346.39,1.325974,647671,30576
1349.73,1.329349,645338,30230
1354.18,1.326625,641175,30224
1357.52,1.330409,638376,29831
1360.85,1.323389,635805,30195
1364.17,1.329985,633413,29628
1367.49,1.324100,631026,29919
1370.81,1.324741,628050,29734
1374.12,1.330699,625034,29188
1378.54,1.330184,620272,29000
1381.84,1.318272,616892,29644
1385.14,1.326681,613613,28921
1388.43,1.326902,611526,28808
1391.72,1.326650,610663,28784
1395.01,1.323937,610634,28963
1398.29,1.328173,611700,28732
1402.66,1.325866,614051,28996
1405.93,1.326818,616268,29037
1409.2,1.331889,617795,28771
1412.46,1.328290,618872,29061
1415.72,1.334245,619795,28708
1418.98,1.333316,620495,28802
1422.23,1.326626,621087,29277
1426.56,1.330791,621375,29011
1429.8,1.333166,621616,28864
1433.04,1.331482,622129,29000
1436.27,1.333374,621526,28846
1439.5,1.333296,621113,28832
1442.72,1.337309,620921,28558
1445.94,1.328912,620270,29085
1450.23,1.333332,618860,28725
1453.44,1.333257,617697,28676
1456.64,1.333507,616264,28593
1459.85,1.333509,614413,28507
1463.04,1.336951,612307,28185
1466.24,1.334980,610032,28208
1469.43,1.334837,607345,28093
1473.67,1.329437,603789,28278
1476.85,1.335785,601175,27747
1480.02,1.332387,597737,27805
1483.19,1.336434,594479,27397
1486.36,1.330471,591232,27624
1489.52,1.334716,587853,27199
1492.68,1.339158,583875,26740
1496.89,1.330000,578062,27038
1500.03,1.339423,574159,26279
1503.18,1.342792,570285,25900
1506.32,1.334221,565444,26192
1509.45,1.334309,560571,25961
1512.58,1.337391,555821,25559
1515.71,1.340615,550344,25120
1519.87,1.330324,543983,25425
1522.99,1.328931,538764,25262
1526.1,1.340792,533692,24350
1529.21,1.333387,527902,24500
1532.32,1.333348,521886,24223
1535.42,1.337166,515888,23735
1538.51,1.330836,509987,23808
1541.6,1.333011,503936,23408
1545.72,1.330199,494694,23128
1548.8,1.335513,488378,22555
1551.88,1.334513,481832,22304
1554.95,1.332901,474989,22069
1558.02,1.330566,467818,21853
1561.08,1.334863,460730,21310
1564.15,1.329512,454170,21267
1568.22,1.330563,444181,20749
1571.27,1.321073,436947,20862
1574.32,1.337737,429598,19739
1577.36,1.328337,422039,19816
1580.4,1.338274,414375,19016
1583.43,1.324880,406354,19232
1586.46,1.325597,398475,18828
1590.49,1.333164,388982,18062
1593.51,1.319972,380708,18223
1596.53,1.333119,372727,17309
1599.54,1.334606,365060,16895
1602.55,1.322420,357543,17018
1605.55,1.315400,349495,16906
1608.55,1.322712,341154,16227
1612.54,1.322193,330877,15757
1615.53,1.330298,322904,15093
1618.51,1.322669,315116,14990
1621.49,1.320098,307217,14701
1624.47,1.314193,299481,14527
1627.44,1.311034,292112,14273
1630.41,1.318274,284245,13659
1634.36,1.300553,274079,13719
1637.32,1.314776,266916,12930
1640.27,1.314748,259612,12577
1643.22,1.309255,251804,12354
1646.16,1.318785,244348,11728
1649.1,1.316690,236703,11416
1652.04,1.309353,228171,11192
1655.95,1.298593,215408,10831
1658.88,1.294838,204937,10394
1661.8,1.266250,193395,10476
1664.72,1.277258,179728,9492
1667.63,1.269264,163642,8803
1670.54,1.230428,146312,8607
1673.44,1.226612,128451,7623
1677.31,1.193247,105080,6734
1680.21,1.185428,88906,5801
1683.1,1.177326,75033,4988
1685.99,1.135644,63520,4648
1688.87,1.146889,53714,3830
1691.75,1.135723,45653,3340
1694.62,1.198486,39137,2478
1697.49,1.112301,33776,2608
1701.31,1.169058,28175,1909