File: ML/samples/unknown/Column 1_078180_20241121_164924.csv
Method:,Column 1,,
Host Date-Time:,21/11/24 @ 16:49:24,,
Header Version:,1,,
System Temp (C):,33.57,,
Detector Temp (C):,30.1,,
Humidity (%):,3.23,,
Lamp PD:,3804,,
Shift Vector Coefficients:,-10.5391,0.0761263,-0.000134223,,
Pixel to Wavelength Coefficients:,1775.68,-0.916766,-0.000235065,,
Serial Number:,5510004,,
Scan Config Name:,Column 1,,
Scan Config Type:,Slew,,
Section 1,,
Start wavelength (nm):,900,,
End wavelength (nm):,1700,,
Pattern Pixel Width (nm):,   7.03,,,,
Exposure (ms):,  0.635,,,,
Digital Resolution:,228,,
Num Repeats:,6,,
PGA Gain:,64,,
Total Measurement Time in sec:,  2.722,,
Wavelength (nm),Absorbance (AU),Reference Signal (unitless),Sample Signal (unitless)
901.51,1.310848,108485,5303
905.376,1.302630,121306,6043
909.237,1.340317,131909,6025
913.095,1.324182,143299,6793
916.948,1.321600,156982,7486
922.079,1.314504,179937,8722
925.923,1.327473,200504,9433
929.762,1.307436,222660,10970
933.597,1.306404,244426,12071
937.427,1.316559,263972,12735
941.254,1.317143,281845,13579
945.076,1.317634,297271,14306
950.165,1.313432,315605,15336
953.978,1.319184,328029,15730
957.786,1.311579,340470,16615
961.59,1.316715,352317,16991
965.389,1.314609,363056,17594
969.185,1.315396,373162,18051
972.976,1.303092,382632,19041
976.763,1.309666,391202,19175
981.806,1.312009,400190,19510
985.583,1.313779,406088,19717
989.355,1.309090,410162,20131
993.124,1.313415,412868,20063
996.888,1.314167,414263,20096
1000.65,1.304131,415476,20626
1004.4,1.319696,415479,19900
1009.41,1.310693,414358,20262
1013.15,1.312824,412923,20093
1016.89,1.315043,411526,19923
1020.63,1.311307,409066,19975
1024.36,1.312428,406777,19812
1028.09,1.311955,404427,19719
1031.82,1.320716,401911,19205
1036.78,1.324673,398410,18865
1040.49,1.306350,396204,19569
1044.2,1.315383,394236,19071
1047.91,1.321863,392042,18684
1051.61,1.318075,389823,18741
1055.31,1.316000,388234,18754
1059,1.314225,387599,18800
1063.92,1.323606,386688,18355
1067.61,1.306841,386598,19073
1071.29,1.324308,387377,18358
1074.96,1.315713,388536,18781
1078.63,1.321157,389855,18610
1082.3,1.316966,391215,18856
1085.96,1.310470,393215,19238
1090.84,1.314939,396270,19189
1094.49,1.317026,398760,19217
1098.14,1.315127,400987,19409
1101.79,1.312943,403477,19628
1105.43,1.308316,406116,19968
1109.06,1.308574,407701,20034
1112.7,1.323157,409859,19475
1117.53,1.322763,412494,19618
1121.15,1.325320,414909,19617
1124.77,1.322770,416559,19811
1128.38,1.321503,418532,19963
1131.99,1.317487,419956,20217
1135.6,1.318768,421946,20253
1139.2,1.321807,423881,20204
1143.99,1.328421,426786,20035
1147.58,1.316477,428617,20682
1151.17,1.328394,431169,20242
1154.75,1.321329,433579,20689
1158.33,1.323276,436264,20724
1161.91,1.323739,439132,20838
1165.48,1.319325,442389,21207
1169.04,1.319527,446101,21375
1173.79,1.326120,451929,21328
1177.34,1.316133,456026,22022
1180.9,1.316405,461306,22263
1184.44,1.316146,467657,22583
1187.99,1.320356,473969,22667
1191.52,1.315436,479856,23210
1195.06,1.310809,487372,23826
1199.76,1.321234,497347,23737
1203.29,1.323465,504311,23946
1206.81,1.324462,511507,24232
1210.33,1.321693,519078,24748
1213.84,1.326479,527163,24858
1217.35,1.319657,534208,25589
1220.85,1.324958,540472,25575
1225.51,1.328535,549929,25809
1229.01,1.328761,556888,26122
1232.5,1.330928,562180,26239
1235.98,1.324529,567975,26903
1239.46,1.325534,574815,27164
1242.94,1.328517,582782,27352
1246.41,1.325804,591476,27934
1251.03,1.325184,604016,28567
1254.5,1.326826,612289,28849
1257.96,1.331407,619125,28865
1261.41,1.329873,624551,29221
1264.86,1.324429,629900,29843
1268.31,1.327862,634345,29817
1271.75,1.331914,638574,29737
1276.33,1.334780,642499,29723
1279.76,1.326196,645905,30477
1283.19,1.328365,648307,30438
1286.61,1.328769,650446,30510
1290.03,1.331691,652132,30384
1293.44,1.330747,653907,30533
1296.85,1.330010,655963,30681
1301.39,1.329894,657349,30754
1304.8,1.336420,657558,30305
1308.19,1.333043,658515,30586
1311.58,1.328096,658804,30950
1314.97,1.333413,659011,30583
1318.36,1.334618,658272,30464
1321.73,1.331583,658022,30666
1326.23,1.333570,657870,30519
1329.6,1.337705,656482,30166
1332.97,1.330414,654926,30604
1336.33,1.337335,653727,30065
1339.69,1.333021,652497,30308
1343.04,1.333726,649913,30139
1346.39,1.329267,647671,30345
1349.73,1.332680,645338,29999
1354.18,1.329797,641175,30004
1357.52,1.335431,638376,29488
1360.85,1.325581,635805,30043
1364.17,1.331718,633413,29510
1367.49,1.329710,631026,29535
1370.81,1.326556,628050,29610
1374.12,1.334150,625034,28957
1378.54,1.331219,620272,28931
1381.84,1.331617,616892,28747
1385.14,1.330361,613613,28677
1388.43,1.329563,611526,28632
1391.72,1.331948,610663,28435
1395.01,1.326283,610634,28807
1398.29,1.326077,611700,28871
1402.66,1.325088,614051,29048
1405.93,1.337692,616268,28319
1409.2,1.333887,617795,28639
1412.46,1.331455,618872,28850
1415.72,1.326776,619795,29206
1418.98,1.336433,620495,28596
1422.23,1.330425,621087,29022
1426.56,1.343182,621375,28195
1429.8,1.333708,621616,28828
1433.04,1.333404,622129,28872
1436.27,1.333856,621526,28814
1439.5,1.334231,621113,28770
1442.72,1.333252,620921,28826
1445.94,1.336625,620270,28573
1450.23,1.334498,618860,28648
1453.44,1.338713,617697,28318
1456.64,1.337766,616264,28314
1459.85,1.332550,614413,28570
1463.04,1.337537,612307,28147
1466.24,1.334273,610032,28254
1469.43,1.339750,607345,27777
1473.67,1.339064,603789,27658
1476.85,1.333537,601175,27891
1480.02,1.335538,597737,27604
1483.19,1.337068,594479,27357
1486.36,1.333865,591232,27409
1489.52,1.331550,587853,27398
1492.68,1.340835,583875,26637
1496.89,1.331255,578062,26960
1500.03,1.345280,574159,25927
1503.18,1.336533,570285,26276
1506.32,1.338956,565444,25908
1509.45,1.337651,560571,25762
1512.58,1.335053,555821,25697
1515.71,1.341740,550344,25055
1519.87,1.337923,543983,24984
1522.99,1.342321,538764,24495
1526.1,1.340150,533692,24386
1529.21,1.335930,527902,24357
1532.32,1.349047,521886,23363
1535.42,1.338265,515888,23675
1538.51,1.336676,509987,23490
1541.6,1.346675,503936,22683
1545.72,1.338120,494694,22710
1548.8,1.339498,488378,22349
1551.88,1.330539,481832,22509
1554.95,1.338108,474989,21806
1558.02,1.334739,467818,21644
1561.08,1.331635,460730,21469
1564.15,1.338592,454170,20827
1568.22,1.336909,444181,20448
1571.27,1.332078,436947,20340
1574.32,1.331360,429598,20031
1577.36,1.337932,422039,19383
1580.4,1.337567,414375,19047
1583.43,1.336645,406354,18718
1586.46,1.340831,398475,18179
1590.49,1.336907,388982,17907
1593.51,1.330001,380708,17807
1596.53,1.328725,372727,17485
1599.54,1.327164,365060,17187
1602.55,1.336846,357543,16462
1605.55,1.320855,349495,16695
1608.55,1.332538,341154,15864
1612.54,1.329167,330877,15506
1615.53,1.325377,322904,15265
1618.51,1.326861,315116,14846
1621.49,1.325210,307217,14529
1624.47,1.326996,299481,14105
1627.44,1.321006,292112,13949
1630.41,1.315896,284245,13734
1634.36,1.318785,274079,13155
1637.32,1.302817,266916,13291
1640.27,1.322271,259612,12361
1643.22,1.325771,251804,11893
1646.16,1.308502,244348,12009
1649.1,1.310420,236703,11582
1652.04,1.307765,228171,11233
1655.95,1.325898,215408,10171
1658.88,1.307170,204937,10103
1661.8,1.290678,193395,9903
1664.72,1.297727,179728,9055
1667.63,1.290236,163642,8388
1670.54,1.299761,146312,7337
1673.44,1.267253,128451,6942
1677.31,1.270935,105080,5631
1680.21,1.271963,88906,4753
1683.1,1.288890,75033,3858
1685.99,1.254153,63520,3538
1688.87,1.197460,53714,3409
1691.75,1.226660,45653,2709
1694.62,1.198136,39137,2480
1697.49,1.202682,33776,2118
1701.31,1.404932,28175,1109