File: ML/samples/unknown/Column 1_078516_20241121_170630.csv
Method:,Column 1,,
Host Date-Time:,21/11/24 @ 17:6:30,,
Header Version:,1,,
System Temp (C):,34.76,,
Detector Temp (C):,33.87,,
Humidity (%):,1.86,,
Lamp PD:,3800,,
Shift Vector Coefficients:,-10.5391,0.0761263,-0.000134223,,
Pixel to Wavelength Coefficients:,1775.68,-0.916766,-0.000235065,,
Serial Number:,5510004,,
Scan Config Name:,Column 1,,
Scan Config Type:,Slew,,
Section 1,,
Start wavelength (nm):,900,,
End wavelength (nm):,1700,,
Pattern Pixel Width (nm):,   7.03,,,,
Exposure (ms):,  0.635,,,,
Digital Resolution:,228,,
Num Repeats:,6,,
PGA Gain:,64,,
Total Measurement Time in sec:,  2.704,,
Wavelength (nm),Absorbance (AU),Reference Signal (unitless),Sample Signal (unitless)
901.51,1.307828,108485,5340
905.376,1.323460,121306,5760
909.237,1.314774,131909,6390
913.095,1.310587,143299,7009
916.948,1.316926,156982,7567
922.079,1.316701,179937,8678
925.923,1.316921,200504,9665
929.762,1.312132,222660,10852
933.597,1.323764,244426,11598
937.427,1.316832,263972,12727
941.254,1.318392,281845,13540
945.076,1.316694,297271,14337
950.165,1.310159,315605,15452
953.978,1.318163,328029,15767
957.786,1.309492,340470,16695
961.59,1.316561,352317,16997
965.389,1.319574,363056,17394
969.185,1.314315,373162,18096
972.976,1.318719,382632,18368
976.763,1.296966,391202,19744
981.806,1.308329,400190,19676
985.583,1.311977,406088,19799
989.355,1.309543,410162,20110
993.124,1.314825,412868,19998
996.888,1.309181,414263,20328
1000.65,1.303857,415476,20639
1004.4,1.298964,415479,20873
1009.41,1.309623,414358,20312
1013.15,1.312371,412923,20114
1016.89,1.309691,411526,20170
1020.63,1.304019,409066,20313
1024.36,1.317522,406777,19581
1028.09,1.312176,404427,19709
1031.82,1.316060,401911,19412
1036.78,1.308673,398410,19573
1040.49,1.314075,396204,19224
1044.2,1.304943,394236,19535
1047.91,1.302252,392042,19547
1051.61,1.306121,389823,19264
1055.31,1.311691,388234,18941
1059,1.308260,387599,19060
1063.92,1.312972,386688,18810
1067.61,1.313610,386598,18778
1071.29,1.304177,387377,19229
1074.96,1.317613,388536,18699
1078.63,1.313638,389855,18935
1082.3,1.317565,391215,18830
1085.96,1.311329,393215,19200
1090.84,1.315369,396270,19170
1094.49,1.311725,398760,19453
1098.14,1.315261,400987,19403
1101.79,1.306769,403477,19909
1105.43,1.315310,406116,19649
1109.06,1.324245,407701,19324
1112.7,1.322399,409859,19509
1117.53,1.308307,412494,20282
1121.15,1.329950,414909,19409
1124.77,1.327686,416559,19588
1128.38,1.321895,418532,19945
1131.99,1.318476,419956,20171
1135.6,1.317868,421946,20295
1139.2,1.320712,423881,20255
1143.99,1.314513,426786,20687
1147.58,1.325430,428617,20260
1151.17,1.324783,431169,20411
1154.75,1.317400,433579,20877
1158.33,1.317861,436264,20984
1161.91,1.320479,439132,20995
1165.48,1.316997,442389,21321
1169.04,1.321482,446101,21279
1173.79,1.315519,451929,21855
1177.34,1.319598,456026,21847
1180.9,1.315821,461306,22293
1184.44,1.314074,467657,22691
1187.99,1.323066,473969,22526
1191.52,1.318233,479856,23061
1195.06,1.322991,487372,23167
1199.76,1.321911,497347,23700
1203.29,1.319673,504311,24156
1206.81,1.321444,511507,24401
1210.33,1.326652,519078,24467
1213.84,1.327388,527163,24806
1217.35,1.321784,534208,25464
1220.85,1.322705,540472,25708
1225.51,1.319444,549929,26355
1229.01,1.312558,556888,27115
1232.5,1.326761,562180,26492
1235.98,1.325789,567975,26825
1239.46,1.322269,574815,27369
1242.94,1.321446,582782,27801
1246.41,1.318756,591476,28391
1251.03,1.325914,604016,28519
1254.5,1.328817,612289,28717
1257.96,1.323904,619125,29368
1261.41,1.325378,624551,29525
1264.86,1.331811,629900,29340
1268.31,1.325958,634345,29948
1271.75,1.325780,638574,30160
1276.33,1.325113,642499,30392
1279.76,1.330608,645905,30169
1283.19,1.325988,648307,30605
1286.61,1.324167,650446,30835
1290.03,1.328855,652132,30583
1293.44,1.331544,653907,30477
1296.85,1.326780,655963,30910
1301.39,1.328992,657349,30818
1304.8,1.330824,657558,30698
1308.19,1.331484,658515,30696
1311.58,1.332992,658804,30603
1314.97,1.330328,659011,30801
1318.36,1.332996,658272,30578
1321.73,1.333144,658022,30556
1326.23,1.334410,657870,30460
1329.6,1.333521,656482,30458
1332.97,1.333347,654926,30398
1336.33,1.333753,653727,30314
1339.69,1.329638,652497,30545
1343.04,1.324742,649913,30769
1346.39,1.333048,647671,30082
1349.73,1.325544,645338,30496
1354.18,1.327848,641175,30139
1357.52,1.329159,638376,29917
1360.85,1.330699,635805,29691
1364.17,1.332292,633413,29471
1367.49,1.331154,631026,29437
1370.81,1.322279,628050,29903
1374.12,1.330923,625034,29173
1378.54,1.329062,620272,29075
1381.84,1.323208,616892,29309
1385.14,1.329740,613613,28718
1388.43,1.325923,611526,28873
1391.72,1.325265,610663,28876
1395.01,1.327687,610634,28714
1398.29,1.327161,611700,28799
1402.66,1.331596,614051,28616
1405.93,1.321245,616268,29412
1409.2,1.334129,617795,28623
1412.46,1.332631,618872,28772
1415.72,1.328982,619795,29058
1418.98,1.333572,620495,28785
1422.23,1.332946,621087,28854
1426.56,1.333509,621375,28830
1429.8,1.326314,621616,29323
1433.04,1.330271,622129,29081
1436.27,1.327630,621526,29230
1439.5,1.332859,621113,28861
1442.72,1.332394,620921,28883
1445.94,1.337644,620270,28506
1450.23,1.331703,618860,28833
1453.44,1.337610,617697,28390
1456.64,1.334343,616264,28538
1459.85,1.331609,614413,28632
1463.04,1.327788,612307,28786
1466.24,1.335211,610032,28193
1469.43,1.324435,607345,28774
1473.67,1.334674,603789,27939
1476.85,1.333848,601175,27871
1480.02,1.332684,597737,27786
1483.19,1.335847,594479,27434
1486.36,1.339848,591232,27034
1489.52,1.337487,587853,27026
1492.68,1.333222,583875,27108
1496.89,1.335235,578062,26714
1500.03,1.334069,574159,26605
1503.18,1.338869,570285,26135
1506.32,1.333244,565444,26251
1509.45,1.331940,560571,26103
1512.58,1.337918,555821,25528
1515.71,1.330634,550344,25704
1519.87,1.335186,543983,25142
1522.99,1.342498,538764,24485
1526.1,1.343960,533692,24173
1529.21,1.333299,527902,24505
1532.32,1.323772,521886,24763
1535.42,1.336910,515888,23749
1538.51,1.330362,509987,23834
1541.6,1.329555,503936,23595
1545.72,1.337928,494694,22720
1548.8,1.328030,488378,22947
1551.88,1.334240,481832,22318
1554.95,1.335289,474989,21948
1558.02,1.328722,467818,21946
1561.08,1.334374,460730,21334
1564.15,1.328024,454170,21340
1568.22,1.340021,444181,20302
1571.27,1.333190,436947,20288
1574.32,1.332076,429598,19998
1577.36,1.336567,422039,19444
1580.4,1.327248,414375,19505
1583.43,1.330952,406354,18965
1586.46,1.327771,398475,18734
1590.49,1.322969,388982,18491
1593.51,1.330514,380708,17786
1596.53,1.334627,372727,17249
1599.54,1.338220,365060,16755
1602.55,1.326780,357543,16848
1605.55,1.323176,349495,16606
1608.55,1.333058,341154,15845
1612.54,1.330204,330877,15469
1615.53,1.318322,322904,15515
1618.51,1.315144,315116,15252
1621.49,1.323688,307217,14580
1624.47,1.318097,299481,14397
1627.44,1.324916,292112,13824
1630.41,1.306852,284245,14023
1634.36,1.314678,274079,13280
1637.32,1.316864,266916,12868
1640.27,1.332833,259612,12064
1643.22,1.325333,251804,11905
1646.16,1.312279,244348,11905
1649.1,1.312224,236703,11534
1652.04,1.305067,228171,11303
1655.95,1.312942,215408,10479
1658.88,1.287299,204937,10576
1661.8,1.279851,193395,10153
1664.72,1.281349,179728,9403
1667.63,1.254901,163642,9099
1670.54,1.233161,146312,8553
1673.44,1.218261,128451,7771
1677.31,1.185576,105080,6854
1680.21,1.170925,88906,5998
1683.1,1.163783,75033,5146
1685.99,1.186120,63520,4138
1688.87,1.176569,53714,3577
1691.75,1.152423,45653,3214
1694.62,1.166890,39137,2665
1697.49,1.071484,33776,2865
1701.31,1.173862,28175,1888