File: ML/samples/unknown/Column 1_078174_20241121_164906.csv
Method:,Column 1,,
Host Date-Time:,21/11/24 @ 16:49:6,,
Header Version:,1,,
System Temp (C):,33.54,,
Detector Temp (C):,29.87,,
Humidity (%):,3.43,,
Lamp PD:,3805,,
Shift Vector Coefficients:,-10.5391,0.0761263,-0.000134223,,
Pixel to Wavelength Coefficients:,1775.68,-0.916766,-0.000235065,,
Serial Number:,5510004,,
Scan Config Name:,Column 1,,
Scan Config Type:,Slew,,
Section 1,,
Start wavelength (nm):,900,,
End wavelength (nm):,1700,,
Pattern Pixel Width (nm):,   7.03,,,,
Exposure (ms):,  0.635,,,,
Digital Resolution:,228,,
Num Repeats:,6,,
PGA Gain:,64,,
Total Measurement Time in sec:,  2.708,,
Wavelength (nm),Absorbance (AU),Reference Signal (unitless),Sample Signal (unitless)
901.51,1.293037,108485,5525
905.376,1.320230,121306,5803
909.237,1.333168,131909,6125
913.095,1.300906,143299,7167
916.948,1.357064,156982,6899
922.079,1.341042,179937,8205
925.923,1.325406,200504,9478
929.762,1.315790,222660,10761
933.597,1.314502,244426,11848
937.427,1.323053,263972,12546
941.254,1.301500,281845,14077
945.076,1.315001,297271,14393
950.165,1.310722,315605,15432
953.978,1.318659,328029,15749
957.786,1.302295,340470,16974
961.59,1.312669,352317,17150
965.389,1.307072,363056,17902
969.185,1.311945,373162,18195
972.976,1.311893,382632,18659
976.763,1.314288,391202,18972
981.806,1.315047,400190,19374
985.583,1.309353,406088,19919
989.355,1.313078,410162,19947
993.124,1.310976,412868,20176
996.888,1.310851,414263,20250
1000.65,1.301779,415476,20738
1004.4,1.307835,415479,20451
1009.41,1.307980,414358,20389
1013.15,1.314904,412923,19997
1016.89,1.306132,411526,20336
1020.63,1.302738,409066,20373
1024.36,1.304650,406777,20170
1028.09,1.305897,404427,19996
1031.82,1.313962,401911,19506
1036.78,1.306526,398410,19670
1040.49,1.303056,396204,19718
1044.2,1.300035,394236,19757
1047.91,1.305867,392042,19385
1051.61,1.310289,389823,19080
1055.31,1.314543,388234,18817
1059,1.317262,387599,18669
1063.92,1.309545,386688,18959
1067.61,1.314050,386598,18759
1071.29,1.314138,387377,18793
1074.96,1.313291,388536,18886
1078.63,1.312401,389855,18989
1082.3,1.310519,391215,19138
1085.96,1.307545,393215,19368
1090.84,1.319078,396270,19007
1094.49,1.316484,398760,19241
1098.14,1.317393,400987,19308
1101.79,1.325833,403477,19054
1105.43,1.312973,406116,19755
1109.06,1.308943,407701,20017
1112.7,1.314131,409859,19884
1117.53,1.315736,412494,19938
1121.15,1.314346,414909,20119
1124.77,1.319298,416559,19970
1128.38,1.315668,418532,20233
1131.99,1.327923,419956,19737
1135.6,1.320616,421946,20167
1139.2,1.323141,423881,20142
1143.99,1.323485,426786,20264
1147.58,1.332301,428617,19942
1151.17,1.321730,431169,20555
1154.75,1.328184,433579,20365
1158.33,1.324052,436264,20687
1161.91,1.316833,439132,21172
1165.48,1.308825,442389,21726
1169.04,1.332018,446101,20769
1173.79,1.311524,451929,22057
1177.34,1.321011,456026,21776
1180.9,1.314673,461306,22352
1184.44,1.319195,467657,22425
1187.99,1.323876,473969,22484
1191.52,1.315230,479856,23221
1195.06,1.329145,487372,22841
1199.76,1.329602,497347,23284
1203.29,1.321276,504311,24067
1206.81,1.322745,511507,24328
1210.33,1.318388,519078,24937
1213.84,1.322271,527163,25100
1217.35,1.332926,534208,24819
1220.85,1.317182,540472,26037
1225.51,1.322984,549929,26141
1229.01,1.325977,556888,26290
1232.5,1.327138,562180,26469
1235.98,1.323561,567975,26963
1239.46,1.321461,574815,27420
1242.94,1.325038,582782,27572
1246.41,1.323695,591476,28070
1251.03,1.320722,604016,28862
1254.5,1.325218,612289,28956
1257.96,1.326054,619125,29223
1261.41,1.328834,624551,29291
1264.86,1.326267,629900,29717
1268.31,1.328459,634345,29776
1271.75,1.321097,638574,30487
1276.33,1.334283,642499,29757
1279.76,1.330939,645905,30146
1283.19,1.331371,648307,30228
1286.61,1.326738,650446,30653
1290.03,1.330677,652132,30455
1293.44,1.329213,653907,30641
1296.85,1.327582,655963,30853
1301.39,1.328625,657349,30844
1304.8,1.332042,657558,30612
1308.19,1.334494,658515,30484
1311.58,1.336426,658804,30362
1314.97,1.326482,659011,31075
1318.36,1.329587,658272,30819
1321.73,1.335810,658022,30369
1326.23,1.338320,657870,30187
1329.6,1.333978,656482,30426
1332.97,1.337049,654926,30140
1336.33,1.331567,653727,30467
1339.69,1.327200,652497,30717
1343.04,1.331656,649913,30283
1346.39,1.333264,647671,30067
1349.73,1.331654,645338,30070
1354.18,1.332644,641175,29808
1357.52,1.331035,638376,29788
1360.85,1.331006,635805,29670
1364.17,1.327573,633413,29793
1367.49,1.328462,631026,29620
1370.81,1.335836,628050,28984
1374.12,1.336436,625034,28805
1378.54,1.329511,620272,29045
1381.84,1.328261,616892,28970
1385.14,1.330482,613613,28669
1388.43,1.324676,611526,28956
1391.72,1.324063,610663,28956
1395.01,1.327309,610634,28739
1398.29,1.326001,611700,28876
1402.66,1.328119,614051,28846
1405.93,1.331918,616268,28698
1409.2,1.328731,617795,28981
1412.46,1.334113,618872,28674
1415.72,1.328594,619795,29084
1418.98,1.333255,620495,28806
1422.23,1.332796,621087,28864
1426.56,1.325450,621375,29370
1429.8,1.338281,621616,28526
1433.04,1.336029,622129,28698
1436.27,1.332531,621526,28902
1439.5,1.329920,621113,29057
1442.72,1.332018,620921,28908
1445.94,1.336017,620270,28613
1450.23,1.333801,618860,28694
1453.44,1.336190,617697,28483
1456.64,1.337766,616264,28314
1459.85,1.335096,614413,28403
1463.04,1.333590,612307,28404
1466.24,1.336847,610032,28087
1469.43,1.338673,607345,27846
1473.67,1.335156,603789,27908
1476.85,1.339573,601175,27506
1480.02,1.330813,597737,27906
1483.19,1.340239,594479,27158
1486.36,1.334023,591232,27399
1489.52,1.342075,587853,26742
1492.68,1.330523,583875,27277
1496.89,1.340914,578062,26367
1500.03,1.344544,574159,25971
1503.18,1.338936,570285,26131
1506.32,1.338922,565444,25910
1509.45,1.339002,560571,25682
1512.58,1.342347,555821,25269
1515.71,1.342451,550344,25014
1519.87,1.343223,543983,24681
1522.99,1.336737,538764,24812
1526.1,1.341220,533692,24326
1529.21,1.338882,527902,24192
1532.32,1.338270,521886,23950
1535.42,1.339754,515888,23594
1538.51,1.341416,509987,23235
1541.6,1.333865,503936,23362
1545.72,1.338636,494694,22683
1548.8,1.340393,488378,22303
1551.88,1.335859,481832,22235
1554.95,1.333236,474989,22052
1558.02,1.332757,467818,21743
1561.08,1.331857,460730,21458
1564.15,1.333822,454170,21057
1568.22,1.329601,444181,20795
1571.27,1.332890,436947,20302
1574.32,1.337297,429598,19759
1577.36,1.343320,422039,19144
1580.4,1.338869,414375,18990
1583.43,1.329603,406354,19024
1586.46,1.334334,398475,18453
1590.49,1.333549,388982,18046
1593.51,1.328978,380708,17849
1596.53,1.326446,372727,17577
1599.54,1.328632,365060,17129
1602.55,1.327141,357543,16834
1605.55,1.329180,349495,16378
1608.55,1.338519,341154,15647
1612.54,1.329503,330877,15494
1615.53,1.332057,322904,15032
1618.51,1.329973,315116,14740
1621.49,1.327607,307217,14449
1624.47,1.313775,299481,14541
1627.44,1.321941,292112,13919
1630.41,1.310210,284245,13915
1634.36,1.314841,274079,13275
1637.32,1.310132,266916,13069
1640.27,1.304274,259612,12884
1643.22,1.314703,251804,12200
1646.16,1.309045,244348,11994
1649.1,1.305907,236703,11703
1652.04,1.312507,228171,11111
1655.95,1.299637,215408,10805
1658.88,1.297899,204937,10321
1661.8,1.292612,193395,9859
1664.72,1.299217,179728,9024
1667.63,1.282640,163642,8536
1670.54,1.270244,146312,7853
1673.44,1.277828,128451,6775
1677.31,1.244892,105080,5979
1680.21,1.231427,88906,5218
1683.1,1.285973,75033,3884
1685.99,1.208739,63520,3928
1688.87,1.190635,53714,3463
1691.75,1.290068,45653,2341
1694.62,1.134706,39137,2870
1697.49,1.210963,33776,2078
1701.31,1.336589,28175,1298