File: ML/samples/unknown/Column 1_078203_20241121_165032.csv
Method:,Column 1,,
Host Date-Time:,21/11/24 @ 16:50:32,,
Header Version:,1,,
System Temp (C):,33.82,,
Detector Temp (C):,30.75,,
Humidity (%):,3.03,,
Lamp PD:,3804,,
Shift Vector Coefficients:,-10.5391,0.0761263,-0.000134223,,
Pixel to Wavelength Coefficients:,1775.68,-0.916766,-0.000235065,,
Serial Number:,5510004,,
Scan Config Name:,Column 1,,
Scan Config Type:,Slew,,
Section 1,,
Start wavelength (nm):,900,,
End wavelength (nm):,1700,,
Pattern Pixel Width (nm):,   7.03,,,,
Exposure (ms):,  0.635,,,,
Digital Resolution:,228,,
Num Repeats:,6,,
PGA Gain:,64,,
Total Measurement Time in sec:,  2.708,,
Wavelength (nm),Absorbance (AU),Reference Signal (unitless),Sample Signal (unitless)
901.51,1.323057,108485,5156
905.376,1.335539,121306,5602
909.237,1.300796,131909,6599
913.095,1.301209,143299,7162
916.948,1.294337,156982,7971
922.079,1.310194,179937,8809
925.923,1.325865,200504,9468
929.762,1.323896,222660,10562
933.597,1.317113,244426,11777
937.427,1.322880,263972,12551
941.254,1.310982,281845,13773
945.076,1.321813,297271,14169
950.165,1.319161,315605,15135
953.978,1.307578,328029,16156
957.786,1.311997,340470,16599
961.59,1.317277,352317,16969
965.389,1.301241,363056,18144
969.185,1.301312,373162,18646
972.976,1.305172,382632,18950
976.763,1.303839,391202,19434
981.806,1.307293,400190,19723
985.583,1.311254,406088,19832
989.355,1.313252,410162,19939
993.124,1.312983,412868,20083
996.888,1.308925,414263,20340
1000.65,1.303984,415476,20633
1004.4,1.306689,415479,20505
1009.41,1.309046,414358,20339
1013.15,1.307390,412923,20346
1016.89,1.304001,411526,20436
1020.63,1.316050,409066,19758
1024.36,1.317122,406777,19599
1028.09,1.316806,404427,19500
1031.82,1.308057,401911,19773
1036.78,1.308784,398410,19568
1040.49,1.315138,396204,19177
1044.2,1.313860,394236,19138
1047.91,1.311436,392042,19138
1051.61,1.306392,389823,19252
1055.31,1.307379,388234,19130
1059,1.316727,387599,18692
1063.92,1.311911,386688,18856
1067.61,1.322088,386598,18415
1071.29,1.313491,387377,18821
1074.96,1.308807,388536,19082
1078.63,1.316260,389855,18821
1082.3,1.314417,391215,18967
1085.96,1.311351,393215,19199
1090.84,1.316685,396270,19112
1094.49,1.318452,398760,19154
1098.14,1.320010,400987,19192
1101.79,1.319924,403477,19315
1105.43,1.316416,406116,19599
1109.06,1.318152,407701,19597
1112.7,1.301474,409859,20472
1117.53,1.316063,412494,19923
1121.15,1.320170,414909,19851
1124.77,1.322529,416559,19822
1128.38,1.318360,418532,20108
1131.99,1.324416,419956,19897
1135.6,1.316245,421946,20371
1139.2,1.322237,423881,20184
1143.99,1.318965,426786,20476
1147.58,1.321397,428617,20449
1151.17,1.317399,431169,20761
1154.75,1.315532,433579,20967
1158.33,1.320914,436264,20837
1161.91,1.324323,439132,20810
1165.48,1.318098,442389,21267
1169.04,1.320503,446101,21327
1173.79,1.317072,451929,21777
1177.34,1.311835,456026,22241
1180.9,1.317206,461306,22222
1184.44,1.313959,467657,22697
1187.99,1.319112,473969,22732
1191.52,1.321275,479856,22900
1195.06,1.325378,487372,23040
1199.76,1.321563,497347,23719
1203.29,1.339670,504311,23069
1206.81,1.322727,511507,24329
1210.33,1.321307,519078,24770
1213.84,1.324492,527163,24972
1217.35,1.317963,534208,25689
1220.85,1.324194,540472,25620
1225.51,1.326789,549929,25913
1229.01,1.322096,556888,26526
1232.5,1.322990,562180,26723
1235.98,1.325401,567975,26849
1239.46,1.325007,574815,27197
1242.94,1.323356,582782,27679
1246.41,1.325198,591476,27973
1251.03,1.323742,604016,28662
1254.5,1.327881,612289,28779
1257.96,1.330190,619125,28946
1261.41,1.332407,624551,29051
1264.86,1.324575,629900,29833
1268.31,1.325450,634345,29983
1271.75,1.327887,638574,30014
1276.33,1.334911,642499,29714
1279.76,1.327138,645905,30411
1283.19,1.330481,648307,30290
1286.61,1.332357,650446,30259
1290.03,1.334415,652132,30194
1293.44,1.326233,653907,30852
1296.85,1.328145,655963,30813
1301.39,1.326476,657349,30997
1304.8,1.338143,657558,30185
1308.19,1.331979,658515,30661
1311.58,1.329726,658804,30834
1314.97,1.331754,659011,30700
1318.36,1.329150,658272,30850
1321.73,1.334596,658022,30454
1326.23,1.328998,657870,30842
1329.6,1.328137,656482,30838
1332.97,1.328135,654926,30765
1336.33,1.332494,653727,30402
1339.69,1.332363,652497,30354
1343.04,1.331470,649913,30296
1346.39,1.330514,647671,30258
1349.73,1.331134,645338,30106
1354.18,1.331334,641175,29898
1357.52,1.326496,638376,30101
1360.85,1.326840,635805,29956
1364.17,1.330865,633413,29568
1367.49,1.330535,631026,29479
1370.81,1.331735,628050,29259
1374.12,1.331265,625034,29150
1378.54,1.327393,620272,29187
1381.84,1.331783,616892,28736
1385.14,1.329725,613613,28719
1388.43,1.328276,611526,28717
1391.72,1.324799,610663,28907
1395.01,1.329142,610634,28618
1398.29,1.325280,611700,28924
1402.66,1.323998,614051,29121
1405.93,1.335291,616268,28476
1409.2,1.329751,617795,28913
1412.46,1.331214,618872,28866
1415.72,1.332403,619795,28830
1418.98,1.333678,620495,28778
1422.23,1.325781,621087,29334
1426.56,1.329565,621375,29093
1429.8,1.328854,621616,29152
1433.04,1.335303,622129,28746
1436.27,1.330328,621526,29049
1439.5,1.338097,621113,28515
1442.72,1.333855,620921,28786
1445.94,1.335002,620270,28680
1450.23,1.334604,618860,28641
1453.44,1.334015,617697,28626
1456.64,1.333249,616264,28610
1459.85,1.334668,614413,28431
1463.04,1.333422,612307,28415
1466.24,1.334073,610032,28267
1469.43,1.335952,607345,28021
1473.67,1.333867,603789,27991
1476.85,1.336898,601175,27676
1480.02,1.335192,597737,27626
1483.19,1.336941,594479,27365
1486.36,1.339687,591232,27044
1489.52,1.340066,587853,26866
1492.68,1.335938,583875,26939
1496.89,1.338810,578062,26495
1500.03,1.339853,574159,26253
1503.18,1.337691,570285,26206
1506.32,1.339341,565444,25885
1509.45,1.334929,560571,25924
1512.58,1.342897,555821,25237
1515.71,1.338665,550344,25233
1519.87,1.338776,543983,24935
1522.99,1.338579,538764,24707
1526.1,1.345905,533692,24065
1529.21,1.334257,527902,24451
1532.32,1.343047,521886,23688
1535.42,1.339496,515888,23608
1538.51,1.337009,509987,23472
1541.6,1.326858,503936,23742
1545.72,1.343256,494694,22443
1548.8,1.335109,488378,22576
1551.88,1.338936,481832,22078
1554.95,1.334142,474989,22006
1558.02,1.340923,467818,21338
1561.08,1.330241,460730,21538
1564.15,1.334958,454170,21002
1568.22,1.340749,444181,20268
1571.27,1.339160,436947,20011
1574.32,1.324733,429598,20339
1577.36,1.347011,422039,18982
1580.4,1.329905,414375,19386
1583.43,1.333110,406354,18871
1586.46,1.330538,398475,18615
1590.49,1.331364,388982,18137
1593.51,1.324765,380708,18023
1596.53,1.330093,372727,17430
1599.54,1.328683,365060,17127
1602.55,1.324646,357543,16931
1605.55,1.317796,349495,16813
1608.55,1.329292,341154,15983
1612.54,1.329391,330877,15498
1615.53,1.322795,322904,15356
1618.51,1.323249,315116,14970
1621.49,1.326767,307217,14477
1624.47,1.317525,299481,14416
1627.44,1.328544,292112,13709
1630.41,1.331608,284245,13246
1634.36,1.322865,274079,13032
1637.32,1.332078,266916,12425
1640.27,1.310932,259612,12688
1643.22,1.321339,251804,12015
1646.16,1.325765,244348,11541
1649.1,1.312714,236703,11521
1652.04,1.322991,228171,10846
1655.95,1.320425,215408,10300
1658.88,1.286274,204937,10601
1661.8,1.287576,193395,9974
1664.72,1.270133,179728,9649
1667.63,1.272334,163642,8741
1670.54,1.266062,146312,7929
1673.44,1.259318,128451,7070
1677.31,1.219020,105080,6346
1680.21,1.262652,88906,4856
1683.1,1.256577,75033,4156
1685.99,1.195241,63520,4052
1688.87,1.229988,53714,3163
1691.75,1.309998,45653,2236
1694.62,1.275151,39137,2077
1697.49,1.307194,33776,1665
1701.31,1.145158,28175,2017