File: ML/samples/unknown/Column 1_078583_20241121_170950.csv
Method:,Column 1,,
Host Date-Time:,21/11/24 @ 17:9:50,,
Header Version:,1,,
System Temp (C):,36.59,,
Detector Temp (C):,34.64,,
Humidity (%):,1.27,,
Lamp PD:,3799,,
Shift Vector Coefficients:,-10.5391,0.0761263,-0.000134223,,
Pixel to Wavelength Coefficients:,1775.68,-0.916766,-0.000235065,,
Serial Number:,5510004,,
Scan Config Name:,Column 1,,
Scan Config Type:,Slew,,
Section 1,,
Start wavelength (nm):,900,,
End wavelength (nm):,1700,,
Pattern Pixel Width (nm):,   7.03,,,,
Exposure (ms):,  0.635,,,,
Digital Resolution:,228,,
Num Repeats:,6,,
PGA Gain:,64,,
Total Measurement Time in sec:,  2.734,,
Wavelength (nm),Absorbance (AU),Reference Signal (unitless),Sample Signal (unitless)
901.51,1.311012,108485,5301
905.376,1.344626,121306,5486
909.237,1.318322,131909,6338
913.095,1.326425,143299,6758
916.948,1.325739,156982,7415
922.079,1.337038,179937,8281
925.923,1.322302,200504,9546
929.762,1.328027,222660,10462
933.597,1.330824,244426,11411
937.427,1.329083,263972,12373
941.254,1.319291,281845,13512
945.076,1.313525,297271,14442
950.165,1.314623,315605,15294
953.978,1.314788,328029,15890
957.786,1.307649,340470,16766
961.59,1.306484,352317,17396
965.389,1.308384,363056,17848
969.185,1.306184,373162,18438
972.976,1.303959,382632,19003
976.763,1.291197,391202,20008
981.806,1.305667,400190,19797
985.583,1.303699,406088,20180
989.355,1.301053,410162,20507
993.124,1.307183,412868,20353
996.888,1.301957,414263,20669
1000.65,1.294840,415476,21072
1004.4,1.300987,415479,20776
1009.41,1.303382,414358,20606
1013.15,1.305792,412923,20421
1016.89,1.313085,411526,20013
1020.63,1.299426,409066,20529
1024.36,1.312297,406777,19818
1028.09,1.312374,404427,19700
1031.82,1.301691,401911,20065
1036.78,1.303950,398410,19787
1040.49,1.304711,396204,19643
1044.2,1.305699,394236,19501
1047.91,1.303253,392042,19502
1051.61,1.308064,389823,19178
1055.31,1.311324,388234,18957
1059,1.308123,387599,19066
1063.92,1.299783,386688,19390
1067.61,1.304071,386598,19195
1071.29,1.306601,387377,19122
1074.96,1.308557,388536,19093
1078.63,1.309393,389855,19121
1082.3,1.309997,391215,19161
1085.96,1.318306,393215,18894
1090.84,1.312772,396270,19285
1094.49,1.303257,398760,19836
1098.14,1.325017,400987,18972
1101.79,1.308452,403477,19832
1105.43,1.303944,406116,20170
1109.06,1.306045,407701,20151
1112.7,1.306961,409859,20215
1117.53,1.315344,412494,19956
1121.15,1.310157,414909,20314
1124.77,1.318234,416559,20019
1128.38,1.312205,418532,20395
1131.99,1.307905,419956,20668
1135.6,1.319282,421946,20229
1139.2,1.307701,423881,20871
1143.99,1.319135,426786,20468
1147.58,1.311259,428617,20932
1151.17,1.319980,431169,20638
1154.75,1.310036,433579,21234
1158.33,1.315549,436264,21096
1161.91,1.309208,439132,21547
1165.48,1.313608,442389,21488
1169.04,1.309843,446101,21857
1173.79,1.315798,451929,21841
1177.34,1.313204,456026,22171
1180.9,1.313257,461306,22425
1184.44,1.313271,467657,22733
1187.99,1.305570,473969,23452
1191.52,1.314595,479856,23255
1195.06,1.319183,487372,23371
1199.76,1.320210,497347,23793
1203.29,1.322162,504311,24018
1206.81,1.317458,511507,24626
1210.33,1.320904,519078,24793
1213.84,1.312993,527163,25642
1217.35,1.321409,534208,25486
1220.85,1.320447,540472,25842
1225.51,1.317061,549929,26500
1229.01,1.317131,556888,26831
1232.5,1.318544,562180,26998
1235.98,1.313499,567975,27595
1239.46,1.317660,574815,27661
1242.94,1.316985,582782,28088
1246.41,1.317473,591476,28475
1251.03,1.316484,604016,29145
1254.5,1.324124,612289,29029
1257.96,1.320413,619125,29605
1261.41,1.322768,624551,29703
1264.86,1.322657,629900,29965
1268.31,1.320382,634345,30335
1271.75,1.324917,638574,30220
1276.33,1.322819,642499,30553
1279.76,1.323582,645905,30661
1283.19,1.327168,648307,30522
1286.61,1.324210,650446,30832
1290.03,1.322120,652132,31061
1293.44,1.322770,653907,31099
1296.85,1.322127,655963,31243
1301.39,1.327992,657349,30889
1304.8,1.326194,657558,31027
1308.19,1.324328,658515,31206
1311.58,1.324393,658804,31215
1314.97,1.329975,659011,30826
1318.36,1.330560,658272,30750
1321.73,1.327229,658022,30975
1326.23,1.327017,657870,30983
1329.6,1.325273,656482,31042
1332.97,1.332405,654926,30464
1336.33,1.323895,653727,31010
1339.69,1.324437,652497,30913
1343.04,1.326566,649913,30640
1346.39,1.326073,647671,30569
1349.73,1.320997,645338,30817
1354.18,1.326941,641175,30202
1357.52,1.322503,638376,30379
1360.85,1.325638,635805,30039
1364.17,1.321349,633413,30223
1367.49,1.324144,631026,29916
1370.81,1.331008,628050,29308
1374.12,1.328769,625034,29318
1378.54,1.320807,620272,29633
1381.84,1.321301,616892,29438
1385.14,1.319547,613613,29400
1388.43,1.321374,611526,29177
1391.72,1.321446,610663,29131
1395.01,1.318439,610634,29332
1398.29,1.325701,611700,28896
1402.66,1.323998,614051,29121
1405.93,1.320404,616268,29469
1409.2,1.327295,617795,29077
1412.46,1.329637,618872,28971
1415.72,1.328997,619795,29057
1418.98,1.334993,620495,28691
1422.23,1.330081,621087,29045
1426.56,1.332862,621375,28873
1429.8,1.326373,621616,29319
1433.04,1.330749,622129,29049
1436.27,1.331736,621526,28955
1439.5,1.336622,621113,28612
1442.72,1.327996,620921,29177
1445.94,1.332992,620270,28813
1450.23,1.327431,618860,29118
1453.44,1.325155,617697,29216
1456.64,1.334602,616264,28521
1459.85,1.331230,614413,28657
1463.04,1.330846,612307,28584
1466.24,1.329686,610032,28554
1469.43,1.325085,607345,28731
1473.67,1.329237,603789,28291
1476.85,1.336004,601175,27733
1480.02,1.328005,597737,28087
1483.19,1.331625,594479,27702
1486.36,1.331794,591232,27540
1489.52,1.331883,587853,27377
1492.68,1.330555,583875,27275
1496.89,1.332125,578062,26906
1500.03,1.338664,574159,26325
1503.18,1.333141,570285,26482
1506.32,1.328391,565444,26546
1509.45,1.329899,560571,26226
1512.58,1.320217,555821,26590
1515.71,1.331124,550344,25675
1519.87,1.328381,543983,25539
1522.99,1.323362,538764,25588
1526.1,1.334102,533692,24728
1529.21,1.336358,527902,24333
1532.32,1.331630,521886,24319
1535.42,1.338504,515888,23662
1538.51,1.331110,509987,23793
1541.6,1.327957,503936,23682
1545.72,1.331873,494694,23039
1548.8,1.328257,488378,22935
1551.88,1.332086,481832,22429
1554.95,1.324192,474989,22516
1558.02,1.331800,467818,21791
1561.08,1.321202,460730,21991
1564.15,1.328941,454170,21295
1568.22,1.332913,444181,20637
1571.27,1.331736,436947,20356
1574.32,1.326723,429598,20246
1577.36,1.328687,422039,19800
1580.4,1.330017,414375,19381
1583.43,1.327848,406354,19101
1586.46,1.324975,398475,18855
1590.49,1.331125,388982,18147
1593.51,1.327496,380708,17910
1596.53,1.320483,372727,17820
1599.54,1.315669,365060,17648
1602.55,1.328226,357543,16792
1605.55,1.323385,349495,16598
1608.55,1.319911,341154,16332
1612.54,1.316470,330877,15966
1615.53,1.319190,322904,15484
1618.51,1.310133,315116,15429
1621.49,1.325120,307217,14532
1624.47,1.292559,299481,15269
1627.44,1.312436,292112,14227
1630.41,1.326523,284245,13402
1634.36,1.309703,274079,13433
1637.32,1.308077,266916,13131
1640.27,1.310248,259612,12708
1643.22,1.317094,251804,12133
1646.16,1.307022,244348,12050
1649.1,1.313355,236703,11504
1652.04,1.312507,228171,11111
1655.95,1.279492,215408,11318
1658.88,1.297310,204937,10335
1661.8,1.282812,193395,10084
1664.72,1.263789,179728,9791
1667.63,1.249965,163642,9203
1670.54,1.240897,146312,8402
1673.44,1.216086,128451,7810
1677.31,1.157246,105080,7316
1680.21,1.198114,88906,5634
1683.1,1.169474,75033,5079
1685.99,1.172584,63520,4269
1688.87,1.156056,53714,3750
1691.75,1.097057,45653,3651
1694.62,1.213282,39137,2395
1697.49,1.178360,33776,2240
1701.31,1.143439,28175,2025