File: ML/samples/unknown/Column 1_078269_20241121_165347.csv
Method:,Column 1,,
Host Date-Time:,21/11/24 @ 16:53:47,,
Header Version:,1,,
System Temp (C):,34.22,,
Detector Temp (C):,32.09,,
Humidity (%):,2.45,,
Lamp PD:,3802,,
Shift Vector Coefficients:,-10.5391,0.0761263,-0.000134223,,
Pixel to Wavelength Coefficients:,1775.68,-0.916766,-0.000235065,,
Serial Number:,5510004,,
Scan Config Name:,Column 1,,
Scan Config Type:,Slew,,
Section 1,,
Start wavelength (nm):,900,,
End wavelength (nm):,1700,,
Pattern Pixel Width (nm):,   7.03,,,,
Exposure (ms):,  0.635,,,,
Digital Resolution:,228,,
Num Repeats:,6,,
PGA Gain:,64,,
Total Measurement Time in sec:,  2.728,,
Wavelength (nm),Absorbance (AU),Reference Signal (unitless),Sample Signal (unitless)
901.51,1.320621,108485,5185
905.376,1.335307,121306,5605
909.237,1.329637,131909,6175
913.095,1.315886,143299,6924
916.948,1.343553,156982,7117
922.079,1.325804,179937,8498
925.923,1.309084,200504,9841
929.762,1.337385,222660,10239
933.597,1.326846,244426,11516
937.427,1.334238,263972,12227
941.254,1.312087,281845,13738
945.076,1.312534,297271,14475
950.165,1.325142,315605,14928
953.978,1.311494,328029,16011
957.786,1.312390,340470,16584
961.59,1.324712,352317,16681
965.389,1.309895,363056,17786
969.185,1.308403,373162,18344
972.976,1.304554,382632,18977
976.763,1.304532,391202,19403
981.806,1.312053,400190,19508
985.583,1.310707,406088,19857
989.355,1.309867,410162,20095
993.124,1.302134,412868,20591
996.888,1.309866,414263,20296
1000.65,1.310750,415476,20314
1004.4,1.305547,415479,20559
1009.41,1.315565,414358,20036
1013.15,1.309616,412923,20242
1016.89,1.315152,411526,19918
1020.63,1.307669,409066,20143
1024.36,1.310372,406777,19906
1028.09,1.318747,404427,19413
1031.82,1.307355,401911,19805
1036.78,1.307255,398410,19637
1040.49,1.312564,396204,19291
1044.2,1.314291,394236,19119
1047.91,1.317768,392042,18861
1051.61,1.313144,389823,18955
1055.31,1.318159,388234,18661
1059,1.316100,387599,18719
1063.92,1.310164,386688,18932
1067.61,1.309375,386598,18962
1071.29,1.315411,387377,18738
1074.96,1.317683,388536,18696
1078.63,1.312104,389855,19002
1082.3,1.303764,391215,19438
1085.96,1.315808,393215,19003
1090.84,1.322150,396270,18873
1094.49,1.315267,398760,19295
1098.14,1.317776,400987,19291
1101.79,1.318712,403477,19369
1105.43,1.309972,406116,19892
1109.06,1.315942,407701,19697
1112.7,1.317353,409859,19737
1117.53,1.314974,412494,19973
1121.15,1.323751,414909,19688
1124.77,1.328530,416559,19550
1128.38,1.321546,418532,19961
1131.99,1.320851,419956,20061
1135.6,1.325205,421946,19955
1139.2,1.322603,423881,20167
1143.99,1.321667,426786,20349
1147.58,1.320040,428617,20513
1151.17,1.327387,431169,20289
1154.75,1.320553,433579,20726
1158.33,1.320060,436264,20878
1161.91,1.320376,439132,21000
1165.48,1.312942,442389,21521
1169.04,1.316107,446101,21544
1173.79,1.317811,451929,21740
1177.34,1.324817,456026,21586
1180.9,1.318929,461306,22134
1184.44,1.318827,467657,22444
1187.99,1.326181,473969,22365
1191.52,1.321370,479856,22895
1195.06,1.321456,487372,23249
1199.76,1.326683,497347,23441
1203.29,1.318722,504311,24209
1206.81,1.323245,511507,24300
1210.33,1.322852,519078,24682
1213.84,1.330410,527163,24634
1217.35,1.326362,534208,25197
1220.85,1.333757,540472,25062
1225.51,1.329007,549929,25781
1229.01,1.326258,556888,26273
1232.5,1.325860,562180,26547
1235.98,1.322805,567975,27010
1239.46,1.325742,574815,27151
1242.94,1.326268,582782,27494
1246.41,1.321796,591476,28193
1251.03,1.327104,604016,28441
1254.5,1.327112,612289,28830
1257.96,1.330280,619125,28940
1261.41,1.325658,624551,29506
1264.86,1.329553,629900,29493
1268.31,1.330638,634345,29627
1271.75,1.328438,638574,29976
1276.33,1.326817,642499,30273
1279.76,1.322762,645905,30719
1283.19,1.326556,648307,30565
1286.61,1.333650,650446,30169
1290.03,1.333969,652132,30225
1293.44,1.330079,653907,30580
1296.85,1.331016,655963,30610
1301.39,1.337099,657349,30248
1304.8,1.337783,657558,30210
1308.19,1.327695,658515,30965
1311.58,1.333461,658804,30570
1314.97,1.329609,659011,30852
1318.36,1.331295,658272,30698
1321.73,1.332846,658022,30577
1326.23,1.329307,657870,30820
1329.6,1.330438,656482,30675
1332.97,1.331053,654926,30559
1336.33,1.331282,653727,30487
1339.69,1.332034,652497,30377
1343.04,1.337984,649913,29845
1346.39,1.333019,647671,30084
1349.73,1.337719,645338,29653
1354.18,1.329378,641175,30033
1357.52,1.329246,638376,29911
1360.85,1.333222,635805,29519
1364.17,1.331865,633413,29500
1367.49,1.332484,631026,29347
1370.81,1.327672,628050,29534
1374.12,1.331563,625034,29130
1378.54,1.331654,620272,28902
1381.84,1.333115,616892,28648
1385.14,1.324793,613613,29047
1388.43,1.329533,611526,28634
1391.72,1.330241,610663,28547
1395.01,1.326388,610634,28800
1398.29,1.331907,611700,28486
1402.66,1.327908,614051,28860
1405.93,1.335748,616268,28446
1409.2,1.329977,617795,28898
1412.46,1.338588,618872,28380
1415.72,1.333338,619795,28768
1418.98,1.336220,620495,28610
1422.23,1.332721,621087,28869
1426.56,1.330387,621375,29038
1429.8,1.334990,621616,28743
1433.04,1.334639,622129,28790
1436.27,1.333660,621526,28827
1439.5,1.337565,621113,28550
1442.72,1.334308,620921,28756
1445.94,1.331788,620270,28893
1450.23,1.333257,618860,28730
1453.44,1.336770,617697,28445
1456.64,1.332324,616264,28671
1459.85,1.337042,614413,28276
1463.04,1.331865,612307,28517
1466.24,1.337157,610032,28067
1469.43,1.335178,607345,28071
1473.67,1.333619,603789,28007
1476.85,1.337620,601175,27630
1480.02,1.340873,597737,27267
1483.19,1.344368,594479,26901
1486.36,1.337365,591232,27189
1489.52,1.341588,587853,26772
1492.68,1.334506,583875,27028
1496.89,1.334196,578062,26778
1500.03,1.339622,574159,26267
1503.18,1.336235,570285,26294
1506.32,1.342321,565444,25708
1509.45,1.332323,560571,26080
1512.58,1.337510,555821,25552
1515.71,1.340545,550344,25124
1519.87,1.341169,543983,24798
1522.99,1.339670,538764,24645
1526.1,1.346591,533692,24027
1529.21,1.342541,527902,23989
1532.32,1.335757,521886,24089
1535.42,1.333322,515888,23946
1538.51,1.336288,509987,23511
1541.6,1.340780,503936,22993
1545.72,1.340651,494694,22578
1548.8,1.332826,488378,22695
1551.88,1.335819,481832,22237
1554.95,1.333452,474989,22041
1558.02,1.337255,467818,21519
1561.08,1.337972,460730,21158
1564.15,1.346929,454170,20431
1568.22,1.331569,444181,20701
1571.27,1.332804,436947,20306
1574.32,1.335236,429598,19853
1577.36,1.342708,422039,19171
1580.4,1.337521,414375,19049
1583.43,1.343473,406354,18426
1586.46,1.338021,398475,18297
1590.49,1.335720,388982,17956
1593.51,1.334512,380708,17623
1596.53,1.330368,372727,17419
1599.54,1.336151,365060,16835
1602.55,1.339120,357543,16376
1605.55,1.336669,349495,16098
1608.55,1.323677,341154,16191
1612.54,1.333898,330877,15338
1615.53,1.325234,322904,15270
1618.51,1.322350,315116,15001
1621.49,1.325239,307217,14528
1624.47,1.325889,299481,14141
1627.44,1.339548,292112,13366
1630.41,1.313468,284245,13811
1634.36,1.341035,274079,12498
1637.32,1.325591,266916,12612
1640.27,1.323855,259612,12316
1643.22,1.319319,251804,12071
1646.16,1.317823,244348,11754
1649.1,1.316956,236703,11409
1652.04,1.314152,228171,11069
1655.95,1.306974,215408,10624
1658.88,1.305839,204937,10134
1661.8,1.284106,193395,10054
1664.72,1.278174,179728,9472
1667.63,1.282488,163642,8539
1670.54,1.266774,146312,7916
1673.44,1.227182,128451,7613
1677.31,1.234485,105080,6124
1680.21,1.191383,88906,5722
1683.1,1.184790,75033,4903
1685.99,1.209071,63520,3925
1688.87,1.233435,53714,3138
1691.75,1.181336,45653,3007
1694.62,1.196737,39137,2488
1697.49,1.218127,33776,2044
1701.31,1.189793,28175,1820