File: ML/samples/unknown/Column 1_078225_20241121_165137.csv
Method:,Column 1,,
Host Date-Time:,21/11/24 @ 16:51:37,,
Header Version:,1,,
System Temp (C):,34.1,,
Detector Temp (C):,31.34,,
Humidity (%):,3.52,,
Lamp PD:,3804,,
Shift Vector Coefficients:,-10.5391,0.0761263,-0.000134223,,
Pixel to Wavelength Coefficients:,1775.68,-0.916766,-0.000235065,,
Serial Number:,5510004,,
Scan Config Name:,Column 1,,
Scan Config Type:,Slew,,
Section 1,,
Start wavelength (nm):,900,,
End wavelength (nm):,1700,,
Pattern Pixel Width (nm):,   7.03,,,,
Exposure (ms):,  0.635,,,,
Digital Resolution:,228,,
Num Repeats:,6,,
PGA Gain:,64,,
Total Measurement Time in sec:,  2.709,,
Wavelength (nm),Absorbance (AU),Reference Signal (unitless),Sample Signal (unitless)
901.51,1.317782,108485,5219
905.376,1.360180,121306,5293
909.237,1.332177,131909,6139
913.095,1.344668,143299,6480
916.948,1.317615,156982,7555
922.079,1.314106,179937,8730
925.923,1.330801,200504,9361
929.762,1.326246,222660,10505
933.597,1.335800,244426,11281
937.427,1.321429,263972,12593
941.254,1.319259,281845,13513
945.076,1.312144,297271,14488
950.165,1.320368,315605,15093
953.978,1.323958,328029,15558
957.786,1.310274,340470,16665
961.59,1.311027,352317,17215
965.389,1.318153,363056,17451
969.185,1.308925,373162,18322
972.976,1.315610,382632,18500
976.763,1.310323,391202,19146
981.806,1.314330,400190,19406
985.583,1.310291,406088,19876
989.355,1.308336,410162,20166
993.124,1.309515,412868,20244
996.888,1.308328,414263,20368
1000.65,1.306115,415476,20532
1004.4,1.317584,415479,19997
1009.41,1.306025,414358,20481
1013.15,1.313950,412923,20041
1016.89,1.313367,411526,20000
1020.63,1.314120,409066,19846
1024.36,1.317854,406777,19566
1028.09,1.320047,404427,19355
1031.82,1.310856,401911,19646
1036.78,1.312663,398410,19394
1040.49,1.316545,396204,19115
1044.2,1.316432,394236,19025
1047.91,1.315151,392042,18975
1051.61,1.314176,389823,18910
1055.31,1.311897,388234,18932
1059,1.309332,387599,19013
1063.92,1.308676,386688,18997
1067.61,1.313842,386598,18768
1071.29,1.319111,387377,18579
1074.96,1.319428,388536,18621
1078.63,1.319689,389855,18673
1082.3,1.317911,391215,18815
1085.96,1.324487,393215,18627
1090.84,1.320497,396270,18945
1094.49,1.333376,398760,18507
1098.14,1.322689,400987,19074
1101.79,1.317838,403477,19408
1105.43,1.325643,406116,19187
1109.06,1.319862,407701,19520
1112.7,1.316606,409859,19771
1117.53,1.324471,412494,19541
1121.15,1.327317,414909,19527
1124.77,1.324924,416559,19713
1128.38,1.328167,418532,19659
1131.99,1.316136,419956,20280
1135.6,1.321133,421946,20143
1139.2,1.314010,423881,20570
1143.99,1.328703,426786,20022
1147.58,1.317360,428617,20640
1151.17,1.324124,431169,20442
1154.75,1.318004,433579,20848
1158.33,1.316332,436264,21058
1161.91,1.321266,439132,20957
1165.48,1.317486,442389,21297
1169.04,1.316611,446101,21519
1173.79,1.320958,451929,21583
1177.34,1.322410,456026,21706
1180.9,1.318478,461306,22157
1184.44,1.325005,467657,22127
1187.99,1.316807,473969,22853
1191.52,1.318760,479856,23033
1195.06,1.325435,487372,23037
1199.76,1.323177,497347,23631
1203.29,1.325447,504311,23837
1206.81,1.328586,511507,24003
1210.33,1.325287,519078,24544
1213.84,1.324874,527163,24950
1217.35,1.330188,534208,24976
1220.85,1.325944,540472,25517
1225.51,1.332525,549929,25573
1229.01,1.328412,556888,26143
1232.5,1.325598,562180,26563
1235.98,1.323754,567975,26951
1239.46,1.323461,574815,27294
1242.94,1.320525,582782,27860
1246.41,1.328393,591476,27768
1251.03,1.332157,604016,28112
1254.5,1.329847,612289,28649
1257.96,1.326024,619125,29225
1261.41,1.327516,624551,29380
1264.86,1.327555,629900,29629
1268.31,1.325929,634345,29950
1271.75,1.329831,638574,29880
1276.33,1.323032,642499,30538
1279.76,1.325186,645905,30548
1283.19,1.327652,648307,30488
1286.61,1.333420,650446,30185
1290.03,1.336072,652132,30079
1293.44,1.329866,653907,30595
1296.85,1.324734,655963,31056
1301.39,1.328907,657349,30824
1304.8,1.333179,657558,30532
1308.19,1.333128,658515,30580
1311.58,1.334157,658804,30521
1314.97,1.327167,659011,31026
1318.36,1.330419,658272,30760
1321.73,1.333158,658022,30555
1326.23,1.336525,657870,30312
1329.6,1.335050,656482,30351
1332.97,1.331281,654926,30543
1336.33,1.334499,653727,30262
1339.69,1.336662,652497,30055
1343.04,1.328641,649913,30494
1346.39,1.333611,647671,30043
1349.73,1.332377,645338,30020
1354.18,1.332527,641175,29816
1357.52,1.332964,638376,29656
1360.85,1.329998,635805,29739
1364.17,1.331365,633413,29534
1367.49,1.331021,631026,29446
1370.81,1.328820,628050,29456
1374.12,1.330744,625034,29185
1378.54,1.329003,620272,29079
1381.84,1.329747,616892,28871
1385.14,1.326336,613613,28944
1388.43,1.330231,611526,28588
1391.72,1.331201,610663,28484
1395.01,1.333933,610634,28304
1398.29,1.326182,611700,28864
1402.66,1.330610,614051,28681
1405.93,1.335153,616268,28485
1409.2,1.331618,617795,28789
1412.46,1.329323,618872,28992
1415.72,1.338349,619795,28438
1418.98,1.332577,620495,28851
1422.23,1.337105,621087,28579
1426.56,1.342920,621375,28212
1429.8,1.337506,621616,28577
1433.04,1.333659,622129,28855
1436.27,1.333494,621526,28838
1439.5,1.334623,621113,28744
1442.72,1.335563,620921,28673
1445.94,1.329674,620270,29034
1450.23,1.339024,618860,28351
1453.44,1.338759,617697,28315
1456.64,1.341787,616264,28053
1459.85,1.333753,614413,28491
1463.04,1.337028,612307,28180
1466.24,1.336276,610032,28124
1469.43,1.343645,607345,27529
1473.67,1.339253,603789,27646
1476.85,1.337604,601175,27631
1480.02,1.336341,597737,27553
1483.19,1.337116,594479,27354
1486.36,1.345068,591232,26711
1489.52,1.343930,587853,26628
1492.68,1.337117,583875,26866
1496.89,1.337321,578062,26586
1500.03,1.341760,574159,26138
1503.18,1.341670,570285,25967
1506.32,1.334785,565444,26158
1509.45,1.341954,560571,25508
1512.58,1.337442,555821,25556
1515.71,1.336742,550344,25345
1519.87,1.335964,543983,25097
1522.99,1.337017,538764,24796
1526.1,1.340863,533692,24346
1529.21,1.342704,527902,23980
1532.32,1.339760,521886,23868
1535.42,1.342098,515888,23467
1538.51,1.335587,509987,23549
1541.6,1.338087,503936,23136
1545.72,1.345331,494694,22336
1548.8,1.368610,488378,20900
1551.88,1.343544,481832,21845
1554.95,1.333275,474989,22050
1558.02,1.337921,467818,21486
1561.08,1.338075,460730,21153
1564.15,1.341269,454170,20699
1568.22,1.342230,444181,20199
1571.27,1.334411,436947,20231
1574.32,1.344500,429598,19434
1577.36,1.335786,422039,19479
1580.4,1.339372,414375,18968
1583.43,1.340889,406354,18536
1586.46,1.342818,398475,18096
1590.49,1.344219,388982,17608
1593.51,1.336092,380708,17559
1596.53,1.339183,372727,17069
1599.54,1.329673,365060,17088
1602.55,1.336898,357543,16460
1605.55,1.323228,349495,16604
1608.55,1.322311,341154,16242
1612.54,1.334124,330877,15330
1615.53,1.326231,322904,15235
1618.51,1.325663,315116,14887
1621.49,1.325718,307217,14512
1624.47,1.320608,299481,14314
1627.44,1.326332,292112,13779
1630.41,1.320058,284245,13603
1634.36,1.317006,274079,13209
1637.32,1.322297,266916,12708
1640.27,1.316027,259612,12540
1643.22,1.323440,251804,11957
1646.16,1.321273,244348,11661
1649.1,1.319131,236703,11352
1652.04,1.306838,228171,11257
1655.95,1.316396,215408,10396
1658.88,1.324133,204937,9716
1661.8,1.283114,193395,10077
1664.72,1.289085,179728,9237
1667.63,1.283251,163642,8524
1670.54,1.283553,146312,7616
1673.44,1.233271,128451,7507
1677.31,1.238832,105080,6063
1680.21,1.230014,88906,5235
1683.1,1.189332,75033,4852
1685.99,1.181838,63520,4179
1688.87,1.229988,53714,3163
1691.75,1.205234,45653,2846
1694.62,1.247214,39137,2215
1697.49,1.395389,33776,1359
1701.31,1.355044,28175,1244