File: ML/samples/unknown/Column 1_078452_20241121_170322.csv
Method:,Column 1,,
Host Date-Time:,21/11/24 @ 17:3:22,,
Header Version:,1,,
System Temp (C):,34.75,,
Detector Temp (C):,33.77,,
Humidity (%):,1.95,,
Lamp PD:,3801,,
Shift Vector Coefficients:,-10.5391,0.0761263,-0.000134223,,
Pixel to Wavelength Coefficients:,1775.68,-0.916766,-0.000235065,,
Serial Number:,5510004,,
Scan Config Name:,Column 1,,
Scan Config Type:,Slew,,
Section 1,,
Start wavelength (nm):,900,,
End wavelength (nm):,1700,,
Pattern Pixel Width (nm):,   7.03,,,,
Exposure (ms):,  0.635,,,,
Digital Resolution:,228,,
Num Repeats:,6,,
PGA Gain:,64,,
Total Measurement Time in sec:,  2.704,,
Wavelength (nm),Absorbance (AU),Reference Signal (unitless),Sample Signal (unitless)
901.51,1.325337,108485,5129
905.376,1.331450,121306,5655
909.237,1.314638,131909,6392
913.095,1.332704,143299,6661
916.948,1.323460,156982,7454
922.079,1.337195,179937,8278
925.923,1.327888,200504,9424
929.762,1.332115,222660,10364
933.597,1.320965,244426,11673
937.427,1.310027,263972,12928
941.254,1.329667,281845,13193
945.076,1.325600,297271,14046
950.165,1.319764,315605,15114
953.978,1.327969,328029,15415
957.786,1.307183,340470,16784
961.59,1.322038,352317,16784
965.389,1.308433,363056,17846
969.185,1.306938,373162,18406
972.976,1.306434,382632,18895
976.763,1.308625,391202,19221
981.806,1.309169,400190,19638
985.583,1.313009,406088,19752
989.355,1.314758,410162,19870
993.124,1.318007,412868,19852
996.888,1.313152,414263,20143
1000.65,1.302513,415476,20703
1004.4,1.309409,415479,20377
1009.41,1.312950,414358,20157
1013.15,1.319643,412923,19780
1016.89,1.313932,411526,19974
1020.63,1.306249,409066,20209
1024.36,1.301753,406777,20305
1028.09,1.312242,404427,19706
1031.82,1.305845,401911,19874
1036.78,1.301412,398410,19903
1040.49,1.319005,396204,19007
1044.2,1.313746,394236,19143
1047.91,1.311391,392042,19140
1051.61,1.323625,389823,18503
1055.31,1.308834,388234,19066
1059,1.314525,387599,18787
1063.92,1.308401,386688,19009
1067.61,1.314096,386598,18757
1071.29,1.321338,387377,18484
1074.96,1.314604,388536,18829
1078.63,1.314028,389855,18918
1082.3,1.309092,391215,19201
1085.96,1.316014,393215,18994
1090.84,1.313064,396270,19272
1094.49,1.320156,398760,19079
1098.14,1.319219,400987,19227
1101.79,1.324308,403477,19121
1105.43,1.320535,406116,19414
1109.06,1.322876,407701,19385
1112.7,1.316606,409859,19771
1117.53,1.311078,412494,20153
1121.15,1.321902,414909,19772
1124.77,1.313681,416559,20230
1128.38,1.315325,418532,20249
1131.99,1.319533,419956,20122
1135.6,1.313397,421946,20505
1139.2,1.313503,423881,20594
1143.99,1.313380,426786,20741
1147.58,1.306390,428617,21168
1151.17,1.321287,431169,20576
1154.75,1.324997,433579,20515
1158.33,1.316828,436264,21034
1161.91,1.318663,439132,21083
1165.48,1.319530,442389,21197
1169.04,1.317621,446101,21469
1173.79,1.314944,451929,21884
1177.34,1.322710,456026,21691
1180.9,1.327910,461306,21681
1184.44,1.314572,467657,22665
1187.99,1.324360,473969,22459
1191.52,1.319364,479856,23001
1195.06,1.325095,487372,23055
1199.76,1.317808,497347,23925
1203.29,1.321331,504311,24064
1206.81,1.320768,511507,24439
1210.33,1.328163,519078,24382
1213.84,1.329987,527163,24658
1217.35,1.325621,534208,25240
1220.85,1.328658,540472,25358
1225.51,1.321426,549929,26235
1229.01,1.328280,556888,26151
1232.5,1.326744,562180,26493
1235.98,1.319329,567975,27227
1239.46,1.323493,574815,27292
1242.94,1.327882,582782,27392
1246.41,1.322073,591476,28175
1251.03,1.328327,604016,28361
1254.5,1.326209,612289,28890
1257.96,1.324141,619125,29352
1261.41,1.322344,624551,29732
1264.86,1.323571,629900,29902
1268.31,1.327105,634345,29869
1271.75,1.324888,638574,30222
1276.33,1.330867,642499,29992
1279.76,1.326268,645905,30472
1283.19,1.351229,648307,28877
1286.61,1.331898,650446,30291
1290.03,1.332979,652132,30294
1293.44,1.331245,653907,30498
1296.85,1.330959,655963,30614
1301.39,1.328935,657349,30822
1304.8,1.337338,657558,30241
1308.19,1.329128,658515,30863
1311.58,1.328531,658804,30919
1314.97,1.335049,659011,30468
1318.36,1.333352,658272,30553
1321.73,1.333912,658022,30502
1326.23,1.332234,657870,30613
1329.6,1.328686,656482,30799
1332.97,1.337381,654926,30117
1336.33,1.333109,653727,30359
1339.69,1.330193,652497,30506
1343.04,1.332891,649913,30197
1346.39,1.326557,647671,30535
1349.73,1.331221,645338,30100
1354.18,1.333592,641175,29743
1357.52,1.327145,638376,30056
1360.85,1.326855,635805,29955
1364.17,1.334094,633413,29349
1367.49,1.329167,631026,29572
1370.81,1.320555,628050,30022
1374.12,1.329897,625034,29242
1378.54,1.332271,620272,28861
1381.84,1.330591,616892,28815
1385.14,1.326892,613613,28907
1388.43,1.331128,611526,28529
1391.72,1.330074,610663,28558
1395.01,1.332738,610634,28382
1398.29,1.331115,611700,28538
1402.66,1.331050,614051,28652
1405.93,1.329564,616268,28854
1409.2,1.328956,617795,28966
1412.46,1.328903,618872,29020
1415.72,1.332539,619795,28821
1418.98,1.333180,620495,28811
1422.23,1.332405,621087,28890
1426.56,1.329133,621375,29122
1429.8,1.331019,621616,29007
1433.04,1.331048,622129,29029
1436.27,1.334338,621526,28782
1439.5,1.339470,621113,28425
1442.72,1.330339,620921,29020
1445.94,1.330872,620270,28954
1450.23,1.338963,618860,28355
1453.44,1.336388,617697,28470
1456.64,1.337214,616264,28350
1459.85,1.331442,614413,28643
1463.04,1.342394,612307,27834
1466.24,1.343061,610032,27688
1469.43,1.330653,607345,28365
1473.67,1.337638,603789,27749
1476.85,1.336615,601175,27694
1480.02,1.340507,597737,27290
1483.19,1.337878,594479,27306
1486.36,1.338901,591232,27093
1489.52,1.338597,587853,26957
1492.68,1.339435,583875,26723
1496.89,1.339894,578062,26429
1500.03,1.343408,574159,26039
1503.18,1.338338,570285,26167
1506.32,1.340871,565444,25794
1509.45,1.344995,560571,25330
1512.58,1.336865,555821,25590
1515.71,1.333600,550344,25529
1519.87,1.336119,543983,25088
1522.99,1.337245,538764,24783
1526.1,1.338249,533692,24493
1529.21,1.331971,527902,24580
1532.32,1.337346,521886,24001
1535.42,1.343618,515888,23385
1538.51,1.338139,509987,23411
1541.6,1.334033,503936,23353
1545.72,1.338234,494694,22704
1548.8,1.340412,488378,22302
1551.88,1.336328,481832,22211
1554.95,1.342029,474989,21610
1558.02,1.343782,467818,21198
1561.08,1.332323,460730,21435
1564.15,1.324356,454170,21521
1568.22,1.338036,444181,20395
1571.27,1.334454,436947,20229
1574.32,1.339567,429598,19656
1577.36,1.333030,422039,19603
1580.4,1.336133,414375,19110
1583.43,1.331410,406354,18945
1586.46,1.341836,398475,18137
1590.49,1.342890,388982,17662
1593.51,1.327690,380708,17902
1596.53,1.332718,372727,17325
1599.54,1.329648,365060,17089
1602.55,1.324235,357543,16947
1605.55,1.326378,349495,16484
1608.55,1.323999,341154,16179
1612.54,1.329223,330877,15504
1615.53,1.319611,322904,15469
1618.51,1.334415,315116,14590
1621.49,1.321875,307217,14641
1624.47,1.319396,299481,14354
1627.44,1.319825,292112,13987
1630.41,1.322556,284245,13525
1634.36,1.309800,274079,13430
1637.32,1.316122,266916,12890
1640.27,1.310692,259612,12695
1643.22,1.328188,251804,11827
1646.16,1.323177,244348,11610
1649.1,1.324598,236703,11210
1652.04,1.334679,228171,10558
1655.95,1.303067,215408,10720
1658.88,1.294170,204937,10410
1661.8,1.297619,193395,9746
1664.72,1.302647,179728,8953
1667.63,1.272135,163642,8745
1670.54,1.257224,146312,8092
1673.44,1.213315,128451,7860
1677.31,1.210213,105080,6476
1680.21,1.177123,88906,5913
1683.1,1.166067,75033,5119
1685.99,1.203683,63520,3974
1688.87,1.222232,53714,3220
1691.75,1.201285,45653,2872
1694.62,1.193087,39137,2509
1697.49,1.193150,33776,2165
1701.31,1.167695,28175,1915