File: ML/samples/unknown/Column 1_078382_20241121_165956.csv
Method:,Column 1,,
Host Date-Time:,21/11/24 @ 16:59:56,,
Header Version:,1,,
System Temp (C):,34.57,,
Detector Temp (C):,33.98,,
Humidity (%):,1.95,,
Lamp PD:,3803,,
Shift Vector Coefficients:,-10.5391,0.0761263,-0.000134223,,
Pixel to Wavelength Coefficients:,1775.68,-0.916766,-0.000235065,,
Serial Number:,5510004,,
Scan Config Name:,Column 1,,
Scan Config Type:,Slew,,
Section 1,,
Start wavelength (nm):,900,,
End wavelength (nm):,1700,,
Pattern Pixel Width (nm):,   7.03,,,,
Exposure (ms):,  0.635,,,,
Digital Resolution:,228,,
Num Repeats:,6,,
PGA Gain:,64,,
Total Measurement Time in sec:,  2.729,,
Wavelength (nm),Absorbance (AU),Reference Signal (unitless),Sample Signal (unitless)
901.51,1.308235,108485,5335
905.376,1.313988,121306,5887
909.237,1.337086,131909,6070
913.095,1.329262,143299,6714
916.948,1.309924,156982,7690
922.079,1.327545,179937,8464
925.923,1.320712,200504,9581
929.762,1.324472,222660,10548
933.597,1.332922,244426,11356
937.427,1.317412,263972,12710
941.254,1.323781,281845,13373
945.076,1.313134,297271,14455
950.165,1.319219,315605,15133
953.978,1.319543,328029,15717
957.786,1.315438,340470,16468
961.59,1.301742,352317,17587
965.389,1.309285,363056,17811
969.185,1.316480,373162,18006
972.976,1.301816,382632,19097
976.763,1.305518,391202,19359
981.806,1.306523,400190,19758
985.583,1.308351,406088,19965
989.355,1.315173,410162,19851
993.124,1.304227,412868,20492
996.888,1.307369,414263,20413
1000.65,1.307492,415476,20467
1004.4,1.307325,415479,20475
1009.41,1.303150,414358,20617
1013.15,1.311745,412923,20143
1016.89,1.310597,411526,20128
1020.63,1.308230,409066,20117
1024.36,1.304543,406777,20175
1028.09,1.314606,404427,19599
1031.82,1.309708,401911,19698
1036.78,1.315719,398410,19258
1040.49,1.304910,396204,19634
1044.2,1.299837,394236,19766
1047.91,1.308744,392042,19257
1051.61,1.303895,389823,19363
1055.31,1.307424,388234,19128
1059,1.312496,387599,18875
1063.92,1.320025,386688,18507
1067.61,1.306385,386598,19093
1071.29,1.316223,387377,18703
1074.96,1.316314,388536,18755
1078.63,1.310416,389855,19076
1082.3,1.316115,391215,18893
1085.96,1.312779,393215,19136
1090.84,1.308625,396270,19470
1094.49,1.310989,398760,19486
1098.14,1.313764,400987,19470
1101.79,1.320982,403477,19268
1105.43,1.315487,406116,19641
1109.06,1.312188,407701,19868
1112.7,1.322867,409859,19488
1117.53,1.315453,412494,19951
1121.15,1.322672,414909,19737
1124.77,1.311625,416559,20326
1128.38,1.314896,418532,20269
1131.99,1.312426,419956,20454
1135.6,1.321327,421946,20134
1139.2,1.314940,423881,20526
1143.99,1.314828,426786,20672
1147.58,1.311757,428617,20908
1151.17,1.322174,431169,20534
1154.75,1.321644,433579,20674
1158.33,1.324913,436264,20646
1161.91,1.320231,439132,21007
1165.48,1.304548,442389,21941
1169.04,1.313454,446101,21676
1173.79,1.310874,451929,22090
1177.34,1.314715,456026,22094
1180.9,1.315684,461306,22300
1184.44,1.318092,467657,22482
1187.99,1.319475,473969,22713
1191.52,1.320101,479856,22962
1195.06,1.321064,487372,23270
1199.76,1.322700,497347,23657
1203.29,1.319835,504311,24147
1206.81,1.328695,511507,23997
1210.33,1.322729,519078,24689
1213.84,1.320424,527163,25207
1217.35,1.326931,534208,25164
1220.85,1.342775,540472,24547
1225.51,1.324599,549929,26044
1229.01,1.323901,556888,26416
1232.5,1.325353,562180,26578
1235.98,1.323513,567975,26966
1239.46,1.322873,574815,27331
1242.94,1.320089,582782,27888
1246.41,1.323958,591476,28053
1251.03,1.320030,604016,28908
1254.5,1.327820,612289,28783
1257.96,1.326589,619125,29187
1261.41,1.327901,624551,29354
1264.86,1.332567,629900,29289
1268.31,1.327061,634345,29872
1271.75,1.322695,638574,30375
1276.33,1.331650,642499,29938
1279.76,1.331242,645905,30125
1283.19,1.333084,648307,30109
1286.61,1.330052,650446,30420
1290.03,1.326095,652132,30778
1293.44,1.333114,653907,30367
1296.85,1.329034,655963,30750
1301.39,1.329993,657349,30747
1304.8,1.335218,657558,30389
1308.19,1.332121,658515,30651
1311.58,1.337027,658804,30320
1314.97,1.336476,659011,30368
1318.36,1.330829,658272,30731
1321.73,1.330862,658022,30717
1326.23,1.328280,657870,30893
1329.6,1.337173,656482,30203
1332.97,1.327910,654926,30781
1336.33,1.330428,653727,30547
1339.69,1.333279,652497,30290
1343.04,1.330654,649913,30353
1346.39,1.329253,647671,30346
1349.73,1.330745,645338,30133
1354.18,1.328858,641175,30069
1357.52,1.329972,638376,29861
1360.85,1.325393,635805,30056
1364.17,1.329004,633413,29695
1367.49,1.324260,631026,29908
1370.81,1.325267,628050,29698
1374.12,1.324597,625034,29601
1378.54,1.329915,620272,29018
1381.84,1.331179,616892,28776
1385.14,1.321828,613613,29246
1388.43,1.319325,611526,29315
1391.72,1.327209,610663,28747
1395.01,1.330129,610634,28553
1398.29,1.321171,611700,29199
1402.66,1.331747,614051,28606
1405.93,1.326773,616268,29040
1409.2,1.330067,617795,28892
1412.46,1.326932,618872,29152
1415.72,1.337038,619795,28524
1418.98,1.331931,620495,28894
1422.23,1.324023,621087,29453
1426.56,1.328164,621375,29187
1429.8,1.332925,621616,28880
1433.04,1.331423,622129,29004
1436.27,1.332171,621526,28926
1439.5,1.338753,621113,28472
1442.72,1.335578,620921,28672
1445.94,1.331548,620270,28909
1450.23,1.338978,618860,28354
1453.44,1.335809,617697,28508
1456.64,1.332036,616264,28690
1459.85,1.334974,614413,28411
1463.04,1.338325,612307,28096
1466.24,1.335319,610032,28186
1469.43,1.331358,607345,28319
1473.67,1.339002,603789,27662
1476.85,1.337746,601175,27622
1480.02,1.331981,597737,27831
1483.19,1.337974,594479,27300
1486.36,1.337668,591232,27170
1489.52,1.333743,587853,27260
1492.68,1.333639,583875,27082
1496.89,1.335528,578062,26696
1500.03,1.338961,574159,26307
1503.18,1.334159,570285,26420
1506.32,1.330030,565444,26446
1509.45,1.339205,560571,25670
1512.58,1.339281,555821,25448
1515.71,1.339803,550344,25167
1519.87,1.337402,543983,25014
1522.99,1.335635,538764,24875
1526.1,1.334611,533692,24699
1529.21,1.337806,527902,24252
1532.32,1.335360,521886,24111
1535.42,1.335413,515888,23831
1538.51,1.334500,509987,23608
1541.6,1.335019,503936,23300
1545.72,1.340190,494694,22602
1548.8,1.334398,488378,22613
1551.88,1.334610,481832,22299
1554.95,1.332743,474989,22077
1558.02,1.335704,467818,21596
1561.08,1.332789,460730,21412
1564.15,1.331641,454170,21163
1568.22,1.327663,444181,20888
1571.27,1.334841,436947,20211
1574.32,1.335455,429598,19843
1577.36,1.333895,422039,19564
1580.4,1.338709,414375,18997
1583.43,1.330425,406354,18988
1586.46,1.329676,398475,18652
1590.49,1.330360,388982,18179
1593.51,1.327763,380708,17899
1596.53,1.326644,372727,17569
1599.54,1.320046,365060,17471
1602.55,1.322343,357543,17021
1605.55,1.331733,349495,16282
1608.55,1.324214,341154,16171
1612.54,1.318707,330877,15884
1615.53,1.320905,322904,15423
1618.51,1.322350,315116,15001
1621.49,1.317683,307217,14783
1624.47,1.306049,299481,14802
1627.44,1.328480,292112,13711
1630.41,1.322877,284245,13515
1634.36,1.330496,274079,12805
1637.32,1.320150,266916,12771
1640.27,1.301452,259612,12968
1643.22,1.307816,251804,12395
1646.16,1.317934,244348,11751
1649.1,1.309596,236703,11604
1652.04,1.317579,228171,10982
1655.95,1.292146,215408,10993
1658.88,1.288533,204937,10546
1661.8,1.281995,193395,10103
1664.72,1.280565,179728,9420
1667.63,1.263725,163642,8916
1670.54,1.222231,146312,8771
1673.44,1.217981,128451,7776
1677.31,1.197590,105080,6667
1680.21,1.191535,88906,5720
1683.1,1.175501,75033,5009
1685.99,1.177598,63520,4220
1688.87,1.220347,53714,3234
1691.75,1.148656,45653,3242
1694.62,1.179288,39137,2590
1697.49,1.197181,33776,2145
1701.31,1.130758,28175,2085