File: ML/samples/unknown/Column 1_078288_20241121_165443.csv
Method:,Column 1,,
Host Date-Time:,21/11/24 @ 16:54:43,,
Header Version:,1,,
System Temp (C):,34.36,,
Detector Temp (C):,32.53,,
Humidity (%):,2.25,,
Lamp PD:,3802,,
Shift Vector Coefficients:,-10.5391,0.0761263,-0.000134223,,
Pixel to Wavelength Coefficients:,1775.68,-0.916766,-0.000235065,,
Serial Number:,5510004,,
Scan Config Name:,Column 1,,
Scan Config Type:,Slew,,
Section 1,,
Start wavelength (nm):,900,,
End wavelength (nm):,1700,,
Pattern Pixel Width (nm):,   7.03,,,,
Exposure (ms):,  0.635,,,,
Digital Resolution:,228,,
Num Repeats:,6,,
PGA Gain:,64,,
Total Measurement Time in sec:,  2.725,,
Wavelength (nm),Absorbance (AU),Reference Signal (unitless),Sample Signal (unitless)
901.51,1.335966,108485,5005
905.376,1.311341,121306,5923
909.237,1.315182,131909,6384
913.095,1.313509,143299,6962
916.948,1.342639,156982,7132
922.079,1.330893,179937,8399
925.923,1.312495,200504,9764
929.762,1.332241,222660,10361
933.597,1.328963,244426,11460
937.427,1.321429,263972,12593
941.254,1.319773,281845,13497
945.076,1.323749,297271,14106
950.165,1.310131,315605,15453
953.978,1.322732,328029,15602
957.786,1.319998,340470,16296
961.59,1.314904,352317,17062
965.389,1.308822,363056,17830
969.185,1.303741,373162,18542
972.976,1.309456,382632,18764
976.763,1.311004,391202,19116
981.806,1.312722,400190,19478
985.583,1.299075,406088,20396
989.355,1.314736,410162,19871
993.124,1.312378,412868,20111
996.888,1.313044,414263,20148
1000.65,1.305122,415476,20579
1004.4,1.306478,415479,20515
1009.41,1.304754,414358,20541
1013.15,1.309423,412923,20251
1016.89,1.318654,411526,19758
1020.63,1.310416,409066,20016
1024.36,1.308088,406777,20011
1028.09,1.312528,404427,19693
1031.82,1.305102,401911,19908
1036.78,1.311924,398410,19427
1040.49,1.315161,396204,19176
1044.2,1.310334,394236,19294
1047.91,1.309263,392042,19234
1051.61,1.313006,389823,18961
1055.31,1.309997,388234,19015
1059,1.314132,387599,18804
1063.92,1.323441,386688,18362
1067.61,1.310614,386598,18908
1071.29,1.321314,387377,18485
1074.96,1.319335,388536,18625
1078.63,1.308961,389855,19140
1082.3,1.316276,391215,18886
1085.96,1.305398,393215,19464
1090.84,1.321713,396270,18892
1094.49,1.314727,398760,19319
1098.14,1.318091,400987,19277
1101.79,1.315339,403477,19520
1105.43,1.321498,406116,19371
1109.06,1.325888,407701,19251
1112.7,1.322288,409859,19514
1117.53,1.320555,412494,19718
1121.15,1.320827,414909,19821
1124.77,1.320911,416559,19896
1128.38,1.313677,418532,20326
1131.99,1.312638,419956,20444
1135.6,1.314160,421946,20469
1139.2,1.319833,423881,20296
1143.99,1.319538,426786,20449
1147.58,1.316666,428617,20673
1151.17,1.322555,431169,20516
1154.75,1.329786,433579,20290
1158.33,1.314316,436264,21156
1161.91,1.323406,439132,20854
1165.48,1.318200,442389,21262
1169.04,1.318817,446101,21410
1173.79,1.321966,451929,21533
1177.34,1.325280,456026,21563
1180.9,1.322832,461306,21936
1184.44,1.323320,467657,22213
1187.99,1.320452,473969,22662
1191.52,1.328003,479856,22548
1195.06,1.322935,487372,23170
1199.76,1.325185,497347,23522
1203.29,1.328207,504311,23686
1206.81,1.327827,511507,24045
1210.33,1.320693,519078,24805
1213.84,1.323988,527163,25001
1217.35,1.334627,534208,24722
1220.85,1.321002,540472,25809
1225.51,1.318390,549929,26419
1229.01,1.321507,556888,26562
1232.5,1.318560,562180,26997
1235.98,1.320543,567975,27151
1239.46,1.320243,574815,27497
1242.94,1.321680,582782,27786
1246.41,1.323447,591476,28086
1251.03,1.325397,604016,28553
1254.5,1.322243,612289,29155
1257.96,1.323387,619125,29403
1261.41,1.328049,624551,29344
1264.86,1.329450,629900,29500
1268.31,1.327949,634345,29811
1271.75,1.329671,638574,29891
1276.33,1.329580,642499,30081
1279.76,1.330449,645905,30180
1283.19,1.327168,648307,30522
1286.61,1.328911,650446,30500
1290.03,1.334156,652132,30212
1293.44,1.325754,653907,30886
1296.85,1.331470,655963,30578
1301.39,1.330544,657349,30708
1304.8,1.333805,657558,30488
1308.19,1.334408,658515,30490
1311.58,1.328938,658804,30890
1314.97,1.332023,659011,30681
1318.36,1.331890,658272,30656
1321.73,1.334667,658022,30449
1326.23,1.335681,657870,30371
1329.6,1.334064,656482,30420
1332.97,1.325546,654926,30949
1336.33,1.332866,653727,30376
1339.69,1.328191,652497,30647
1343.04,1.333453,649913,30158
1346.39,1.333467,647671,30053
1349.73,1.330644,645338,30140
1354.18,1.326538,641175,30230
1357.52,1.326178,638376,30123
1360.85,1.335316,635805,29377
1364.17,1.328229,633413,29748
1367.49,1.333209,631026,29298
1370.81,1.329174,628050,29432
1374.12,1.331727,625034,29119
1378.54,1.330544,620272,28976
1381.84,1.328051,616892,28984
1385.14,1.329937,613613,28705
1388.43,1.324841,611526,28945
1391.72,1.328450,610663,28665
1395.01,1.329856,610634,28571
1398.29,1.330537,611700,28576
1402.66,1.333878,614051,28466
1405.93,1.334164,616268,28550
1409.2,1.332766,617795,28713
1412.46,1.335235,618872,28600
1415.72,1.334563,619795,28687
1418.98,1.333980,620495,28758
1422.23,1.332630,621087,28875
1426.56,1.334580,621375,28759
1429.8,1.337870,621616,28553
1433.04,1.335923,622129,28705
1436.27,1.334535,621526,28769
1439.5,1.343600,621113,28156
1442.72,1.331913,620921,28915
1445.94,1.336671,620270,28570
1450.23,1.334665,618860,28637
1453.44,1.333878,617697,28635
1456.64,1.332233,616264,28677
1459.85,1.340017,614413,28083
1463.04,1.334141,612307,28368
1466.24,1.340340,610032,27862
1469.43,1.338205,607345,27876
1473.67,1.342264,603789,27455
1476.85,1.337416,601175,27643
1480.02,1.334313,597737,27682
1483.19,1.332143,594479,27669
1486.36,1.338933,591232,27091
1489.52,1.340195,587853,26858
1492.68,1.334153,583875,27050
1496.89,1.344337,578062,26160
1500.03,1.331465,574159,26765
1503.18,1.333240,570285,26476
1506.32,1.339174,565444,25895
1509.45,1.343677,560571,25407
1512.58,1.335814,555821,25652
1515.71,1.338442,550344,25246
1519.87,1.341029,543983,24806
1522.99,1.342073,538764,24509
1526.1,1.335932,533692,24624
1529.21,1.340735,527902,24089
1532.32,1.338270,521886,23950
1535.42,1.339000,515888,23635
1538.51,1.337009,509987,23472
1541.6,1.330182,503936,23561
1545.72,1.330311,494694,23122
1548.8,1.321605,488378,23289
1551.88,1.338248,481832,22113
1554.95,1.334083,474989,22009
1558.02,1.323822,467818,22195
1561.08,1.338835,460730,21116
1564.15,1.336802,454170,20913
1568.22,1.334220,444181,20575
1571.27,1.334669,436947,20219
1574.32,1.337407,429598,19754
1577.36,1.340877,422039,19252
1580.4,1.328228,414375,19461
1583.43,1.333455,406354,18856
1586.46,1.331870,398475,18558
1590.49,1.333982,388982,18028
1593.51,1.328370,380708,17874
1596.53,1.328378,372727,17499
1599.54,1.321815,365060,17400
1602.55,1.327476,357543,16821
1605.55,1.325799,349495,16506
1608.55,1.330926,341154,15923
1612.54,1.326152,330877,15614
1615.53,1.315587,322904,15613
1618.51,1.322988,315116,14979
1621.49,1.318771,307217,14746
1624.47,1.325367,299481,14158
1627.44,1.313751,292112,14184
1630.41,1.299452,284245,14264
1634.36,1.319247,274079,13141
1637.32,1.321956,266916,12718
1640.27,1.318981,259612,12455
1643.22,1.325114,251804,11911
1646.16,1.320752,244348,11675
1649.1,1.324869,236703,11203
1652.04,1.292307,228171,11640
1655.95,1.306688,215408,10631
1658.88,1.289440,204937,10524
1661.8,1.275044,193395,10266
1664.72,1.277991,179728,9476
1667.63,1.276226,163642,8663
1670.54,1.252049,146312,8189
1673.44,1.258950,128451,7076
1677.31,1.186020,105080,6847
1680.21,1.216457,88906,5401
1683.1,1.192476,75033,4817
1685.99,1.234944,63520,3698
1688.87,1.218338,53714,3249
1691.75,1.266772,45653,2470
1694.62,1.193433,39137,2507
1697.49,1.215585,33776,2056
1701.31,1.266025,28175,1527