File: ML/samples/unknown/Column 1_078171_20241121_164857.csv
Method:,Column 1,,
Host Date-Time:,21/11/24 @ 16:48:57,,
Header Version:,1,,
System Temp (C):,33.45,,
Detector Temp (C):,29.82,,
Humidity (%):,3.43,,
Lamp PD:,3805,,
Shift Vector Coefficients:,-10.5391,0.0761263,-0.000134223,,
Pixel to Wavelength Coefficients:,1775.68,-0.916766,-0.000235065,,
Serial Number:,5510004,,
Scan Config Name:,Column 1,,
Scan Config Type:,Slew,,
Section 1,,
Start wavelength (nm):,900,,
End wavelength (nm):,1700,,
Pattern Pixel Width (nm):,   7.03,,,,
Exposure (ms):,  0.635,,,,
Digital Resolution:,228,,
Num Repeats:,6,,
PGA Gain:,64,,
Total Measurement Time in sec:,  2.695,,
Wavelength (nm),Absorbance (AU),Reference Signal (unitless),Sample Signal (unitless)
901.51,1.304910,108485,5376
905.376,1.339355,121306,5553
909.237,1.327183,131909,6210
913.095,1.309164,143299,7032
916.948,1.329090,156982,7358
922.079,1.330273,179937,8411
925.923,1.300043,200504,10048
929.762,1.323485,222660,10572
933.597,1.334915,244426,11304
937.427,1.320602,263972,12617
941.254,1.321708,281845,13437
945.076,1.325105,297271,14062
950.165,1.339817,315605,14432
953.978,1.315335,328029,15870
957.786,1.318535,340470,16351
961.59,1.309641,352317,17270
965.389,1.306611,363056,17921
969.185,1.319773,373162,17870
972.976,1.318176,382632,18391
976.763,1.305227,391202,19372
981.806,1.309612,400190,19618
985.583,1.305921,406088,20077
989.355,1.311318,410162,20028
993.124,1.315759,412868,19955
996.888,1.305078,414263,20521
1000.65,1.307895,415476,20448
1004.4,1.311074,415479,20299
1009.41,1.310543,414358,20269
1013.15,1.309401,412923,20252
1016.89,1.306709,411526,20309
1020.63,1.314471,409066,19830
1024.36,1.312823,406777,19794
1028.09,1.300844,404427,20230
1031.82,1.312717,401911,19562
1036.78,1.315358,398410,19274
1040.49,1.308374,396204,19478
1044.2,1.308537,394236,19374
1047.91,1.302053,392042,19556
1051.61,1.312571,389823,18980
1055.31,1.313207,388234,18875
1059,1.308055,387599,19069
1063.92,1.319274,386688,18539
1067.61,1.315163,386598,18711
1071.29,1.317036,387377,18668
1074.96,1.309627,388536,19046
1078.63,1.313225,389855,18953
1082.3,1.314531,391215,18962
1085.96,1.312847,393215,19133
1090.84,1.311198,396270,19355
1094.49,1.320748,398760,19053
1098.14,1.308488,400987,19708
1101.79,1.323900,403477,19139
1105.43,1.317303,406116,19559
1109.06,1.312975,407701,19832
1112.7,1.310867,409859,20034
1117.53,1.317591,412494,19853
1121.15,1.315232,414909,20078
1124.77,1.318191,416559,20021
1128.38,1.324998,418532,19803
1131.99,1.319597,419956,20119
1135.6,1.320207,421946,20186
1139.2,1.317912,423881,20386
1143.99,1.321113,426786,20375
1147.58,1.318034,428617,20608
1151.17,1.318195,431169,20723
1154.75,1.324256,433579,20550
1158.33,1.324346,436264,20673
1161.91,1.318786,439132,21077
1165.48,1.323275,442389,21015
1169.04,1.309545,446101,21872
1173.79,1.325469,451929,21360
1177.34,1.319339,456026,21860
1180.9,1.320600,461306,22049
1184.44,1.320864,467657,22339
1187.99,1.317587,473969,22812
1191.52,1.327118,479856,22594
1195.06,1.325340,487372,23042
1199.76,1.322535,497347,23666
1203.29,1.312647,504311,24550
1206.81,1.317564,511507,24620
1210.33,1.324863,519078,24568
1213.84,1.324770,527163,24956
1217.35,1.316091,534208,25800
1220.85,1.324805,540472,25584
1225.51,1.323566,549929,26106
1229.01,1.323753,556888,26425
1232.5,1.322649,562180,26744
1235.98,1.323706,567975,26954
1239.46,1.328213,574815,26997
1242.94,1.327708,582782,27403
1246.41,1.326131,591476,27913
1251.03,1.325442,604016,28550
1254.5,1.327398,612289,28811
1257.96,1.327125,619125,29151
1261.41,1.327738,624551,29365
1264.86,1.323528,629900,29905
1268.31,1.328430,634345,29778
1271.75,1.332309,638574,29710
1276.33,1.326874,642499,30269
1279.76,1.326054,645905,30487
1283.19,1.330783,648307,30269
1286.61,1.329410,650446,30465
1290.03,1.328969,652132,30575
1293.44,1.327403,653907,30769
1296.85,1.328244,655963,30806
1301.39,1.329415,657349,30788
1304.8,1.325719,657558,31061
1308.19,1.331866,658515,30669
1311.58,1.335654,658804,30416
1314.97,1.327923,659011,30972
1318.36,1.328236,658272,30915
1321.73,1.334582,658022,30455
1326.23,1.333812,657870,30502
1329.6,1.341305,656482,29917
1332.97,1.334348,654926,30328
1336.33,1.339522,653727,29914
1339.69,1.331719,652497,30399
1343.04,1.329154,649913,30458
1346.39,1.329396,647671,30336
1349.73,1.335105,645338,29832
1354.18,1.328742,641175,30077
1357.52,1.333594,638376,29613
1360.85,1.326927,635805,29950
1364.17,1.330366,633413,29602
1367.49,1.330093,631026,29509
1370.81,1.329233,628050,29428
1374.12,1.329466,625034,29271
1378.54,1.331880,620272,28887
1381.84,1.332494,616892,28689
1385.14,1.332593,613613,28530
1388.43,1.326932,611526,28806
1391.72,1.328677,610663,28650
1395.01,1.330434,610634,28533
1398.29,1.328929,611700,28682
1402.66,1.335360,614051,28369
1405.93,1.330830,616268,28770
1409.2,1.336198,617795,28487
1412.46,1.331335,618872,28858
1415.72,1.332841,619795,28801
1418.98,1.334478,620495,28725
1422.23,1.334409,621087,28757
1426.56,1.332817,621375,28876
1429.8,1.335625,621616,28701
1433.04,1.336816,622129,28646
1436.27,1.336896,621526,28613
1439.5,1.335364,621113,28695
1442.72,1.333704,620921,28796
1445.94,1.331698,620270,28899
1450.23,1.339162,618860,28342
1453.44,1.331956,617697,28762
1456.64,1.329455,616264,28861
1459.85,1.339445,614413,28120
1463.04,1.334049,612307,28374
1466.24,1.340980,610032,27821
1469.43,1.336588,607345,27980
1473.67,1.337716,603789,27744
1476.85,1.337887,601175,27613
1480.02,1.337067,597737,27507
1483.19,1.338244,594479,27283
1486.36,1.329749,591232,27670
1489.52,1.338662,587853,26953
1492.68,1.340215,583875,26675
1496.89,1.343640,578062,26202
1500.03,1.342092,574159,26118
1503.18,1.330949,570285,26616
1506.32,1.338236,565444,25951
1509.45,1.333340,560571,26019
1512.58,1.338974,555821,25466
1515.71,1.336177,550344,25378
1519.87,1.338550,543983,24948
1522.99,1.338631,538764,24704
1526.1,1.348729,533692,23909
1529.21,1.343683,527902,23926
1532.32,1.344296,521886,23620
1535.42,1.335358,515888,23834
1538.51,1.342183,509987,23194
1541.6,1.338519,503936,23113
1545.72,1.333649,494694,22945
1548.8,1.339148,488378,22367
1551.88,1.337208,481832,22166
1554.95,1.330898,474989,22171
1558.02,1.342677,467818,21252
1561.08,1.331979,460730,21452
1564.15,1.339239,454170,20796
1568.22,1.333313,444181,20618
1571.27,1.336391,436947,20139
1574.32,1.337693,429598,19741
1577.36,1.336701,422039,19438
1580.4,1.332309,414375,19279
1583.43,1.340046,406354,18572
1586.46,1.324698,398475,18867
1590.49,1.332347,388982,18096
1593.51,1.329246,380708,17838
1596.53,1.315540,372727,18024
1599.54,1.333015,365060,16957
1602.55,1.337532,357543,16436
1605.55,1.334301,349495,16186
1608.55,1.340467,341154,15577
1612.54,1.321615,330877,15778
1615.53,1.328317,322904,15162
1618.51,1.333493,315116,14621
1621.49,1.331957,307217,14305
1624.47,1.321276,299481,14292
1627.44,1.329336,292112,13684
1630.41,1.321497,284245,13558
1634.36,1.322265,274079,13050
1637.32,1.305866,266916,13198
1640.27,1.331970,259612,12088
1643.22,1.319391,251804,12069
1646.16,1.305834,244348,12083
1649.1,1.319591,236703,11340
1652.04,1.319243,228171,10940
1655.95,1.323981,215408,10216
1658.88,1.302637,204937,10209
1661.8,1.312625,193395,9415
1664.72,1.289555,179728,9227
1667.63,1.276527,163642,8657
1670.54,1.281732,146312,7648
1673.44,1.305964,128451,6350
1677.31,1.249639,105080,5914
1680.21,1.217745,88906,5385
1683.1,1.239568,75033,4322
1685.99,1.215424,63520,3868
1688.87,1.208949,53714,3320
1691.75,1.226981,45653,2707
1694.62,1.332755,39137,1819
1697.49,1.206182,33776,2101
1701.31,1.255905,28175,1563