File: ML/samples/unknown/Column 1_078149_20241121_164752.csv
Method:,Column 1,,
Host Date-Time:,21/11/24 @ 16:47:52,,
Header Version:,1,,
System Temp (C):,33.2,,
Detector Temp (C):,29.23,,
Humidity (%):,3.22,,
Lamp PD:,3805,,
Shift Vector Coefficients:,-10.5391,0.0761263,-0.000134223,,
Pixel to Wavelength Coefficients:,1775.68,-0.916766,-0.000235065,,
Serial Number:,5510004,,
Scan Config Name:,Column 1,,
Scan Config Type:,Slew,,
Section 1,,
Start wavelength (nm):,900,,
End wavelength (nm):,1700,,
Pattern Pixel Width (nm):,   7.03,,,,
Exposure (ms):,  0.635,,,,
Digital Resolution:,228,,
Num Repeats:,6,,
PGA Gain:,64,,
Total Measurement Time in sec:,  2.728,,
Wavelength (nm),Absorbance (AU),Reference Signal (unitless),Sample Signal (unitless)
901.51,1.333974,108485,5028
905.376,1.331834,121306,5650
909.237,1.355874,131909,5813
913.095,1.327390,143299,6743
916.948,1.312586,156982,7643
922.079,1.315252,179937,8707
925.923,1.331683,200504,9342
929.762,1.329858,222660,10418
933.597,1.327638,244426,11495
937.427,1.328346,263972,12394
941.254,1.315738,281845,13623
945.076,1.319124,297271,14257
950.165,1.321232,315605,15063
953.978,1.315554,328029,15862
957.786,1.318907,340470,16337
961.59,1.316638,352317,16994
965.389,1.304243,363056,18019
969.185,1.317736,373162,17954
972.976,1.314133,382632,18563
976.763,1.309258,391202,19193
981.806,1.316147,400190,19325
985.583,1.315523,406088,19638
989.355,1.306316,410162,20260
993.124,1.315368,412868,19973
996.888,1.308882,414263,20342
1000.65,1.314530,415476,20138
1004.4,1.318454,415479,19957
1009.41,1.310886,414358,20253
1013.15,1.317169,412923,19893
1016.89,1.313194,411526,20008
1020.63,1.313049,409066,19895
1024.36,1.319879,406777,19475
1028.09,1.316739,404427,19503
1031.82,1.309862,401911,19691
1036.78,1.314368,398410,19318
1040.49,1.313962,396204,19229
1044.2,1.313474,394236,19155
1047.91,1.311708,392042,19126
1051.61,1.312068,389823,19002
1055.31,1.315814,388234,18762
1059,1.311990,387599,18897
1063.92,1.312741,386688,18820
1067.61,1.314281,386598,18749
1071.29,1.323009,387377,18413
1074.96,1.312028,388536,18941
1078.63,1.319736,389855,18671
1082.3,1.318489,391215,18790
1085.96,1.325374,393215,18589
1090.84,1.321759,396270,18890
1094.49,1.324020,398760,18910
1098.14,1.322461,400987,19084
1101.79,1.323219,403477,19169
1105.43,1.317948,406116,19530
1109.06,1.314115,407701,19780
1112.7,1.328068,409859,19256
1117.53,1.326052,412494,19470
1121.15,1.316706,414909,20010
1124.77,1.326800,416559,19628
1128.38,1.323378,418532,19877
1131.99,1.315601,419956,20305
1135.6,1.323598,421946,20029
1139.2,1.324178,423881,20094
1143.99,1.321859,426786,20340
1147.58,1.317276,428617,20644
1151.17,1.321857,431169,20549
1154.75,1.327523,433579,20396
1158.33,1.320393,436264,20862
1161.91,1.324657,439132,20794
1165.48,1.317690,442389,21287
1169.04,1.329744,446101,20878
1173.79,1.319933,451929,21634
1177.34,1.322110,456026,21721
1180.9,1.323604,461306,21897
1184.44,1.318344,467657,22469
1187.99,1.322835,473969,22538
1191.52,1.319006,479856,23020
1195.06,1.324267,487372,23099
1199.76,1.324595,497347,23554
1203.29,1.323611,504311,23938
1206.81,1.332220,511507,23803
1210.33,1.330664,519078,24242
1213.84,1.320579,527163,25198
1217.35,1.330448,534208,24961
1220.85,1.330202,540472,25268
1225.51,1.321674,549929,26220
1229.01,1.328579,556888,26133
1232.5,1.329293,562180,26338
1235.98,1.325320,567975,26854
1239.46,1.322222,574815,27372
1242.94,1.328898,582782,27328
1246.41,1.330006,591476,27665
1251.03,1.331570,604016,28150
1254.5,1.335385,612289,28286
1257.96,1.327915,619125,29098
1261.41,1.331974,624551,29080
1264.86,1.336200,629900,29045
1268.31,1.328561,634345,29769
1271.75,1.330340,638574,29845
1276.33,1.328816,642499,30134
1279.76,1.333960,645905,29937
1283.19,1.335166,648307,29965
1286.61,1.327263,650446,30616
1290.03,1.331733,652132,30381
1293.44,1.339612,653907,29916
1296.85,1.335508,655963,30295
1301.39,1.332046,657349,30602
1304.8,1.333549,657558,30506
1308.19,1.338300,658515,30218
1311.58,1.333901,658804,30539
1314.97,1.333512,659011,30576
1318.36,1.330815,658272,30732
1321.73,1.334311,658022,30474
1326.23,1.337128,657870,30270
1329.6,1.337245,656482,30198
1332.97,1.337857,654926,30084
1336.33,1.329675,653727,30600
1339.69,1.330649,652497,30474
1343.04,1.335662,649913,30005
1346.39,1.331391,647671,30197
1349.73,1.334697,645338,29860
1354.18,1.333592,641175,29743
1357.52,1.333242,638376,29637
1360.85,1.328554,635805,29838
1364.17,1.327966,633413,29766
1367.49,1.330785,631026,29462
1370.81,1.331557,628050,29271
1374.12,1.334045,625034,28964
1378.54,1.333265,620272,28795
1381.84,1.339283,616892,28244
1385.14,1.332380,613613,28544
1388.43,1.327143,611526,28792
1391.72,1.329071,610663,28624
1395.01,1.332340,610634,28408
1398.29,1.330567,611700,28574
1402.66,1.330550,614051,28685
1405.93,1.334377,616268,28536
1409.2,1.333553,617795,28661
1412.46,1.336985,618872,28485
1415.72,1.333882,619795,28732
1418.98,1.338442,620495,28464
1422.23,1.339987,621087,28390
1426.56,1.333765,621375,28813
1429.8,1.341199,621616,28335
1433.04,1.340165,622129,28426
1436.27,1.337686,621526,28561
1439.5,1.341169,621113,28314
1442.72,1.342510,620921,28218
1445.94,1.336686,620270,28569
1450.23,1.335242,618860,28599
1453.44,1.338989,617697,28300
1456.64,1.336663,616264,28386
1459.85,1.342545,614413,27920
1463.04,1.343221,612307,27781
1466.24,1.339889,610032,27891
1469.43,1.336898,607345,27960
1473.67,1.338766,603789,27677
1476.85,1.339305,601175,27523
1480.02,1.334140,597737,27693
1483.19,1.338866,594479,27244
1486.36,1.343073,591232,26834
1489.52,1.345057,587853,26559
1492.68,1.342664,583875,26525
1496.89,1.346500,578062,26030
1500.03,1.334575,574159,26574
1503.18,1.334718,570285,26386
1506.32,1.339694,565444,25864
1509.45,1.345527,560571,25299
1512.58,1.340820,555821,25358
1515.71,1.341792,550344,25052
1519.87,1.336743,543983,25052
1522.99,1.342481,538764,24486
1526.1,1.335967,533692,24622
1529.21,1.339708,527902,24146
1532.32,1.338814,521886,23920
1535.42,1.343729,515888,23379
1538.51,1.342614,509987,23171
1541.6,1.341044,503936,22979
1545.72,1.340940,494694,22563
1548.8,1.339790,488378,22334
1551.88,1.338995,481832,22075
1554.95,1.344993,474989,21463
1558.02,1.333938,467818,21684
1561.08,1.337336,460730,21189
1564.15,1.339824,454170,20768
1568.22,1.344278,444181,20104
1571.27,1.340442,436947,19952
1574.32,1.346853,429598,19329
1577.36,1.340538,422039,19267
1580.4,1.342751,414375,18821
1583.43,1.338389,406354,18643
1586.46,1.344960,398475,18007
1590.49,1.337052,388982,17901
1593.51,1.334118,380708,17639
1596.53,1.333445,372727,17296
1599.54,1.334426,365060,16902
1602.55,1.328148,357543,16795
1605.55,1.334597,349495,16175
1608.55,1.327367,341154,16054
1612.54,1.327517,330877,15565
1615.53,1.327401,322904,15194
1618.51,1.328091,315116,14804
1621.49,1.336014,307217,14172
1624.47,1.320973,299481,14302
1627.44,1.331979,292112,13601
1630.41,1.326815,284245,13393
1634.36,1.333252,274079,12724
1637.32,1.324662,266916,12639
1640.27,1.326011,259612,12255
1643.22,1.322968,251804,11970
1646.16,1.319712,244348,11703
1649.1,1.321471,236703,11291
1652.04,1.316434,228171,11011
1655.95,1.307833,215408,10603
1658.88,1.314409,204937,9936
1661.8,1.295751,193395,9788
1664.72,1.321888,179728,8565
1667.63,1.304125,163642,8124
1670.54,1.296577,146312,7391
1673.44,1.266940,128451,6947
1677.31,1.247076,105080,5949
1680.21,1.271689,88906,4756
1683.1,1.246251,75033,4256
1685.99,1.305843,63520,3141
1688.87,1.300981,53714,2686
1691.75,1.362366,45653,1982
1694.62,1.198837,39137,2476
1697.49,1.330501,33776,1578
1701.31,1.514357,28175,862