File: ML/samples/unknown/Column 1_078441_20241121_170250.csv
Method:,Column 1,,
Host Date-Time:,21/11/24 @ 17:2:50,,
Header Version:,1,,
System Temp (C):,34.86,,
Detector Temp (C):,33.77,,
Humidity (%):,1.96,,
Lamp PD:,3802,,
Shift Vector Coefficients:,-10.5391,0.0761263,-0.000134223,,
Pixel to Wavelength Coefficients:,1775.68,-0.916766,-0.000235065,,
Serial Number:,5510004,,
Scan Config Name:,Column 1,,
Scan Config Type:,Slew,,
Section 1,,
Start wavelength (nm):,900,,
End wavelength (nm):,1700,,
Pattern Pixel Width (nm):,   7.03,,,,
Exposure (ms):,  0.635,,,,
Digital Resolution:,228,,
Num Repeats:,6,,
PGA Gain:,64,,
Total Measurement Time in sec:,  2.721,,
Wavelength (nm),Absorbance (AU),Reference Signal (unitless),Sample Signal (unitless)
901.51,1.320035,108485,5192
905.376,1.339668,121306,5549
909.237,1.330623,131909,6161
913.095,1.326554,143299,6756
916.948,1.326208,156982,7407
922.079,1.330945,179937,8398
925.923,1.344420,200504,9072
929.762,1.322336,222660,10600
933.597,1.322269,244426,11638
937.427,1.324578,263972,12502
941.254,1.320707,281845,13468
945.076,1.315001,297271,14393
950.165,1.313913,315605,15319
953.978,1.306478,328029,16197
957.786,1.308946,340470,16716
961.59,1.312087,352317,17173
965.389,1.313352,363056,17645
969.185,1.312686,373162,18164
972.976,1.307470,382632,18850
976.763,1.310074,391202,19157
981.806,1.314800,400190,19385
985.583,1.305316,406088,20105
989.355,1.309457,410162,20114
993.124,1.307930,412868,20318
996.888,1.308840,414263,20344
1000.65,1.312035,415476,20254
1004.4,1.312918,415479,20213
1009.41,1.306300,414358,20468
1013.15,1.314991,412923,19993
1016.89,1.317666,411526,19803
1020.63,1.311850,409066,19950
1024.36,1.302460,406777,20272
1028.09,1.297828,404427,20371
1031.82,1.312717,401911,19562
1036.78,1.312193,398410,19415
1040.49,1.309826,396204,19413
1044.2,1.307194,394236,19434
1047.91,1.306764,392042,19345
1051.61,1.307001,389823,19225
1055.31,1.310752,388234,18982
1059,1.309675,387599,18998
1063.92,1.310004,386688,18939
1067.61,1.313032,386598,18803
1071.29,1.319018,387377,18583
1074.96,1.323600,388536,18443
1078.63,1.317508,389855,18767
1082.3,1.306633,391215,19310
1085.96,1.309118,393215,19298
1090.84,1.309005,396270,19453
1094.49,1.310499,398760,19508
1098.14,1.318451,400987,19261
1101.79,1.313275,403477,19613
1105.43,1.319463,406116,19462
1109.06,1.308813,407701,20023
1112.7,1.320268,409859,19605
1117.53,1.313932,412494,20021
1121.15,1.314282,414909,20122
1124.77,1.318777,416559,19994
1128.38,1.317669,418532,20140
1131.99,1.313063,419956,20424
1135.6,1.322580,421946,20076
1139.2,1.314369,423881,20553
1143.99,1.321326,426786,20365
1147.58,1.323356,428617,20357
1151.17,1.312987,431169,20973
1154.75,1.321518,433579,20680
1158.33,1.310697,436264,21333
1161.91,1.321432,439132,20949
1165.48,1.313467,442389,21495
1169.04,1.316067,446101,21546
1173.79,1.319753,451929,21643
1177.34,1.315857,456026,22036
1180.9,1.320994,461306,22029
1184.44,1.323535,467657,22202
1187.99,1.312232,473969,23095
1191.52,1.311821,479856,23404
1195.06,1.320151,487372,23319
1199.76,1.316937,497347,23973
1203.29,1.322379,504311,24006
1206.81,1.323728,511507,24273
1210.33,1.320746,519078,24802
1213.84,1.316035,527163,25463
1217.35,1.321528,534208,25479
1220.85,1.320884,540472,25816
1225.51,1.318571,549929,26408
1229.01,1.318249,556888,26762
1232.5,1.321141,562180,26837
1235.98,1.327867,567975,26697
1239.46,1.318242,574815,27624
1242.94,1.325117,582782,27567
1246.41,1.322443,591476,28151
1251.03,1.319880,604016,28918
1254.5,1.326976,612289,28839
1257.96,1.320604,619125,29592
1261.41,1.328582,624551,29308
1264.86,1.326047,629900,29732
1268.31,1.324712,634345,30034
1271.75,1.326255,638574,30127
1276.33,1.329104,642499,30114
1279.76,1.331746,645905,30090
1283.19,1.329436,648307,30363
1286.61,1.327305,650446,30613
1290.03,1.327013,652132,30713
1293.44,1.329809,653907,30599
1296.85,1.330024,655963,30680
1301.39,1.326210,657349,31016
1304.8,1.329383,657558,30800
1308.19,1.334579,658515,30478
1311.58,1.330135,658804,30805
1314.97,1.331740,659011,30701
1318.36,1.331140,658272,30709
1321.73,1.331782,658022,30652
1326.23,1.330238,657870,30754
1329.6,1.332596,656482,30523
1332.97,1.332962,654926,30425
1336.33,1.336873,653727,30097
1339.69,1.330834,652497,30461
1343.04,1.331011,649913,30328
1346.39,1.333091,647671,30079
1349.73,1.327958,645338,30327
1354.18,1.327444,641175,30167
1357.52,1.327116,638376,30058
1360.85,1.322742,635805,30240
1364.17,1.332720,633413,29442
1367.49,1.325379,631026,29831
1370.81,1.330120,628050,29368
1374.12,1.329689,625034,29256
1378.54,1.328182,620272,29134
1381.84,1.327213,616892,29040
1385.14,1.327929,613613,28838
1388.43,1.325097,611526,28928
1391.72,1.329709,610663,28582
1395.01,1.326539,610634,28790
1398.29,1.324200,611700,28996
1402.66,1.332948,614051,28527
1405.93,1.330784,616268,28773
1409.2,1.333962,617795,28634
1412.46,1.329547,618872,28977
1415.72,1.328161,619795,29113
1418.98,1.329831,620495,29034
1422.23,1.332119,621087,28909
1426.56,1.333886,621375,28805
1429.8,1.331364,621616,28984
1433.04,1.339462,622129,28472
1436.27,1.333073,621526,28866
1439.5,1.338189,621113,28509
1442.72,1.336094,620921,28638
1445.94,1.333445,620270,28783
1450.23,1.342685,618860,28113
1453.44,1.338391,617697,28339
1456.64,1.331567,616264,28721
1459.85,1.336551,614413,28308
1463.04,1.336551,612307,28211
1466.24,1.331011,610032,28467
1469.43,1.335549,607345,28047
1473.67,1.330929,603789,28181
1476.85,1.338045,601175,27603
1480.02,1.335412,597737,27612
1483.19,1.341231,594479,27096
1486.36,1.338917,591232,27092
1489.52,1.339823,587853,26881
1492.68,1.341471,583875,26598
1496.89,1.340947,578062,26365
1500.03,1.340399,574159,26220
1503.18,1.342038,570285,25945
1506.32,1.335533,565444,26113
1509.45,1.332573,560571,26065
1512.58,1.337612,555821,25546
1515.71,1.338459,550344,25245
1519.87,1.338950,543983,24925
1522.99,1.337210,538764,24785
1526.1,1.352194,533692,23719
1529.21,1.343738,527902,23923
1532.32,1.335342,521886,24112
1535.42,1.330232,515888,24117
1538.51,1.332060,509987,23741
1541.6,1.335878,503936,23254
1545.72,1.333100,494694,22974
1548.8,1.336246,488378,22517
1551.88,1.336210,481832,22217
1554.95,1.340064,474989,21708
1558.02,1.331541,467818,21804
1561.08,1.327808,460730,21659
1564.15,1.333039,454170,21095
1568.22,1.338015,444181,20396
1571.27,1.332291,436947,20330
1574.32,1.337517,429598,19749
1577.36,1.339121,422039,19330
1580.4,1.331656,414375,19308
1583.43,1.326577,406354,19157
1586.46,1.336126,398475,18377
1590.49,1.329715,388982,18206
1593.51,1.324861,380708,18019
1596.53,1.329471,372727,17455
1599.54,1.322815,365060,17360
1602.55,1.326213,357543,16870
1605.55,1.335807,349495,16130
1608.55,1.327800,341154,16038
1612.54,1.326598,330877,15598
1615.53,1.319836,322904,15461
1618.51,1.324178,315116,14938
1621.49,1.325269,307217,14527
1624.47,1.326319,299481,14127
1627.44,1.318554,292112,14028
1630.41,1.332330,284245,13224
1634.36,1.336816,274079,12620
1637.32,1.310398,266916,13061
1640.27,1.316339,259612,12531
1643.22,1.312289,251804,12268
1646.16,1.303862,244348,12138
1649.1,1.306910,236703,11676
1652.04,1.302118,228171,11380
1655.95,1.300240,215408,10790
1658.88,1.309281,204937,10054
1661.8,1.285534,193395,10021
1664.72,1.276618,179728,9506
1667.63,1.262314,163642,8945
1670.54,1.254122,146312,8150
1673.44,1.236640,128451,7449
1677.31,1.192925,105080,6739
1680.21,1.167822,88906,6041
1683.1,1.174116,75033,5025
1685.99,1.192996,63520,4073
1688.87,1.193908,53714,3437
1691.75,1.210145,45653,2814
1694.62,1.207339,39137,2428
1697.49,1.306673,33776,1667
1701.31,1.200176,28175,1777