File: ML/samples/unknown/Column 1_078681_20241121_171702.csv
Method:,Column 1,,
Host Date-Time:,21/11/24 @ 17:17:2,,
Header Version:,1,,
System Temp (C):,34.54,,
Detector Temp (C):,35.01,,
Humidity (%):,1.76,,
Lamp PD:,3802,,
Shift Vector Coefficients:,-10.5391,0.0761263,-0.000134223,,
Pixel to Wavelength Coefficients:,1775.68,-0.916766,-0.000235065,,
Serial Number:,5510004,,
Scan Config Name:,Column 1,,
Scan Config Type:,Slew,,
Section 1,,
Start wavelength (nm):,900,,
End wavelength (nm):,1700,,
Pattern Pixel Width (nm):,   7.03,,,,
Exposure (ms):,  0.635,,,,
Digital Resolution:,228,,
Num Repeats:,6,,
PGA Gain:,64,,
Total Measurement Time in sec:,  2.725,,
Wavelength (nm),Absorbance (AU),Reference Signal (unitless),Sample Signal (unitless)
901.51,1.324660,108485,5137
905.376,1.331911,121306,5649
909.237,1.326973,131909,6213
913.095,1.295187,143299,7262
916.948,1.315894,156982,7585
922.079,1.318758,179937,8637
925.923,1.330569,200504,9366
929.762,1.319722,222660,10664
933.597,1.316302,244426,11799
937.427,1.328662,263972,12385
941.254,1.310226,281845,13797
945.076,1.313977,297271,14427
950.165,1.316758,315605,15219
953.978,1.308871,328029,16108
957.786,1.305763,340470,16839
961.59,1.301347,352317,17603
965.389,1.314116,363056,17614
969.185,1.316601,373162,18001
972.976,1.310128,382632,18735
976.763,1.305204,391202,19373
981.806,1.305141,400190,19821
985.583,1.308851,406088,19942
989.355,1.307540,410162,20203
993.124,1.318182,412868,19844
996.888,1.304316,414263,20557
1000.65,1.310644,415476,20319
1004.4,1.307452,415479,20469
1009.41,1.306003,414358,20482
1013.15,1.310453,412923,20203
1016.89,1.314302,411526,19957
1020.63,1.301525,409066,20430
1024.36,1.300152,406777,20380
1028.09,1.305051,404427,20035
1031.82,1.302319,401911,20036
1036.78,1.308362,398410,19587
1040.49,1.315138,396204,19177
1044.2,1.308403,394236,19380
1047.91,1.309534,392042,19222
1051.61,1.306933,389823,19228
1055.31,1.303987,388234,19280
1059,1.299776,387599,19436
1063.92,1.314498,386688,18744
1067.61,1.312571,386598,18823
1071.29,1.311511,387377,18907
1074.96,1.318171,388536,18675
1078.63,1.309165,389855,19131
1082.3,1.312885,391215,19034
1085.96,1.309208,393215,19294
1090.84,1.321162,396270,18916
1094.49,1.313874,398760,19357
1098.14,1.308422,400987,19711
1101.79,1.310560,403477,19736
1105.43,1.320334,406116,19423
1109.06,1.316582,407701,19668
1112.7,1.315816,409859,19807
1117.53,1.316041,412494,19924
1121.15,1.316836,414909,20004
1124.77,1.315466,416559,20147
1128.38,1.320590,418532,20005
1131.99,1.322543,419956,19983
1135.6,1.322039,421946,20101
1139.2,1.311988,423881,20666
1143.99,1.318520,426786,20497
1147.58,1.316078,428617,20701
1151.17,1.320380,431169,20619
1154.75,1.313074,433579,21086
1158.33,1.318918,436264,20933
1161.91,1.312222,439132,21398
1165.48,1.315797,442389,21380
1169.04,1.308910,446101,21904
1173.79,1.312115,451929,22027
1177.34,1.307561,456026,22461
1180.9,1.313373,461306,22419
1184.44,1.304028,467657,23222
1187.99,1.313984,473969,23002
1191.52,1.319496,479856,22994
1195.06,1.311320,487372,23798
1199.76,1.319645,497347,23824
1203.29,1.326505,504311,23779
1206.81,1.318040,511507,24593
1210.33,1.324615,519078,24582
1213.84,1.321459,527163,25147
1217.35,1.319742,534208,25584
1220.85,1.316915,540472,26053
1225.51,1.314202,549929,26675
1229.01,1.318558,556888,26743
1232.5,1.317532,562180,27061
1235.98,1.318835,567975,27258
1239.46,1.318289,574815,27621
1242.94,1.326173,582782,27500
1246.41,1.325571,591476,27949
1251.03,1.320301,604016,28890
1254.5,1.318122,612289,29433
1257.96,1.326410,619125,29199
1261.41,1.319505,624551,29927
1264.86,1.326998,629900,29667
1268.31,1.323312,634345,30131
1271.75,1.325737,638574,30163
1276.33,1.323430,642499,30510
1279.76,1.324249,645905,30614
1283.19,1.326727,648307,30553
1286.61,1.327206,650446,30620
1290.03,1.329239,652132,30556
1293.44,1.327360,653907,30772
1296.85,1.325560,655963,30997
1301.39,1.324338,657349,31150
1304.8,1.326628,657558,30996
1308.19,1.328298,658515,30922
1311.58,1.331052,658804,30740
1314.97,1.325714,659011,31130
1318.36,1.329094,658272,30854
1321.73,1.328957,658022,30852
1326.23,1.332958,657870,30562
1329.6,1.328954,656482,30780
1332.97,1.329379,654926,30677
1336.33,1.326409,653727,30831
1339.69,1.324803,652497,30887
1343.04,1.322040,649913,30961
1346.39,1.323312,647671,30764
1349.73,1.327285,645338,30374
1354.18,1.328988,641175,30060
1357.52,1.323261,638376,30326
1360.85,1.325147,635805,30073
1364.17,1.323539,633413,30071
1367.49,1.325918,631026,29794
1370.81,1.330815,628050,29321
1374.12,1.329822,625034,29247
1378.54,1.325285,620272,29329
1381.84,1.322497,616892,29357
1385.14,1.324479,613613,29068
1388.43,1.323224,611526,29053
1391.72,1.325611,610663,28853
1395.01,1.322515,610634,29058
1398.29,1.323034,611700,29074
1402.66,1.328013,614051,28853
1405.93,1.328121,616268,28950
1409.2,1.328746,617795,28980
1412.46,1.324985,618872,29283
1415.72,1.329700,619795,29010
1418.98,1.329981,620495,29024
1422.23,1.325988,621087,29320
1426.56,1.327584,621375,29226
1429.8,1.330780,621616,29023
1433.04,1.328260,622129,29216
1436.27,1.327957,621526,29208
1439.5,1.332468,621113,28887
1442.72,1.328756,620921,29126
1445.94,1.327005,620270,29213
1450.23,1.333121,618860,28739
1453.44,1.329442,617697,28929
1456.64,1.330570,616264,28787
1459.85,1.330684,614413,28693
1463.04,1.337275,612307,28164
1466.24,1.333950,610032,28275
1469.43,1.336712,607345,27972
1473.67,1.333836,603789,27993
1476.85,1.331331,601175,28033
1480.02,1.330517,597737,27925
1483.19,1.335452,594479,27459
1486.36,1.328949,591232,27721
1489.52,1.326946,587853,27690
1492.68,1.334056,583875,27056
1496.89,1.333775,578062,26804
1500.03,1.336016,574159,26486
1503.18,1.334834,570285,26379
1506.32,1.331164,565444,26377
1509.45,1.339679,560571,25642
1512.58,1.330798,555821,25950
1515.71,1.337479,550344,25302
1519.87,1.337072,543983,25033
1522.99,1.325574,538764,25458
1526.1,1.331964,533692,24850
1529.21,1.330525,527902,24662
1532.32,1.340069,521886,23851
1535.42,1.332797,515888,23975
1538.51,1.322955,509987,24244
1541.6,1.340572,503936,23004
1545.72,1.334539,494694,22898
1548.8,1.335013,488378,22581
1551.88,1.331138,481832,22478
1554.95,1.334162,474989,22005
1558.02,1.332718,467818,21745
1561.08,1.334415,460730,21332
1564.15,1.330043,454170,21241
1568.22,1.323978,444181,21066
1571.27,1.333468,436947,20275
1574.32,1.332228,429598,19991
1577.36,1.335296,422039,19501
1580.4,1.328965,414375,19428
1583.43,1.328394,406354,19077
1586.46,1.331075,398475,18592
1590.49,1.323957,388982,18449
1593.51,1.323658,380708,18069
1596.53,1.321288,372727,17787
1599.54,1.328962,365060,17116
1602.55,1.326316,357543,16866
1605.55,1.320724,349495,16700
1608.55,1.330898,341154,15924
1612.54,1.324265,330877,15682
1615.53,1.323446,322904,15333
1618.51,1.324964,315116,14911
1621.49,1.323420,307217,14589
1624.47,1.330148,299481,14003
1627.44,1.314088,292112,14173
1630.41,1.324519,284245,13464
1634.36,1.329175,274079,12844
1637.32,1.317100,266916,12861
1640.27,1.324879,259612,12287
1643.22,1.315665,251804,12173
1646.16,1.315391,244348,11820
1649.1,1.300705,236703,11844
1652.04,1.303456,228171,11345
1655.95,1.286689,215408,11132
1658.88,1.301193,204937,10243
1661.8,1.315587,193395,9351
1664.72,1.267978,179728,9697
1667.63,1.257486,163642,9045
1670.54,1.245522,146312,8313
1673.44,1.221008,128451,7722
1677.31,1.187227,105080,6828
1680.21,1.160197,88906,6148
1683.1,1.153524,75033,5269
1685.99,1.200742,63520,4001
1688.87,1.148479,53714,3816
1691.75,1.161849,45653,3145
1694.62,1.162997,39137,2689
1697.49,1.102097,33776,2670
1701.31,1.168376,28175,1912