File: ML/samples/unknown/Column 1_078292_20241121_165454.csv
Method:,Column 1,,
Host Date-Time:,21/11/24 @ 16:54:54,,
Header Version:,1,,
System Temp (C):,34.43,,
Detector Temp (C):,32.48,,
Humidity (%):,2.2,,
Lamp PD:,3802,,
Shift Vector Coefficients:,-10.5391,0.0761263,-0.000134223,,
Pixel to Wavelength Coefficients:,1775.68,-0.916766,-0.000235065,,
Serial Number:,5510004,,
Scan Config Name:,Column 1,,
Scan Config Type:,Slew,,
Section 1,,
Start wavelength (nm):,900,,
End wavelength (nm):,1700,,
Pattern Pixel Width (nm):,   7.03,,,,
Exposure (ms):,  0.635,,,,
Digital Resolution:,228,,
Num Repeats:,6,,
PGA Gain:,64,,
Total Measurement Time in sec:,  2.723,,
Wavelength (nm),Absorbance (AU),Reference Signal (unitless),Sample Signal (unitless)
901.51,1.325930,108485,5122
905.376,1.309292,121306,5951
909.237,1.306427,131909,6514
913.095,1.325654,143299,6770
916.948,1.309190,156982,7703
922.079,1.328418,179937,8447
925.923,1.346435,200504,9030
929.762,1.333963,222660,10320
933.597,1.312017,244426,11916
937.427,1.327331,263972,12423
941.254,1.316535,281845,13598
945.076,1.328734,297271,13945
950.165,1.326249,315605,14890
953.978,1.308224,328029,16132
957.786,1.315913,340470,16450
961.59,1.314471,352317,17079
965.389,1.321626,363056,17312
969.185,1.311945,373162,18195
972.976,1.310197,382632,18732
976.763,1.308625,391202,19221
981.806,1.310675,400190,19570
985.583,1.320237,406088,19426
989.355,1.311969,410162,19998
993.124,1.306117,412868,20403
996.888,1.315032,414263,20056
1000.65,1.309853,415476,20356
1004.4,1.314252,415479,20151
1009.41,1.308427,414358,20368
1013.15,1.310367,412923,20207
1016.89,1.326528,411526,19403
1020.63,1.305690,409066,20235
1024.36,1.308261,406777,20003
1028.09,1.305897,404427,19996
1031.82,1.310679,401911,19654
1036.78,1.315246,398410,19279
1040.49,1.311597,396204,19334
1044.2,1.315679,394236,19058
1047.91,1.314191,392042,19017
1051.61,1.311064,389823,19046
1055.31,1.317600,388234,18685
1059,1.310544,387599,18960
1063.92,1.317544,386688,18613
1067.61,1.310040,386598,18933
1071.29,1.310227,387377,18963
1074.96,1.314927,388536,18815
1078.63,1.311464,389855,19030
1082.3,1.317542,391215,18831
1085.96,1.309748,393215,19270
1090.84,1.320841,396270,18930
1094.49,1.327062,398760,18778
1098.14,1.316090,400987,19366
1101.79,1.313230,403477,19615
1105.43,1.310671,406116,19860
1109.06,1.314687,407701,19754
1112.7,1.322578,409859,19501
1117.53,1.319125,412494,19783
1121.15,1.319646,414909,19875
1124.77,1.319472,416559,19962
1128.38,1.318857,418532,20085
1131.99,1.321631,419956,20025
1135.6,1.313673,421946,20492
1139.2,1.320626,423881,20259
1143.99,1.322885,426786,20292
1147.58,1.324039,428617,20325
1151.17,1.327087,431169,20303
1154.75,1.316029,433579,20943
1158.33,1.315549,436264,21096
1161.91,1.320210,439132,21008
1165.48,1.325824,442389,20892
1169.04,1.320463,446101,21329
1173.79,1.315957,451929,21833
1177.34,1.318962,456026,21879
1180.9,1.318361,461306,22163
1184.44,1.313882,467657,22701
1187.99,1.315270,473969,22934
1191.52,1.326561,479856,22623
1195.06,1.323272,487372,23152
1199.76,1.325481,497347,23506
1203.29,1.322578,504311,23995
1206.81,1.322156,511507,24361
1210.33,1.329823,519078,24289
1213.84,1.321597,527163,25139
1217.35,1.323219,534208,25380
1220.85,1.324907,540472,25578
1225.51,1.326086,549929,25955
1229.01,1.321605,556888,26556
1232.5,1.330498,562180,26265
1235.98,1.324399,567975,26911
1239.46,1.325327,574815,27177
1242.94,1.323952,582782,27641
1246.41,1.327065,591476,27853
1251.03,1.329139,604016,28308
1254.5,1.326630,612289,28862
1257.96,1.327572,619125,29121
1261.41,1.329086,624551,29274
1264.86,1.328024,629900,29597
1268.31,1.330667,634345,29625
1271.75,1.331739,638574,29749
1276.33,1.328974,642499,30123
1279.76,1.327238,645905,30404
1283.19,1.331199,648307,30240
1286.61,1.326441,650446,30674
1290.03,1.328189,652132,30630
1293.44,1.332957,653907,30378
1296.85,1.332266,655963,30522
1301.39,1.328428,657349,30858
1304.8,1.331234,657558,30669
1308.19,1.336521,658515,30342
1311.58,1.328250,658804,30939
1314.97,1.336934,659011,30336
1318.36,1.332727,658272,30597
1321.73,1.333884,658022,30504
1326.23,1.335538,657870,30381
1329.6,1.331601,656482,30593
1332.97,1.330343,654926,30609
1336.33,1.328853,653727,30658
1339.69,1.336185,652497,30088
1343.04,1.333554,649913,30151
1346.39,1.331722,647671,30174
1349.73,1.327457,645338,30362
1354.18,1.332207,641175,29838
1357.52,1.333667,638376,29608
1360.85,1.328889,635805,29815
1364.17,1.332690,633413,29444
1367.49,1.330019,631026,29514
1370.81,1.334579,628050,29068
1374.12,1.331802,625034,29114
1378.54,1.328764,620272,29095
1381.84,1.322867,616892,29332
1385.14,1.327478,613613,28868
1388.43,1.330170,611526,28592
1391.72,1.328692,610663,28649
1395.01,1.329673,610634,28583
1398.29,1.331191,611700,28533
1402.66,1.327111,614051,28913
1405.93,1.328286,616268,28939
1409.2,1.324956,617795,29234
1412.46,1.327648,618872,29104
1415.72,1.330945,619795,28927
1418.98,1.336934,620495,28563
1422.23,1.326552,621087,29282
1426.56,1.330223,621375,29049
1429.8,1.336246,621616,28660
1433.04,1.334790,622129,28780
1436.27,1.334595,621526,28765
1439.5,1.332769,621113,28867
1442.72,1.332364,620921,28885
1445.94,1.336807,620270,28561
1450.23,1.337586,618860,28445
1453.44,1.331473,617697,28794
1456.64,1.338564,616264,28262
1459.85,1.336367,614413,28320
1463.04,1.337661,612307,28139
1466.24,1.336615,610032,28102
1469.43,1.333602,607345,28173
1473.67,1.334690,603789,27938
1476.85,1.336427,601175,27706
1480.02,1.337920,597737,27453
1483.19,1.340159,594479,27163
1486.36,1.344450,591232,26749
1489.52,1.344175,587853,26613
1492.68,1.341961,583875,26568
1496.89,1.335756,578062,26682
1500.03,1.341162,574159,26174
1503.18,1.343228,570285,25874
1506.32,1.337249,565444,26010
1509.45,1.337853,560571,25750
1512.58,1.334293,555821,25742
1515.71,1.339561,550344,25181
1519.87,1.339962,543983,24867
1522.99,1.333215,538764,25014
1526.1,1.340132,533692,24387
1529.21,1.332060,527902,24575
1532.32,1.344259,521886,23622
1535.42,1.337624,515888,23710
1538.51,1.336454,509987,23502
1541.6,1.338839,503936,23096
1545.72,1.338349,494694,22698
1548.8,1.331107,488378,22785
1551.88,1.335468,481832,22255
1554.95,1.340905,474989,21666
1558.02,1.330427,467818,21860
1561.08,1.333175,460730,21393
1564.15,1.343457,454170,20595
1568.22,1.340728,444181,20269
1571.27,1.337189,436947,20102
1574.32,1.347460,429598,19302
1577.36,1.329500,422039,19763
1580.4,1.334002,414375,19204
1583.43,1.332121,406354,18914
1586.46,1.330351,398475,18623
1590.49,1.335696,388982,17957
1593.51,1.328662,380708,17862
1596.53,1.333646,372727,17288
1599.54,1.325022,365060,17272
1602.55,1.322522,357543,17014
1605.55,1.326457,349495,16481
1608.55,1.328939,341154,15996
1612.54,1.337138,330877,15224
1615.53,1.328288,322904,15163
1618.51,1.325401,315116,14896
1621.49,1.318124,307217,14768
1624.47,1.324754,299481,14178
1627.44,1.323442,292112,13871
1630.41,1.324938,284245,13451
1634.36,1.313111,274079,13328
1637.32,1.308938,266916,13105
1640.27,1.316270,259612,12533
1643.22,1.311900,251804,12279
1646.16,1.308972,244348,11996
1649.1,1.316120,236703,11431
1652.04,1.311804,228171,11129
1655.95,1.310298,215408,10543
1658.88,1.301617,204937,10233
1661.8,1.288448,193395,9954
1664.72,1.276435,179728,9510
1667.63,1.271440,163642,8759
1670.54,1.257761,146312,8082
1673.44,1.246964,128451,7274
1677.31,1.218883,105080,6348
1680.21,1.203622,88906,5563
1683.1,1.221172,75033,4509
1685.99,1.172991,63520,4265
1688.87,1.209342,53714,3317
1691.75,1.220927,45653,2745
1694.62,1.246430,39137,2219
1697.49,1.220257,33776,2034
1701.31,1.235285,28175,1639