File: ML/samples/unknown/Column 1_078069_20241121_164357.csv
Method:,Column 1,,
Host Date-Time:,21/11/24 @ 16:43:57,,
Header Version:,1,,
System Temp (C):,31.37,,
Detector Temp (C):,26.27,,
Humidity (%):,5.17,,
Lamp PD:,3808,,
Shift Vector Coefficients:,-10.5391,0.0761263,-0.000134223,,
Pixel to Wavelength Coefficients:,1775.68,-0.916766,-0.000235065,,
Serial Number:,5510004,,
Scan Config Name:,Column 1,,
Scan Config Type:,Slew,,
Section 1,,
Start wavelength (nm):,900,,
End wavelength (nm):,1700,,
Pattern Pixel Width (nm):,   7.03,,,,
Exposure (ms):,  0.635,,,,
Digital Resolution:,228,,
Num Repeats:,6,,
PGA Gain:,64,,
Total Measurement Time in sec:,  2.706,,
Wavelength (nm),Absorbance (AU),Reference Signal (unitless),Sample Signal (unitless)
901.51,1.299531,108485,5443
905.376,1.314579,121306,5879
909.237,1.335301,131909,6095
913.095,1.302606,143299,7139
916.948,1.279291,156982,8252
922.079,1.305779,179937,8899
925.923,1.315128,200504,9705
929.762,1.314500,222660,10793
933.597,1.309002,244426,11999
937.427,1.302830,263972,13144
941.254,1.310887,281845,13776
945.076,1.306397,297271,14681
950.165,1.312979,315605,15352
953.978,1.316623,328029,15823
957.786,1.313622,340470,16537
961.59,1.305213,352317,17447
965.389,1.311118,363056,17736
969.185,1.316191,373162,18018
972.976,1.303616,382632,19018
976.763,1.306259,391202,19326
981.806,1.319984,400190,19155
985.583,1.310291,406088,19876
989.355,1.301965,410162,20464
993.124,1.303021,412868,20549
996.888,1.305734,414263,20490
1000.65,1.315026,415476,20115
1004.4,1.311117,415479,20297
1009.41,1.308726,414358,20354
1013.15,1.308223,412923,20307
1016.89,1.307565,411526,20269
1020.63,1.311133,409066,19983
1024.36,1.306376,406777,20090
1028.09,1.308031,404427,19898
1031.82,1.310149,401911,19678
1036.78,1.313133,398410,19373
1040.49,1.312384,396204,19299
1044.2,1.308694,394236,19367
1047.91,1.314739,392042,18993
1051.61,1.310631,389823,19065
1055.31,1.305566,388234,19210
1059,1.312427,387599,18878
1063.92,1.315937,386688,18682
1067.61,1.321334,386598,18447
1071.29,1.306555,387377,19124
1074.96,1.316778,388536,18735
1078.63,1.313225,389855,18953
1082.3,1.318581,391215,18786
1085.96,1.308308,393215,19334
1090.84,1.310078,396270,19405
1094.49,1.308433,398760,19601
1098.14,1.307893,400987,19735
1101.79,1.315428,403477,19516
1105.43,1.309034,406116,19935
1109.06,1.321445,407701,19449
1112.7,1.325057,409859,19390
1117.53,1.318248,412494,19823
1121.15,1.318576,414909,19924
1124.77,1.322047,416559,19844
1128.38,1.323028,418532,19893
1131.99,1.321892,419956,20013
1135.6,1.320293,421946,20182
1139.2,1.315744,423881,20488
1143.99,1.329332,426786,19993
1147.58,1.314947,428617,20755
1151.17,1.316730,431169,20793
1154.75,1.324722,433579,20528
1158.33,1.320144,436264,20874
1161.91,1.311431,439132,21437
1165.48,1.318752,442389,21235
1169.04,1.315301,446101,21584
1173.79,1.317471,451929,21757
1177.34,1.322370,456026,21708
1180.9,1.323644,461306,21895
1184.44,1.316300,467657,22575
1187.99,1.319093,473969,22733
1191.52,1.319440,479856,22997
1195.06,1.316146,487372,23535
1199.76,1.318243,497347,23901
1203.29,1.326724,504311,23767
1206.81,1.325827,511507,24156
1210.33,1.322395,519078,24708
1213.84,1.323710,527163,25017
1217.35,1.323013,534208,25392
1220.85,1.321457,540472,25782
1225.51,1.324082,549929,26075
1229.01,1.325103,556888,26343
1232.5,1.321757,562180,26799
1235.98,1.321745,567975,27076
1239.46,1.328277,574815,26993
1242.94,1.323152,582782,27692
1246.41,1.325540,591476,27951
1251.03,1.325534,604016,28544
1254.5,1.322467,612289,29140
1257.96,1.321456,619125,29534
1261.41,1.328374,624551,29322
1264.86,1.320345,629900,30125
1268.31,1.329686,634345,29692
1271.75,1.327222,638574,30060
1276.33,1.331606,642499,29941
1279.76,1.324518,645905,30595
1283.19,1.324968,648307,30677
1286.61,1.332687,650446,30236
1290.03,1.329367,652132,30547
1293.44,1.338540,653907,29990
1296.85,1.333577,655963,30430
1301.39,1.330149,657349,30736
1304.8,1.336506,657558,30299
1308.19,1.331640,658515,30685
1311.58,1.336812,658804,30335
1314.97,1.331245,659011,30736
1318.36,1.328250,658272,30914
1321.73,1.332945,658022,30570
1326.23,1.332107,657870,30622
1329.6,1.336325,656482,30262
1332.97,1.327317,654926,30823
1336.33,1.335231,653727,30211
1339.69,1.330606,652497,30477
1343.04,1.332762,649913,30206
1346.39,1.332875,647671,30094
1349.73,1.329766,645338,30201
1354.18,1.330348,641175,29966
1357.52,1.327434,638376,30036
1360.85,1.327232,635805,29929
1364.17,1.325725,633413,29920
1367.49,1.325045,631026,29854
1370.81,1.330090,628050,29370
1374.12,1.329971,625034,29237
1378.54,1.336535,620272,28579
1381.84,1.325422,616892,29160
1385.14,1.325751,613613,28983
1388.43,1.329685,611526,28624
1391.72,1.323164,610663,29016
1395.01,1.327460,610634,28729
1398.29,1.320873,611700,29219
1402.66,1.322628,614051,29213
1405.93,1.325787,616268,29106
1409.2,1.328147,617795,29020
1412.46,1.331651,618872,28837
1415.72,1.331245,619795,28907
1418.98,1.331315,620495,28935
1422.23,1.332600,621087,28877
1426.56,1.332937,621375,28868
1429.8,1.335943,621616,28680
1433.04,1.331812,622129,28978
1436.27,1.328568,621526,29167
1439.5,1.335788,621113,28667
1442.72,1.328651,620921,29133
1445.94,1.337066,620270,28544
1450.23,1.338274,618860,28400
1453.44,1.328318,617697,29004
1456.64,1.331991,616264,28693
1459.85,1.336137,614413,28335
1463.04,1.336474,612307,28216
1466.24,1.335520,610032,28173
1469.43,1.335549,607345,28047
1473.67,1.335468,603789,27888
1476.85,1.337353,601175,27647
1480.02,1.334266,597737,27685
1483.19,1.332630,594479,27638
1486.36,1.337524,591232,27179
1489.52,1.335355,587853,27159
1492.68,1.338850,583875,26759
1496.89,1.342085,578062,26296
1500.03,1.339258,574159,26289
1503.18,1.341185,570285,25996
1506.32,1.333939,565444,26209
1509.45,1.332057,560571,26096
1512.58,1.334900,555821,25706
1515.71,1.336057,550344,25385
1519.87,1.333771,543983,25224
1522.99,1.337210,538764,24785
1526.1,1.340310,533692,24377
1529.21,1.342288,527902,24003
1532.32,1.342717,521886,23706
1535.42,1.339276,515888,23620
1538.51,1.340707,509987,23273
1541.6,1.339704,503936,23050
1545.72,1.339729,494694,22626
1548.8,1.332654,488378,22704
1551.88,1.336699,481832,22192
1554.95,1.334814,474989,21972
1558.02,1.336710,467818,21546
1561.08,1.331614,460730,21470
1564.15,1.335041,454170,20998
1568.22,1.336824,444181,20452
1571.27,1.343676,436947,19804
1574.32,1.333337,429598,19940
1577.36,1.328096,422039,19827
1580.4,1.337613,414375,19045
1583.43,1.336877,406354,18708
1586.46,1.333652,398475,18482
1590.49,1.330001,388982,18194
1593.51,1.330489,380708,17787
1596.53,1.325977,372727,17596
1599.54,1.330029,365060,17074
1602.55,1.334819,357543,16539
1605.55,1.325405,349495,16521
1608.55,1.333278,341154,15837
1612.54,1.319336,330877,15861
1615.53,1.335450,322904,14915
1618.51,1.338512,315116,14453
1621.49,1.325239,307217,14528
1624.47,1.324877,299481,14174
1627.44,1.323818,292112,13859
1630.41,1.328179,284245,13351
1634.36,1.323098,274079,13025
1637.32,1.318148,266916,12830
1640.27,1.321604,259612,12380
1643.22,1.323259,251804,11962
1646.16,1.322466,244348,11629
1649.1,1.323437,236703,11240
1652.04,1.308810,228171,11206
1655.95,1.310545,215408,10537
1658.88,1.327048,204937,9651
1661.8,1.336129,193395,8919
1664.72,1.314847,179728,8705
1667.63,1.298653,163642,8227
1670.54,1.335012,146312,6765
1673.44,1.307471,128451,6328
1677.31,1.305767,105080,5197
1680.21,1.327339,88906,4184
1683.1,1.352678,75033,3331
1685.99,1.372513,63520,2694
1688.87,1.320154,53714,2570
1691.75,1.281253,45653,2389
1694.62,1.216741,39137,2376
1697.49,1.316421,33776,1630
1701.31,1.205092,28175,1757