File: ML/samples/unknown/Column 1_078676_20241121_171648.csv
Method:,Column 1,,
Host Date-Time:,21/11/24 @ 17:16:48,,
Header Version:,1,,
System Temp (C):,34.66,,
Detector Temp (C):,35.23,,
Humidity (%):,1.37,,
Lamp PD:,3802,,
Shift Vector Coefficients:,-10.5391,0.0761263,-0.000134223,,
Pixel to Wavelength Coefficients:,1775.68,-0.916766,-0.000235065,,
Serial Number:,5510004,,
Scan Config Name:,Column 1,,
Scan Config Type:,Slew,,
Section 1,,
Start wavelength (nm):,900,,
End wavelength (nm):,1700,,
Pattern Pixel Width (nm):,   7.03,,,,
Exposure (ms):,  0.635,,,,
Digital Resolution:,228,,
Num Repeats:,6,,
PGA Gain:,64,,
Total Measurement Time in sec:,  2.703,,
Wavelength (nm),Absorbance (AU),Reference Signal (unitless),Sample Signal (unitless)
901.51,1.272316,108485,5795
905.376,1.317246,121306,5843
909.237,1.319764,131909,6317
913.095,1.291317,143299,7327
916.948,1.316238,156982,7579
922.079,1.316251,179937,8687
925.923,1.332102,200504,9333
929.762,1.320619,222660,10642
933.597,1.325114,244426,11562
937.427,1.310699,263972,12908
941.254,1.317143,281845,13579
945.076,1.308146,297271,14622
950.165,1.313149,315605,15346
953.978,1.301731,328029,16375
957.786,1.306640,340470,16805
961.59,1.315693,352317,17031
965.389,1.300930,363056,18157
969.185,1.307410,373162,18386
972.976,1.305241,382632,18947
976.763,1.297340,391202,19727
981.806,1.306128,400190,19776
985.583,1.308242,406088,19970
989.355,1.293891,410162,20848
993.124,1.307588,412868,20334
996.888,1.306392,414263,20459
1000.65,1.300170,415476,20815
1004.4,1.304387,415479,20614
1009.41,1.297500,414358,20887
1013.15,1.299270,412923,20730
1016.89,1.302983,411526,20484
1020.63,1.303955,409066,20316
1024.36,1.304629,406777,20171
1028.09,1.303752,404427,20095
1031.82,1.310149,401911,19678
1036.78,1.295797,398410,20162
1040.49,1.307150,396204,19533
1044.2,1.314518,394236,19109
1047.91,1.306719,392042,19347
1051.61,1.300388,389823,19520
1055.31,1.300107,388234,19453
1059,1.299709,387599,19439
1063.92,1.302502,386688,19269
1067.61,1.307296,386598,19053
1071.29,1.305263,387377,19181
1074.96,1.309536,388536,19050
1078.63,1.309983,389855,19095
1082.3,1.317819,391215,18819
1085.96,1.307299,393215,19379
1090.84,1.310055,396270,19406
1094.49,1.315447,398760,19287
1098.14,1.309746,400987,19651
1101.79,1.311573,403477,19690
1105.43,1.314757,406116,19674
1109.06,1.316273,407701,19682
1112.7,1.312779,409859,19946
1117.53,1.315671,412494,19941
1121.15,1.315752,414909,20054
1124.77,1.307288,416559,20530
1128.38,1.317454,418532,20150
1131.99,1.313042,419956,20425
1135.6,1.321564,421946,20123
1139.2,1.318040,423881,20380
1143.99,1.318838,426786,20482
1147.58,1.317086,428617,20653
1151.17,1.311024,431169,21068
1154.75,1.315304,433579,20978
1158.33,1.311778,436264,21280
1161.91,1.309652,439132,21525
1165.48,1.313952,442389,21471
1169.04,1.316268,446101,21536
1173.79,1.313735,451929,21945
1177.34,1.312226,456026,22221
1180.9,1.317226,461306,22221
1184.44,1.303094,467657,23272
1187.99,1.314513,473969,22974
1191.52,1.309858,479856,23510
1195.06,1.311065,487372,23812
1199.76,1.314787,497347,24092
1203.29,1.317432,504311,24281
1206.81,1.308676,511507,25129
1210.33,1.320413,519078,24821
1213.84,1.316223,527163,25452
1217.35,1.315586,534208,25830
1220.85,1.322908,540472,25696
1225.51,1.325183,549929,26009
1229.01,1.320788,556888,26606
1232.5,1.318689,562180,26989
1235.98,1.320607,567975,27147
1239.46,1.318509,574815,27607
1242.94,1.317264,582782,28070
1246.41,1.322181,591476,28168
1251.03,1.324424,604016,28617
1254.5,1.320000,612289,29306
1257.96,1.319695,619125,29654
1261.41,1.322855,624551,29697
1264.86,1.312077,629900,30704
1268.31,1.321457,634345,30260
1271.75,1.323310,638574,30332
1276.33,1.320989,642499,30682
1279.76,1.323016,645905,30701
1283.19,1.319314,648307,31079
1286.61,1.319642,650446,31158
1290.03,1.320390,652132,31185
1293.44,1.324224,653907,30995
1296.85,1.326064,655963,30961
1301.39,1.327823,657349,30901
1304.8,1.319362,657558,31519
1308.19,1.327512,658515,30978
1311.58,1.331773,658804,30689
1314.97,1.323029,659011,31323
1318.36,1.325254,658272,31128
1321.73,1.322793,658022,31293
1326.23,1.331497,657870,30665
1329.6,1.327489,656482,30884
1332.97,1.327219,654926,30830
1336.33,1.324035,653727,31000
1339.69,1.326691,652497,30753
1343.04,1.325844,649913,30691
1346.39,1.322282,647671,30837
1349.73,1.325815,645338,30477
1354.18,1.325979,641175,30269
1357.52,1.325170,638376,30193
1360.85,1.327943,635805,29880
1364.17,1.318942,633413,30391
1367.49,1.327232,631026,29704
1370.81,1.320555,628050,30022
1374.12,1.323103,625034,29703
1378.54,1.319811,620272,29701
1381.84,1.322527,616892,29355
1385.14,1.326816,613613,28912
1388.43,1.319740,611526,29287
1391.72,1.319616,610663,29254
1395.01,1.316622,610634,29455
1398.29,1.324605,611700,28969
1402.66,1.325492,614051,29021
1405.93,1.328346,616268,28935
1409.2,1.328087,617795,29024
1412.46,1.328231,618872,29065
1415.72,1.327818,619795,29136
1418.98,1.329996,620495,29023
1422.23,1.332856,621087,28860
1426.56,1.325258,621375,29383
1429.8,1.327634,621616,29234
1433.04,1.324132,622129,29495
1436.27,1.332757,621526,28887
1439.5,1.333447,621113,28822
1442.72,1.336230,620921,28629
1445.94,1.332390,620270,28853
1450.23,1.326120,618860,29206
1453.44,1.328902,617697,28965
1456.64,1.333082,616264,28621
1459.85,1.332717,614413,28559
1463.04,1.335966,612307,28249
1466.24,1.326654,610032,28754
1469.43,1.328850,607345,28483
1473.67,1.331206,603789,28163
1476.85,1.328829,601175,28195
1480.02,1.331607,597737,27855
1483.19,1.328221,594479,27920
1486.36,1.336519,591232,27242
1489.52,1.329163,587853,27549
1492.68,1.328791,583875,27386
1496.89,1.332351,578062,26892
1500.03,1.328667,574159,26938
1503.18,1.334702,570285,26387
1506.32,1.332153,565444,26317
1509.45,1.327866,560571,26349
1512.58,1.330162,555821,25988
1515.71,1.333907,550344,25511
1519.87,1.329488,543983,25474
1522.99,1.334833,538764,24921
1526.1,1.334014,533692,24733
1529.21,1.335288,527902,24393
1532.32,1.333366,521886,24222
1535.42,1.326860,515888,24305
1538.51,1.332444,509987,23720
1541.6,1.324032,503936,23897
1545.72,1.329617,494694,23159
1548.8,1.335552,488378,22553
1551.88,1.331834,481832,22442
1554.95,1.326610,474989,22391
1558.02,1.335061,467818,21628
1561.08,1.331129,460730,21494
1564.15,1.321520,454170,21662
1568.22,1.327705,444181,20886
1571.27,1.322219,436947,20807
1574.32,1.330104,429598,20089
1577.36,1.330600,422039,19713
1580.4,1.327515,414375,19493
1583.43,1.324248,406354,19260
1586.46,1.335277,398475,18413
1590.49,1.323533,388982,18467
1593.51,1.323874,380708,18060
1596.53,1.329123,372727,17469
1599.54,1.327265,365060,17183
1602.55,1.313578,357543,17368
1605.55,1.331120,349495,16305
1608.55,1.314389,341154,16541
1612.54,1.333586,330877,15349
1615.53,1.318322,322904,15515
1618.51,1.318373,315116,15139
1621.49,1.318212,307217,14765
1624.47,1.308698,299481,14712
1627.44,1.309061,292112,14338
1630.41,1.317416,284245,13686
1634.36,1.318488,274079,13164
1637.32,1.311597,266916,13025
1640.27,1.299347,259612,13031
1643.22,1.298080,251804,12676
1646.16,1.303790,244348,12140
1649.1,1.306018,236703,11700
1652.04,1.302576,228171,11368
1655.95,1.265670,215408,11684
1658.88,1.305069,204937,10152
1661.8,1.278058,193395,10195
1664.72,1.284920,179728,9326
1667.63,1.259701,163642,8999
1670.54,1.229068,146312,8634
1673.44,1.200950,128451,8087
1677.31,1.166364,105080,7164
1680.21,1.157451,88906,6187
1683.1,1.157000,75033,5227
1685.99,1.146716,63520,4531
1688.87,1.122632,53714,4050
1691.75,1.182493,45653,2999
1694.62,1.128396,39137,2912
1697.49,1.194557,33776,2158
1701.31,1.138958,28175,2046