File: ML/samples/unknown/Column 1_078887_20241121_172658.csv
Method:,Column 1,,
Host Date-Time:,21/11/24 @ 17:26:58,,
Header Version:,1,,
System Temp (C):,37.21,,
Detector Temp (C):,36.22,,
Humidity (%):,0.73,,
Lamp PD:,3796,,
Shift Vector Coefficients:,-10.5391,0.0761263,-0.000134223,,
Pixel to Wavelength Coefficients:,1775.68,-0.916766,-0.000235065,,
Serial Number:,5510004,,
Scan Config Name:,Column 1,,
Scan Config Type:,Slew,,
Section 1,,
Start wavelength (nm):,900,,
End wavelength (nm):,1700,,
Pattern Pixel Width (nm):,   7.03,,,,
Exposure (ms):,  0.635,,,,
Digital Resolution:,228,,
Num Repeats:,6,,
PGA Gain:,64,,
Total Measurement Time in sec:,  2.712,,
Wavelength (nm),Absorbance (AU),Reference Signal (unitless),Sample Signal (unitless)
901.51,1.348555,108485,4862
905.376,1.343994,121306,5494
909.237,1.337515,131909,6064
913.095,1.331532,143299,6679
916.948,1.329563,156982,7350
922.079,1.325446,179937,8505
925.923,1.320486,200504,9586
929.762,1.331027,222660,10390
933.597,1.335453,244426,11290
937.427,1.327646,263972,12414
941.254,1.329535,281845,13197
945.076,1.325507,297271,14049
950.165,1.317300,315605,15200
953.978,1.306558,328029,16194
957.786,1.313386,340470,16546
961.59,1.315235,352317,17049
965.389,1.306345,363056,17932
969.185,1.313715,373162,18121
972.976,1.310777,382632,18707
976.763,1.302055,391202,19514
981.806,1.305513,400190,19804
985.583,1.306787,406088,20037
989.355,1.301944,410162,20465
993.124,1.308059,412868,20312
996.888,1.309844,414263,20297
1000.65,1.309044,415476,20394
1004.4,1.305463,415479,20563
1009.41,1.305410,414358,20510
1013.15,1.306580,412923,20384
1016.89,1.309390,411526,20184
1020.63,1.306571,409066,20194
1024.36,1.304844,406777,20161
1028.09,1.308424,404427,19880
1031.82,1.312384,401911,19577
1036.78,1.302285,398410,19863
1040.49,1.313060,396204,19269
1044.2,1.308403,394236,19380
1047.91,1.307528,392042,19311
1051.61,1.305851,389823,19276
1055.31,1.300420,388234,19439
1059,1.314479,387599,18789
1063.92,1.318268,386688,18582
1067.61,1.315581,386598,18693
1071.29,1.316803,387377,18678
1074.96,1.321462,388536,18534
1078.63,1.308689,389855,19152
1082.3,1.309341,391215,19190
1085.96,1.314416,393215,19064
1090.84,1.314396,396270,19213
1094.49,1.307703,398760,19634
1098.14,1.314166,400987,19452
1101.79,1.319385,403477,19339
1105.43,1.312885,406116,19759
1109.06,1.318551,407701,19579
1112.7,1.313716,409859,19903
1117.53,1.323206,412494,19598
1121.15,1.312881,414909,20187
1124.77,1.316589,416559,20095
1128.38,1.321851,418532,19947
1131.99,1.313765,419956,20391
1135.6,1.315074,421946,20426
1139.2,1.316997,423881,20429
1143.99,1.316491,426786,20593
1147.58,1.311425,428617,20924
1151.17,1.318384,431169,20714
1154.75,1.314642,433579,21010
1158.33,1.322229,436264,20774
1161.91,1.309128,439132,21551
1165.48,1.322367,442389,21059
1169.04,1.320544,446101,21325
1173.79,1.312569,451929,22004
1177.34,1.317951,456026,21930
1180.9,1.320265,461306,22066
1184.44,1.320339,467657,22366
1187.99,1.319495,473969,22712
1191.52,1.320309,479856,22951
1195.06,1.321195,487372,23263
1199.76,1.319262,497347,23845
1203.29,1.318542,504311,24219
1206.81,1.318482,511507,24568
1210.33,1.322887,519078,24680
1213.84,1.325501,527163,24914
1217.35,1.323441,534208,25367
1220.85,1.376136,540472,22732
1225.51,1.321392,549929,26237
1229.01,1.322768,556888,26485
1232.5,1.316554,562180,27122
1235.98,1.321072,567975,27118
1239.46,1.319343,574815,27554
1242.94,1.320276,582782,27876
1246.41,1.316133,591476,28563
1251.03,1.323757,604016,28661
1254.5,1.320905,612289,29245
1257.96,1.324348,619125,29338
1261.41,1.327457,624551,29384
1264.86,1.325741,629900,29753
1268.31,1.323615,634345,30110
1271.75,1.322867,638574,30363
1276.33,1.321371,642499,30655
1279.76,1.325072,645905,30556
1283.19,1.325719,648307,30624
1286.61,1.319934,650446,31137
1290.03,1.326858,652132,30724
1293.44,1.329681,653907,30608
1296.85,1.328329,655963,30800
1301.39,1.322960,657349,31249
1304.8,1.328397,657558,30870
1308.19,1.328607,658515,30900
1311.58,1.326932,658804,31033
1314.97,1.334977,659011,30473
1318.36,1.328883,658272,30869
1321.73,1.331923,658022,30642
1326.23,1.331851,657870,30640
1329.6,1.332653,656482,30519
1332.97,1.327627,654926,30801
1336.33,1.328329,653727,30695
1339.69,1.330450,652497,30488
1343.04,1.329168,649913,30457
1346.39,1.330199,647671,30280
1349.73,1.330399,645338,30157
1354.18,1.323061,641175,30473
1357.52,1.326582,638376,30095
1360.85,1.328773,635805,29823
1364.17,1.328828,633413,29707
1367.49,1.330638,631026,29472
1370.81,1.330579,628050,29337
1374.12,1.328266,625034,29352
1378.54,1.328078,620272,29141
1381.84,1.326301,616892,29101
1385.14,1.328442,613613,28804
1388.43,1.320111,611526,29262
1391.72,1.327768,610663,28710
1395.01,1.323608,610634,28985
1398.29,1.325656,611700,28899
1402.66,1.328646,614051,28811
1405.93,1.326130,616268,29083
1409.2,1.327773,617795,29045
1412.46,1.334597,618872,28642
1415.72,1.330524,619795,28955
1418.98,1.330041,620495,29020
1422.23,1.333489,621087,28818
1426.56,1.333645,621375,28821
1429.8,1.328973,621616,29144
1433.04,1.330435,622129,29070
1436.27,1.334837,621526,28749
1439.5,1.332739,621113,28869
1442.72,1.332860,620921,28852
1445.94,1.335199,620270,28667
1450.23,1.335059,618860,28611
1453.44,1.330223,617697,28877
1456.64,1.334358,616264,28537
1459.85,1.331563,614413,28635
1463.04,1.343565,612307,27759
1466.24,1.325870,610032,28806
1469.43,1.333880,607345,28155
1473.67,1.333572,603789,28010
1476.85,1.334566,601175,27825
1480.02,1.339299,597737,27366
1483.19,1.335657,594479,27446
1486.36,1.333073,591232,27459
1489.52,1.338726,587853,26949
1492.68,1.327272,583875,27482
1496.89,1.334213,578062,26777
1500.03,1.336705,574159,26444
1503.18,1.333781,570285,26443
1506.32,1.330523,565444,26416
1509.45,1.343216,560571,25434
1512.58,1.335881,555821,25648
1515.71,1.334571,550344,25472
1519.87,1.326024,543983,25678
1522.99,1.338666,538764,24702
1526.1,1.338692,533692,24468
1529.21,1.337770,527902,24254
1532.32,1.338905,521886,23915
1535.42,1.330376,515888,24109
1538.51,1.338845,509987,23373
1541.6,1.340364,503936,23015
1545.72,1.327223,494694,23287
1548.8,1.332080,488378,22734
1551.88,1.335780,481832,22239
1554.95,1.330096,474989,22212
1558.02,1.332059,467818,21778
1561.08,1.331938,460730,21454
1564.15,1.331929,454170,21149
1568.22,1.339914,444181,20307
1571.27,1.335637,436947,20174
1574.32,1.334013,429598,19909
1577.36,1.337887,422039,19385
1580.4,1.331207,414375,19328
1583.43,1.331846,406354,18926
1586.46,1.342003,398475,18130
1590.49,1.326246,388982,18352
1593.51,1.324596,380708,18030
1596.53,1.324646,372727,17650
1599.54,1.322314,365060,17380
1602.55,1.327735,357543,16811
1605.55,1.329844,349495,16353
1608.55,1.321777,341154,16262
1612.54,1.306973,330877,16319
1615.53,1.321778,322904,15392
1618.51,1.327359,315116,14829
1621.49,1.333935,307217,14240
1624.47,1.335108,299481,13844
1627.44,1.312894,292112,14212
1630.41,1.315580,284245,13744
1634.36,1.313632,274079,13312
1637.32,1.314709,266916,12932
1640.27,1.323538,259612,12325
1643.22,1.307081,251804,12416
1646.16,1.317638,244348,11759
1649.1,1.309110,236703,11617
1652.04,1.290260,228171,11695
1655.95,1.309269,215408,10568
1658.88,1.286151,204937,10604
1661.8,1.291952,193395,9874
1664.72,1.275113,179728,9539
1667.63,1.245739,163642,9293
1670.54,1.209737,146312,9027
1673.44,1.191232,128451,8270
1677.31,1.165154,105080,7184
1680.21,1.167894,88906,6040
1683.1,1.153442,75033,5270
1685.99,1.149312,63520,4504
1688.87,1.099761,53714,4269
1691.75,1.100521,45653,3622
1694.62,1.176947,39137,2604
1697.49,1.188362,33776,2189
1701.31,1.134313,28175,2068