File: ML/samples/unknown/Column 1_078960_20241121_173029.csv
Method:,Column 1,,
Host Date-Time:,21/11/24 @ 17:30:29,,
Header Version:,1,,
System Temp (C):,37.64,,
Detector Temp (C):,36.81,,
Humidity (%):,0.43,,
Lamp PD:,3795,,
Shift Vector Coefficients:,-10.5391,0.0761263,-0.000134223,,
Pixel to Wavelength Coefficients:,1775.68,-0.916766,-0.000235065,,
Serial Number:,5510004,,
Scan Config Name:,Column 1,,
Scan Config Type:,Slew,,
Section 1,,
Start wavelength (nm):,900,,
End wavelength (nm):,1700,,
Pattern Pixel Width (nm):,   7.03,,,,
Exposure (ms):,  0.635,,,,
Digital Resolution:,228,,
Num Repeats:,6,,
PGA Gain:,64,,
Total Measurement Time in sec:,  2.727,,
Wavelength (nm),Absorbance (AU),Reference Signal (unitless),Sample Signal (unitless)
901.51,1.298257,108485,5459
905.376,1.300122,121306,6078
909.237,1.346854,131909,5935
913.095,1.339008,143299,6565
916.948,1.314009,156982,7618
922.079,1.324732,179937,8519
925.923,1.314814,200504,9712
929.762,1.330233,222660,10409
933.597,1.317925,244426,11755
937.427,1.342992,263972,11983
941.254,1.320224,281845,13483
945.076,1.318090,297271,14291
950.165,1.307246,315605,15556
953.978,1.309275,328029,16093
957.786,1.318614,340470,16348
961.59,1.317661,352317,16954
965.389,1.306127,363056,17941
969.185,1.311587,373162,18210
972.976,1.308970,382632,18785
976.763,1.301032,391202,19560
981.806,1.307998,400190,19691
985.583,1.304000,406088,20166
989.355,1.294662,410162,20811
993.124,1.309601,412868,20240
996.888,1.310658,414263,20259
1000.65,1.315112,415476,20111
1004.4,1.307156,415479,20483
1009.41,1.310565,414358,20268
1013.15,1.296388,412923,20868
1016.89,1.302305,411526,20516
1020.63,1.311220,409066,19979
1024.36,1.309806,406777,19932
1028.09,1.307638,404427,19916
1031.82,1.312317,401911,19580
1036.78,1.304060,398410,19782
1040.49,1.304048,396204,19673
1044.2,1.301533,394236,19689
1047.91,1.307146,392042,19328
1051.61,1.302194,389823,19439
1055.31,1.304257,388234,19268
1059,1.306736,387599,19127
1063.92,1.303449,386688,19227
1067.61,1.308003,386598,19022
1071.29,1.306010,387377,19148
1074.96,1.302728,388536,19351
1078.63,1.301805,389855,19458
1082.3,1.314051,391215,18983
1085.96,1.305577,393215,19456
1090.84,1.316276,396270,19130
1094.49,1.315019,398760,19306
1098.14,1.321256,400987,19137
1101.79,1.312147,403477,19664
1105.43,1.313061,406116,19751
1109.06,1.314731,407701,19752
1112.7,1.317882,409859,19713
1117.53,1.309443,412494,20229
1121.15,1.312924,414909,20185
1124.77,1.311262,416559,20343
1128.38,1.313314,418532,20343
1131.99,1.313574,419956,20400
1135.6,1.313439,421946,20503
1139.2,1.320005,423881,20288
1143.99,1.323656,426786,20256
1147.58,1.310036,428617,20991
1151.17,1.317734,431169,20745
1154.75,1.311060,433579,21184
1158.33,1.321561,436264,20806
1161.91,1.311208,439132,21448
1165.48,1.320576,442389,21146
1169.04,1.311515,446101,21773
1173.79,1.309226,451929,22174
1177.34,1.309168,456026,22378
1180.9,1.316444,461306,22261
1184.44,1.321778,467657,22292
1187.99,1.316028,473969,22894
1191.52,1.312898,479856,23346
1195.06,1.310937,487372,23819
1199.76,1.317590,497347,23937
1203.29,1.324646,504311,23881
1206.81,1.313298,511507,24863
1210.33,1.319557,519078,24870
1213.84,1.312756,527163,25656
1217.35,1.321545,534208,25478
1220.85,1.323533,540472,25659
1225.51,1.320813,549929,26272
1229.01,1.315177,556888,26952
1232.5,1.319188,562180,26958
1235.98,1.316579,567975,27400
1239.46,1.317252,574815,27687
1242.94,1.317357,582782,28064
1246.41,1.320535,591476,28275
1251.03,1.316991,604016,29111
1254.5,1.318535,612289,29405
1257.96,1.323579,619125,29390
1261.41,1.327457,624551,29384
1264.86,1.320532,629900,30112
1268.31,1.322750,634345,30170
1271.75,1.322295,638574,30403
1276.33,1.324086,642499,30464
1279.76,1.326325,645905,30468
1283.19,1.327111,648307,30526
1286.61,1.326002,650446,30705
1290.03,1.326236,652132,30768
1293.44,1.323287,653907,31062
1296.85,1.325140,655963,31027
1301.39,1.328020,657349,30887
1304.8,1.325523,657558,31075
1308.19,1.328045,658515,30940
1311.58,1.334001,658804,30532
1314.97,1.326440,659011,31078
1318.36,1.327618,658272,30959
1321.73,1.326361,658022,31037
1326.23,1.330775,657870,30716
1329.6,1.324155,656482,31122
1332.97,1.327867,654926,30784
1336.33,1.330926,653727,30512
1339.69,1.326677,652497,30754
1343.04,1.329168,649913,30457
1346.39,1.330170,647671,30282
1349.73,1.327629,645338,30350
1354.18,1.323732,641175,30426
1357.52,1.321789,638376,30429
1360.85,1.325812,635805,30027
1364.17,1.325290,633413,29950
1367.49,1.330343,631026,29492
1370.81,1.319500,628050,30095
1374.12,1.328444,625034,29340
1378.54,1.320733,620272,29638
1381.84,1.325407,616892,29161
1385.14,1.325332,613613,29011
1388.43,1.326992,611526,28802
1391.72,1.319423,610663,29267
1395.01,1.327340,610634,28737
1398.29,1.324500,611700,28976
1402.66,1.322019,614051,29254
1405.93,1.326310,616268,29071
1409.2,1.326459,617795,29133
1412.46,1.328784,618872,29028
1415.72,1.335912,619795,28598
1418.98,1.333965,620495,28759
1422.23,1.336058,621087,28648
1426.56,1.334112,621375,28790
1429.8,1.330511,621616,29041
1433.04,1.327517,622129,29266
1436.27,1.326725,621526,29291
1439.5,1.326926,621113,29258
1442.72,1.329786,620921,29057
1445.94,1.323805,620270,29429
1450.23,1.332547,618860,28777
1453.44,1.336297,617697,28476
1456.64,1.331446,616264,28729
1459.85,1.332201,614413,28593
1463.04,1.331333,612307,28552
1466.24,1.330584,610032,28495
1469.43,1.329292,607345,28454
1473.67,1.335016,603789,27917
1476.85,1.329677,601175,28140
1480.02,1.330984,597737,27895
1483.19,1.333527,594479,27581
1486.36,1.337908,591232,27155
1489.52,1.331201,587853,27420
1492.68,1.326798,583875,27512
1496.89,1.329582,578062,27064
1500.03,1.335229,574159,26534
1503.18,1.333650,570285,26451
1506.32,1.337016,565444,26024
1509.45,1.330943,560571,26163
1512.58,1.337085,555821,25577
1515.71,1.347199,550344,24742
1519.87,1.333651,543983,25231
1522.99,1.325506,538764,25462
1526.1,1.332611,533692,24813
1529.21,1.335110,527902,24403
1532.32,1.329297,521886,24450
1535.42,1.331025,515888,24073
1538.51,1.337046,509987,23470
1541.6,1.334647,503936,23320
1545.72,1.336726,494694,22783
1548.8,1.332099,488378,22733
1551.88,1.332338,481832,22416
1554.95,1.328457,474989,22296
1558.02,1.328326,467818,21966
1561.08,1.332100,460730,21446
1564.15,1.329614,454170,21262
1568.22,1.327497,444181,20896
1571.27,1.331012,436947,20390
1574.32,1.338287,429598,19714
1577.36,1.328951,422039,19788
1580.4,1.328362,414375,19455
1583.43,1.329238,406354,19040
1586.46,1.330561,398475,18614
1590.49,1.329500,388982,18215
1593.51,1.326891,380708,17935
1596.53,1.317230,372727,17954
1599.54,1.323140,365060,17347
1602.55,1.330170,357543,16717
1605.55,1.325799,349495,16506
1608.55,1.323811,341154,16186
1612.54,1.314869,330877,16025
1615.53,1.323701,322904,15324
1618.51,1.321598,315116,15027
1621.49,1.316890,307217,14810
1624.47,1.320639,299481,14313
1627.44,1.315653,292112,14122
1630.41,1.296871,284245,14349
1634.36,1.314089,274079,13298
1637.32,1.322161,266916,12712
1640.27,1.310350,259612,12705
1643.22,1.299041,251804,12648
1646.16,1.322018,244348,11641
1649.1,1.298037,236703,11917
1652.04,1.302385,228171,11373
1655.95,1.287665,215408,11107
1658.88,1.285251,204937,10626
1661.8,1.280707,193395,10133
1664.72,1.254225,179728,10009
1667.63,1.242526,163642,9362
1670.54,1.228465,146312,8646
1673.44,1.202510,128451,8058
1677.31,1.172162,105080,7069
1680.21,1.149591,88906,6300
1683.1,1.120904,75033,5680
1685.99,1.108744,63520,4945
1688.87,1.115190,53714,4120
1691.75,1.117142,45653,3486
1694.62,1.186388,39137,2548
1697.49,1.064715,33776,2910
1701.31,1.175244,28175,1882