File: ML/samples/unknown/Column 1_078152_20241121_164801.csv
Method:,Column 1,,
Host Date-Time:,21/11/24 @ 16:48:1,,
Header Version:,1,,
System Temp (C):,33.28,,
Detector Temp (C):,29.31,,
Humidity (%):,3.22,,
Lamp PD:,3805,,
Shift Vector Coefficients:,-10.5391,0.0761263,-0.000134223,,
Pixel to Wavelength Coefficients:,1775.68,-0.916766,-0.000235065,,
Serial Number:,5510004,,
Scan Config Name:,Column 1,,
Scan Config Type:,Slew,,
Section 1,,
Start wavelength (nm):,900,,
End wavelength (nm):,1700,,
Pattern Pixel Width (nm):,   7.03,,,,
Exposure (ms):,  0.635,,,,
Digital Resolution:,228,,
Num Repeats:,6,,
PGA Gain:,64,,
Total Measurement Time in sec:,  2.724,,
Wavelength (nm),Absorbance (AU),Reference Signal (unitless),Sample Signal (unitless)
901.51,1.298814,108485,5452
905.376,1.318885,121306,5821
909.237,1.300336,131909,6606
913.095,1.316137,143299,6920
916.948,1.315723,156982,7588
922.079,1.332084,179937,8376
925.923,1.321393,200504,9566
929.762,1.326329,222660,10503
933.597,1.321859,244426,11649
937.427,1.321118,263972,12602
941.254,1.327270,281845,13266
945.076,1.321507,297271,14179
950.165,1.321809,315605,15043
953.978,1.305059,328029,16250
957.786,1.317209,340470,16401
961.59,1.320359,352317,16849
965.389,1.317730,363056,17468
969.185,1.297301,373162,18819
972.976,1.315398,382632,18509
976.763,1.312096,391202,19068
981.806,1.308926,400190,19649
985.583,1.322523,406088,19324
989.355,1.305481,410162,20299
993.124,1.306991,412868,20362
996.888,1.315552,414263,20032
1000.65,1.313883,415476,20168
1004.4,1.309921,415479,20353
1009.41,1.303129,414358,20618
1013.15,1.311077,412923,20174
1016.89,1.305769,411526,20353
1020.63,1.307303,409066,20160
1024.36,1.309544,406777,19944
1028.09,1.313699,404427,19640
1031.82,1.316843,401911,19377
1036.78,1.319138,398410,19107
1040.49,1.310072,396204,19402
1044.2,1.313474,394236,19155
1047.91,1.317584,392042,18869
1051.61,1.313006,389823,18961
1055.31,1.310729,388234,18983
1059,1.309766,387599,18994
1063.92,1.309270,386688,18971
1067.61,1.311258,386598,18880
1071.29,1.318457,387377,18607
1074.96,1.310152,388536,19023
1078.63,1.322232,389855,18564
1082.3,1.319368,391215,18752
1085.96,1.330403,393215,18375
1090.84,1.312119,396270,19314
1094.49,1.308544,398760,19596
1098.14,1.316427,400987,19351
1101.79,1.312523,403477,19647
1105.43,1.312885,406116,19759
1109.06,1.328082,407701,19154
1112.7,1.317441,409859,19733
1117.53,1.326029,412494,19471
1121.15,1.326584,414909,19560
1124.77,1.318364,416559,20013
1128.38,1.323771,418532,19859
1131.99,1.324067,419956,19913
1135.6,1.319992,421946,20196
1139.2,1.322710,423881,20162
1143.99,1.317039,426786,20567
1147.58,1.326031,428617,20232
1151.17,1.316939,431169,20783
1154.75,1.327395,433579,20402
1158.33,1.324325,436264,20674
1161.91,1.315911,439132,21217
1165.48,1.322037,442389,21075
1169.04,1.319547,446101,21374
1173.79,1.319813,451929,21640
1177.34,1.318070,456026,21924
1180.9,1.320581,461306,22050
1184.44,1.312736,467657,22761
1187.99,1.329534,473969,22193
1191.52,1.325909,479856,22657
1195.06,1.327779,487372,22913
1199.76,1.325425,497347,23509
1203.29,1.317182,504311,24295
1206.81,1.328007,511507,24035
1210.33,1.319260,519078,24887
1213.84,1.322358,527163,25095
1217.35,1.328781,534208,25057
1220.85,1.324398,540472,25608
1225.51,1.319889,549929,26328
1229.01,1.320952,556888,26596
1232.5,1.326204,562180,26526
1235.98,1.328453,567975,26661
1239.46,1.326719,574815,27090
1242.94,1.319809,582782,27906
1246.41,1.329285,591476,27711
1251.03,1.324212,604016,28631
1254.5,1.329332,612289,28683
1257.96,1.323727,619125,29380
1261.41,1.324526,624551,29583
1264.86,1.330142,629900,29453
1268.31,1.331753,634345,29551
1271.75,1.327743,638574,30024
1276.33,1.326000,642499,30330
1279.76,1.331602,645905,30100
1283.19,1.332493,648307,30150
1286.61,1.327348,650446,30610
1290.03,1.330335,652132,30479
1293.44,1.332885,653907,30383
1296.85,1.334692,655963,30352
1301.39,1.334880,657349,30403
1304.8,1.334932,657558,30409
1308.19,1.329959,658515,30804
1311.58,1.332482,658804,30639
1314.97,1.334337,659011,30518
1318.36,1.330179,658272,30777
1321.73,1.333187,658022,30553
1326.23,1.335881,657870,30357
1329.6,1.327757,656482,30865
1332.97,1.336963,654926,30146
1336.33,1.334484,653727,30263
1339.69,1.339271,652497,29875
1343.04,1.337446,649913,29882
1346.39,1.334103,647671,30009
1349.73,1.333826,645338,29920
1354.18,1.326955,641175,30201
1357.52,1.332379,638376,29696
1360.85,1.328773,635805,29823
1364.17,1.327019,633413,29831
1367.49,1.340444,631026,28814
1370.81,1.329484,628050,29411
1374.12,1.328606,625034,29329
1378.54,1.328794,620272,29093
1381.84,1.324678,616892,29210
1385.14,1.323867,613613,29109
1388.43,1.328170,611526,28724
1391.72,1.323149,610663,29017
1395.01,1.326042,610634,28823
1398.29,1.332716,611700,28433
1402.66,1.331596,614051,28616
1405.93,1.329985,616268,28826
1409.2,1.334220,617795,28617
1412.46,1.335508,618872,28582
1415.72,1.334684,619795,28679
1418.98,1.328756,620495,29106
1422.23,1.330335,621087,29028
1426.56,1.330567,621375,29026
1429.8,1.332745,621616,28892
1433.04,1.333509,622129,28865
1436.27,1.331976,621526,28939
1439.5,1.336016,621113,28652
1442.72,1.338024,620921,28511
1445.94,1.330647,620270,28969
1450.23,1.333832,618860,28692
1453.44,1.337014,617697,28429
1456.64,1.337152,616264,28354
1459.85,1.333768,614413,28490
1463.04,1.334554,612307,28341
1466.24,1.334196,610032,28259
1469.43,1.337318,607345,27933
1473.67,1.340244,603789,27583
1476.85,1.337887,601175,27613
1480.02,1.337430,597737,27484
1483.19,1.336148,594479,27415
1486.36,1.342911,591232,26844
1489.52,1.340600,587853,26833
1492.68,1.343993,583875,26444
1496.89,1.344619,578062,26143
1500.03,1.333237,574159,26656
1503.18,1.338803,570285,26139
1506.32,1.327590,565444,26595
1509.45,1.339865,560571,25631
1512.58,1.337595,555821,25547
1515.71,1.340286,550344,25139
1519.87,1.341169,543983,24798
1522.99,1.333858,538764,24977
1526.1,1.347605,533692,23971
1529.21,1.341312,527902,24057
1532.32,1.338125,521886,23958
1535.42,1.339662,515888,23599
1538.51,1.349186,509987,22823
1541.6,1.335318,503936,23284
1545.72,1.340305,494694,22596
1548.8,1.340373,488378,22304
1551.88,1.336015,481832,22227
1554.95,1.339944,474989,21714
1558.02,1.340374,467818,21365
1561.08,1.334802,460730,21313
1564.15,1.337301,454170,20889
1568.22,1.338121,444181,20391
1571.27,1.334068,436947,20247
1574.32,1.336595,429598,19791
1577.36,1.327745,422039,19843
1580.4,1.327493,414375,19494
1583.43,1.338226,406354,18650
1586.46,1.335560,398475,18401
1590.49,1.340731,388982,17750
1593.51,1.341468,380708,17343
1596.53,1.329247,372727,17464
1599.54,1.331201,365060,17028
1602.55,1.334819,357543,16539
1605.55,1.324171,349495,16568
1608.55,1.323972,341154,16180
1612.54,1.323601,330877,15706
1615.53,1.335508,322904,14913
1618.51,1.334296,315116,14594
1621.49,1.330170,307217,14364
1624.47,1.320851,299481,14306
1627.44,1.306674,292112,14417
1630.41,1.319580,284245,13618
1634.36,1.318455,274079,13165
1637.32,1.324696,266916,12638
1640.27,1.316339,259612,12531
1643.22,1.308904,251804,12364
1646.16,1.316642,244348,11786
1649.1,1.323747,236703,11232
1652.04,1.299227,228171,11456
1655.95,1.319077,215408,10332
1658.88,1.307988,204937,10084
1661.8,1.301828,193395,9652
1664.72,1.301969,179728,8967
1667.63,1.289822,163642,8396
1670.54,1.273854,146312,7788
1673.44,1.271718,128451,6871
1677.31,1.311149,105080,5133
1680.21,1.268596,88906,4790
1683.1,1.230518,75033,4413
1685.99,1.286111,63520,3287
1688.87,1.243657,53714,3065
1691.75,1.288956,45653,2347
1694.62,1.301219,39137,1956
1697.49,1.193753,33776,2162
1701.31,1.319530,28175,1350