File: ML/samples/unknown/Column 1_078383_20241121_165959.csv
Method:,Column 1,,
Host Date-Time:,21/11/24 @ 16:59:59,,
Header Version:,1,,
System Temp (C):,34.6,,
Detector Temp (C):,34.06,,
Humidity (%):,2,,
Lamp PD:,3803,,
Shift Vector Coefficients:,-10.5391,0.0761263,-0.000134223,,
Pixel to Wavelength Coefficients:,1775.68,-0.916766,-0.000235065,,
Serial Number:,5510004,,
Scan Config Name:,Column 1,,
Scan Config Type:,Slew,,
Section 1,,
Start wavelength (nm):,900,,
End wavelength (nm):,1700,,
Pattern Pixel Width (nm):,   7.03,,,,
Exposure (ms):,  0.635,,,,
Digital Resolution:,228,,
Num Repeats:,6,,
PGA Gain:,64,,
Total Measurement Time in sec:,  2.729,,
Wavelength (nm),Absorbance (AU),Reference Signal (unitless),Sample Signal (unitless)
901.51,1.323057,108485,5156
905.376,1.322631,121306,5771
909.237,1.321417,131909,6293
913.095,1.328293,143299,6729
916.948,1.325680,156982,7416
922.079,1.322241,179937,8568
925.923,1.335840,200504,9253
929.762,1.311413,222660,10870
933.597,1.331014,244426,11406
937.427,1.324231,263972,12512
941.254,1.316887,281845,13587
945.076,1.316664,297271,14338
950.165,1.319219,315605,15133
953.978,1.317915,328029,15776
957.786,1.311631,340470,16613
961.59,1.313303,352317,17125
965.389,1.315474,363056,17559
969.185,1.306160,373162,18439
972.976,1.310893,382632,18702
976.763,1.308715,391202,19217
981.806,1.308992,400190,19646
985.583,1.308264,406088,19969
989.355,1.299953,410162,20559
993.124,1.309322,412868,20253
996.888,1.308200,414263,20374
1000.65,1.313905,415476,20167
1004.4,1.317801,415479,19987
1009.41,1.313834,414358,20116
1013.15,1.316711,412923,19914
1016.89,1.311482,411526,20087
1020.63,1.316094,409066,19756
1024.36,1.304156,406777,20193
1028.09,1.315227,404427,19571
1031.82,1.312073,401911,19591
1036.78,1.311031,398410,19467
1040.49,1.307261,396204,19528
1044.2,1.306212,394236,19478
1047.91,1.311731,392042,19125
1051.61,1.310722,389823,19061
1055.31,1.309860,388234,19021
1059,1.314710,387599,18779
1063.92,1.311175,386688,18888
1067.61,1.303574,386598,19217
1071.29,1.309106,387377,19012
1074.96,1.305068,388536,19247
1078.63,1.307941,389855,19185
1082.3,1.310451,391215,19141
1085.96,1.320542,393215,18797
1090.84,1.320107,396270,18962
1094.49,1.320042,398760,19084
1098.14,1.315418,400987,19396
1101.79,1.329426,403477,18897
1105.43,1.324513,406116,19237
1109.06,1.318884,407701,19564
1112.7,1.318014,409859,19707
1117.53,1.323405,412494,19589
1121.15,1.314519,414909,20111
1124.77,1.318061,416559,20027
1128.38,1.316119,418532,20212
1131.99,1.318067,419956,20190
1135.6,1.314882,421946,20435
1139.2,1.319876,423881,20294
1143.99,1.320942,426786,20383
1147.58,1.323697,428617,20341
1151.17,1.326168,431169,20346
1154.75,1.329465,433579,20305
1158.33,1.316786,436264,21036
1161.91,1.329065,439132,20584
1165.48,1.330800,442389,20654
1169.04,1.327524,446101,20985
1173.79,1.318250,451929,21718
1177.34,1.318268,456026,21914
1180.9,1.321487,461306,22004
1184.44,1.317880,467657,22493
1187.99,1.320394,473969,22665
1191.52,1.322491,479856,22836
1195.06,1.320822,487372,23283
1199.76,1.317989,497347,23915
1203.29,1.321222,504311,24070
1206.81,1.316330,511507,24690
1210.33,1.327611,519078,24413
1213.84,1.326217,527163,24873
1217.35,1.353347,534208,23679
1220.85,1.326437,540472,25488
1225.51,1.320946,549929,26264
1229.01,1.329177,556888,26097
1232.5,1.327351,562180,26456
1235.98,1.322692,567975,27017
1239.46,1.320669,574815,27470
1242.94,1.319980,582782,27895
1246.41,1.318053,591476,28437
1251.03,1.323772,604016,28660
1254.5,1.323990,612289,29038
1257.96,1.326753,619125,29176
1261.41,1.324628,624551,29576
1264.86,1.332389,629900,29301
1268.31,1.325277,634345,29995
1271.75,1.337307,638574,29370
1276.33,1.329869,642499,30061
1279.76,1.325983,645905,30492
1283.19,1.331961,648307,30187
1286.61,1.332615,650446,30241
1290.03,1.329339,652132,30549
1293.44,1.326317,653907,30846
1296.85,1.335336,655963,30307
1301.39,1.331125,657349,30667
1304.8,1.332085,657558,30609
1308.19,1.329437,658515,30841
1311.58,1.331816,658804,30686
1314.97,1.327881,659011,30975
1318.36,1.328827,658272,30873
1321.73,1.336339,658022,30332
1326.23,1.324877,657870,31136
1329.6,1.337216,656482,30200
1332.97,1.338738,654926,30023
1336.33,1.331823,653727,30449
1339.69,1.330806,652497,30463
1343.04,1.330768,649913,30345
1346.39,1.332759,647671,30102
1349.73,1.328144,645338,30314
1354.18,1.331770,641175,29868
1357.52,1.326755,638376,30083
1360.85,1.328685,635805,29829
1364.17,1.331262,633413,29541
1367.49,1.333788,631026,29259
1370.81,1.334579,628050,29068
1374.12,1.326406,625034,29478
1378.54,1.327080,620272,29208
1381.84,1.329657,616892,28877
1385.14,1.325167,613613,29022
1388.43,1.325788,611526,28882
1391.72,1.327224,610663,28746
1395.01,1.324132,610634,28950
1398.29,1.330704,611700,28565
1402.66,1.332021,614051,28588
1405.93,1.329759,616268,28841
1409.2,1.330277,617795,28878
1412.46,1.325653,618872,29238
1415.72,1.329012,619795,29056
1418.98,1.338107,620495,28486
1422.23,1.336149,621087,28642
1426.56,1.333811,621375,28810
1429.8,1.338738,621616,28496
1433.04,1.337925,622129,28573
1436.27,1.334006,621526,28804
1439.5,1.334457,621113,28755
1442.72,1.334112,620921,28769
1445.94,1.333234,620270,28797
1450.23,1.333665,618860,28703
1453.44,1.335139,617697,28552
1456.64,1.336280,616264,28411
1459.85,1.333555,614413,28504
1463.04,1.333574,612307,28405
1466.24,1.333474,610032,28306
1469.43,1.332356,607345,28254
1473.67,1.333526,603789,28013
1476.85,1.337431,601175,27642
1480.02,1.337525,597737,27478
1483.19,1.337974,594479,27300
1486.36,1.338949,591232,27090
1489.52,1.337937,587853,26998
1492.68,1.332678,583875,27142
1496.89,1.334894,578062,26735
1500.03,1.337132,574159,26418
1503.18,1.345348,570285,25748
1506.32,1.339073,565444,25901
1509.45,1.332606,560571,26063
1512.58,1.336390,555821,25618
1515.71,1.342416,550344,25016
1519.87,1.341572,543983,24775
1522.99,1.336912,538764,24802
1526.1,1.335668,533692,24639
1529.21,1.342396,527902,23997
1532.32,1.340069,521886,23851
1535.42,1.332326,515888,24001
1538.51,1.333893,509987,23641
1541.6,1.336158,503936,23239
1545.72,1.337164,494694,22760
1548.8,1.339537,488378,22347
1551.88,1.337620,481832,22145
1554.95,1.338028,474989,21810
1558.02,1.346928,467818,21045
1561.08,1.336006,460730,21254
1564.15,1.335952,454170,20954
1568.22,1.336145,444181,20484
1571.27,1.338943,436947,20021
1574.32,1.339192,429598,19673
1577.36,1.329368,422039,19769
1580.4,1.325071,414375,19603
1583.43,1.334077,406354,18829
1586.46,1.329373,398475,18665
1590.49,1.334850,388982,17992
1593.51,1.338573,380708,17459
1596.53,1.333797,372727,17282
1599.54,1.322865,365060,17358
1602.55,1.318204,357543,17184
1605.55,1.325089,349495,16533
1608.55,1.321243,341154,16282
1612.54,1.321532,330877,15781
1615.53,1.325348,322904,15266
1618.51,1.333167,315116,14632
1621.49,1.326227,307217,14495
1624.47,1.323348,299481,14224
1627.44,1.319701,292112,13991
1630.41,1.319803,284245,13611
1634.36,1.314318,274079,13291
1637.32,1.310564,266916,13056
1640.27,1.314748,259612,12577
1643.22,1.329070,251804,11803
1646.16,1.318785,244348,11728
1649.1,1.327007,236703,11148
1652.04,1.312507,228171,11111
1655.95,1.304447,215408,10686
1658.88,1.286560,204937,10594
1661.8,1.296417,193395,9773
1664.72,1.288099,179728,9258
1667.63,1.264749,163642,8895
1670.54,1.243541,146312,8351
1673.44,1.224849,128451,7654
1677.31,1.200269,105080,6626
1680.21,1.222775,88906,5323
1683.1,1.171789,75033,5052
1685.99,1.221302,63520,3816
1688.87,1.187013,53714,3492
1691.75,1.211691,45653,2804
1694.62,1.223186,39137,2341
1697.49,1.173924,33776,2263
1701.31,1.156501,28175,1965