File: ML/samples/unknown/Column 1_078247_20241121_165242.csv
Method:,Column 1,,
Host Date-Time:,21/11/24 @ 16:52:42,,
Header Version:,1,,
System Temp (C):,34.2,,
Detector Temp (C):,31.7,,
Humidity (%):,2.35,,
Lamp PD:,3803,,
Shift Vector Coefficients:,-10.5391,0.0761263,-0.000134223,,
Pixel to Wavelength Coefficients:,1775.68,-0.916766,-0.000235065,,
Serial Number:,5510004,,
Scan Config Name:,Column 1,,
Scan Config Type:,Slew,,
Section 1,,
Start wavelength (nm):,900,,
End wavelength (nm):,1700,,
Pattern Pixel Width (nm):,   7.03,,,,
Exposure (ms):,  0.635,,,,
Digital Resolution:,228,,
Num Repeats:,6,,
PGA Gain:,64,,
Total Measurement Time in sec:,  2.729,,
Wavelength (nm),Absorbance (AU),Reference Signal (unitless),Sample Signal (unitless)
901.51,1.305881,108485,5364
905.376,1.318735,121306,5823
909.237,1.317980,131909,6343
913.095,1.315698,143299,6927
916.948,1.346369,156982,7071
922.079,1.328007,179937,8455
925.923,1.323121,200504,9528
929.762,1.328942,222660,10440
933.597,1.336031,244426,11275
937.427,1.324266,263972,12511
941.254,1.323781,281845,13373
945.076,1.324211,297271,14091
950.165,1.317443,315605,15195
953.978,1.314980,328029,15883
957.786,1.324714,340470,16120
961.59,1.313582,352317,17114
965.389,1.309993,363056,17782
969.185,1.309993,373162,18277
972.976,1.305401,382632,18940
976.763,1.306439,391202,19318
981.806,1.306963,400190,19738
985.583,1.307720,406088,19994
989.355,1.311643,410162,20013
993.124,1.306415,412868,20389
996.888,1.313627,414263,20121
1000.65,1.310900,415476,20307
1004.4,1.310775,415479,20313
1009.41,1.314180,414358,20100
1013.15,1.312327,412923,20116
1016.89,1.302686,411526,20498
1020.63,1.314865,409066,19812
1024.36,1.315331,406777,19680
1028.09,1.313809,404427,19635
1031.82,1.306369,401911,19850
1036.78,1.306415,398410,19675
1040.49,1.307951,396204,19497
1044.2,1.315770,394236,19054
1047.91,1.314876,392042,18987
1051.61,1.315902,389823,18835
1055.31,1.308834,388234,19066
1059,1.308465,387599,19051
1063.92,1.317241,386688,18626
1067.61,1.315395,386598,18701
1071.29,1.313999,387377,18799
1074.96,1.308739,388536,19085
1078.63,1.323872,389855,18494
1082.3,1.310632,391215,19133
1085.96,1.317847,393215,18914
1090.84,1.308625,396270,19470
1094.49,1.309787,398760,19540
1098.14,1.314725,400987,19427
1101.79,1.318331,403477,19386
1105.43,1.317592,406116,19546
1109.06,1.314335,407701,19770
1112.7,1.322667,409859,19497
1117.53,1.318511,412494,19811
1121.15,1.319733,414909,19871
1124.77,1.322069,416559,19843
1128.38,1.315711,418532,20231
1131.99,1.319317,419956,20132
1135.6,1.312614,421946,20542
1139.2,1.321828,423881,20203
1143.99,1.327295,426786,20087
1147.58,1.318983,428617,20563
1151.17,1.308763,431169,21178
1154.75,1.315408,433579,20973
1158.33,1.322041,436264,20783
1161.91,1.324323,439132,20810
1165.48,1.318916,442389,21227
1169.04,1.308890,446101,21905
1173.79,1.313023,451929,21981
1177.34,1.320732,456026,21790
1180.9,1.318478,461306,22157
1184.44,1.318730,467657,22449
1187.99,1.314400,473969,22980
1191.52,1.313979,479856,23288
1195.06,1.326076,487372,23003
1199.76,1.329863,497347,23270
1203.29,1.324682,504311,23879
1206.81,1.321604,511507,24392
1210.33,1.324474,519078,24590
1213.84,1.325345,527163,24923
1217.35,1.323561,534208,25360
1220.85,1.330185,540472,25269
1225.51,1.330965,549929,25665
1229.01,1.323638,556888,26432
1232.5,1.316202,562180,27144
1235.98,1.323255,567975,26982
1239.46,1.324528,574815,27227
1242.94,1.323403,582782,27676
1246.41,1.324113,591476,28043
1251.03,1.329308,604016,28297
1254.5,1.327187,612289,28825
1257.96,1.328288,619125,29073
1261.41,1.331213,624551,29131
1264.86,1.332004,629900,29327
1268.31,1.327658,634345,29831
1271.75,1.329816,638574,29881
1276.33,1.330332,642499,30029
1279.76,1.331415,645905,30113
1283.19,1.334066,648307,30041
1286.61,1.329481,650446,30460
1290.03,1.328259,652132,30625
1293.44,1.338279,653907,30008
1296.85,1.334349,655963,30376
1301.39,1.325008,657349,31102
1304.8,1.331929,657558,30620
1308.19,1.334081,658515,30513
1311.58,1.336512,658804,30356
1314.97,1.334365,659011,30516
1318.36,1.332585,658272,30607
1321.73,1.327103,658022,30984
1326.23,1.333413,657870,30530
1329.6,1.336296,656482,30264
1332.97,1.340042,654926,29933
1336.33,1.329065,653727,30643
1339.69,1.332506,652497,30344
1343.04,1.334058,649913,30116
1346.39,1.329296,647671,30343
1349.73,1.330500,645338,30150
1354.18,1.329624,641175,30016
1357.52,1.336272,638376,29431
1360.85,1.335701,635805,29351
1364.17,1.328317,633413,29742
1367.49,1.326765,631026,29736
1370.81,1.326967,628050,29582
1374.12,1.332548,625034,29064
1378.54,1.330349,620272,28989
1381.84,1.332797,616892,28669
1385.14,1.334836,613613,28383
1388.43,1.332119,611526,28464
1391.72,1.327496,610663,28728
1395.01,1.331394,610634,28470
1398.29,1.329429,611700,28649
1402.66,1.330868,614051,28664
1405.93,1.323584,616268,29254
1409.2,1.333008,617795,28697
1412.46,1.329233,618872,28998
1415.72,1.340492,619795,28298
1418.98,1.333512,620495,28789
1422.23,1.332977,621087,28852
1426.56,1.336108,621375,28658
1429.8,1.339730,621616,28431
1433.04,1.333494,622129,28866
1436.27,1.336562,621526,28635
1439.5,1.334880,621113,28727
1442.72,1.332078,620921,28904
1445.94,1.337386,620270,28523
1450.23,1.331492,618860,28847
1453.44,1.332652,617697,28716
1456.64,1.339348,616264,28211
1459.85,1.335815,614413,28356
1463.04,1.334508,612307,28344
1466.24,1.337172,610032,28066
1469.43,1.342180,607345,27622
1473.67,1.337841,603789,27736
1476.85,1.332246,601175,27974
1480.02,1.344616,597737,27033
1483.19,1.342580,594479,27012
1486.36,1.340249,591232,27009
1489.52,1.340050,587853,26867
1492.68,1.347836,583875,26211
1496.89,1.340881,578062,26369
1500.03,1.336081,574159,26482
1503.18,1.334932,570285,26373
1506.32,1.337483,565444,25996
1509.45,1.340492,560571,25594
1512.58,1.343138,555821,25223
1515.71,1.335920,550344,25393
1519.87,1.337194,543983,25026
1522.99,1.342179,538764,24503
1526.1,1.339865,533692,24402
1529.21,1.346762,527902,23757
1532.32,1.337491,521886,23993
1535.42,1.340620,515888,23547
1538.51,1.341884,509987,23210
1541.6,1.347748,503936,22627
1545.72,1.338043,494694,22714
1548.8,1.326802,488378,23012
1551.88,1.335878,481832,22234
1554.95,1.341828,474989,21620
1558.02,1.337315,467818,21516
1561.08,1.338773,460730,21119
1564.15,1.336719,454170,20917
1568.22,1.331170,444181,20720
1571.27,1.352090,436947,19424
1574.32,1.337869,429598,19733
1577.36,1.335630,422039,19486
1580.4,1.338434,414375,19009
1583.43,1.334308,406354,18819
1586.46,1.334734,398475,18436
1590.49,1.329787,388982,18203
1593.51,1.334833,380708,17610
1596.53,1.333973,372727,17275
1599.54,1.328379,365060,17139
1602.55,1.331731,357543,16657
1605.55,1.330694,349495,16321
1608.55,1.338547,341154,15646
1612.54,1.330710,330877,15451
1615.53,1.317706,322904,15537
1618.51,1.324120,315116,14940
1621.49,1.318094,307217,14769
1624.47,1.320699,299481,14311
1627.44,1.317657,292112,14057
1630.41,1.328960,284245,13327
1634.36,1.332263,274079,12753
1637.32,1.322981,266916,12688
1640.27,1.319365,259612,12444
1643.22,1.329954,251804,11779
1646.16,1.321720,244348,11649
1649.1,1.328842,236703,11101
1652.04,1.320436,228171,10910
1655.95,1.325685,215408,10176
1658.88,1.311447,204937,10004
1661.8,1.285794,193395,10015
1664.72,1.299217,179728,9024
1667.63,1.274425,163642,8699
1670.54,1.268368,146312,7887
1673.44,1.249719,128451,7228
1677.31,1.216904,105080,6377
1680.21,1.223837,88906,5310
1683.1,1.233283,75033,4385
1685.99,1.192783,63520,4075
1688.87,1.222636,53714,3217
1691.75,1.225060,45653,2719
1694.62,1.174618,39137,2618
1697.49,1.213058,33776,2068
1701.31,1.331269,28175,1314