File: ML/samples/unknown/Column 1_078836_20241121_172431.csv
Method:,Column 1,,
Host Date-Time:,21/11/24 @ 17:24:31,,
Header Version:,1,,
System Temp (C):,37.29,,
Detector Temp (C):,35.71,,
Humidity (%):,0.68,,
Lamp PD:,3797,,
Shift Vector Coefficients:,-10.5391,0.0761263,-0.000134223,,
Pixel to Wavelength Coefficients:,1775.68,-0.916766,-0.000235065,,
Serial Number:,5510004,,
Scan Config Name:,Column 1,,
Scan Config Type:,Slew,,
Section 1,,
Start wavelength (nm):,900,,
End wavelength (nm):,1700,,
Pattern Pixel Width (nm):,   7.03,,,,
Exposure (ms):,  0.635,,,,
Digital Resolution:,228,,
Num Repeats:,6,,
PGA Gain:,64,,
Total Measurement Time in sec:,  2.721,,
Wavelength (nm),Absorbance (AU),Reference Signal (unitless),Sample Signal (unitless)
901.51,1.323141,108485,5155
905.376,1.318885,121306,5821
909.237,1.295173,131909,6685
913.095,1.296385,143299,7242
916.948,1.326853,156982,7396
922.079,1.328932,179937,8437
925.923,1.333033,200504,9313
929.762,1.316395,222660,10746
933.597,1.318073,244426,11751
937.427,1.307180,263972,13013
941.254,1.314051,281845,13676
945.076,1.313315,297271,14449
950.165,1.308896,315605,15497
953.978,1.309086,328029,16100
957.786,1.306537,340470,16809
961.59,1.305910,352317,17419
965.389,1.305812,363056,17954
969.185,1.302244,373162,18606
972.976,1.301362,382632,19117
976.763,1.293243,391202,19914
981.806,1.306391,400190,19764
985.583,1.303721,406088,20179
989.355,1.309220,410162,20125
993.124,1.301860,412868,20604
996.888,1.306583,414263,20450
1000.65,1.310558,415476,20323
1004.4,1.303230,415479,20669
1009.41,1.311530,414358,20223
1013.15,1.309701,412923,20238
1016.89,1.299372,411526,20655
1020.63,1.311437,409066,19969
1024.36,1.305513,406777,20130
1028.09,1.300351,404427,20253
1031.82,1.304819,401911,19921
1036.78,1.310407,398410,19495
1040.49,1.307929,396204,19498
1044.2,1.299113,394236,19799
1047.91,1.302364,392042,19542
1051.61,1.304658,389823,19329
1055.31,1.308857,388234,19065
1059,1.308761,387599,19038
1063.92,1.307283,386688,19058
1067.61,1.305908,386598,19114
1071.29,1.305466,387377,19172
1074.96,1.317102,388536,18721
1078.63,1.305233,389855,19305
1082.3,1.312863,391215,19035
1085.96,1.306180,393215,19429
1090.84,1.313222,396270,19265
1094.49,1.312015,398760,19440
1098.14,1.317123,400987,19320
1101.79,1.309680,403477,19776
1105.43,1.315840,406116,19625
1109.06,1.326001,407701,19246
1112.7,1.313694,409859,19904
1117.53,1.301656,412494,20595
1121.15,1.314562,414909,20109
1124.77,1.315164,416559,20161
1128.38,1.318165,418532,20117
1131.99,1.315622,419956,20304
1135.6,1.325009,421946,19964
1139.2,1.312787,423881,20628
1143.99,1.309482,426786,20928
1147.58,1.311819,428617,20905
1151.17,1.322513,431169,20518
1154.75,1.312703,433579,21104
1158.33,1.313905,436264,21176
1161.91,1.316505,439132,21188
1165.48,1.313406,442389,21498
1169.04,1.318006,446101,21450
1173.79,1.306668,451929,22305
1177.34,1.321910,456026,21731
1180.9,1.312173,461306,22481
1184.44,1.312717,467657,22762
1187.99,1.311537,473969,23132
1191.52,1.307905,479856,23616
1195.06,1.318144,487372,23427
1199.76,1.316304,497347,24008
1203.29,1.320735,504311,24097
1206.81,1.321711,511507,24386
1210.33,1.324774,519078,24573
1213.84,1.324161,527163,24991
1217.35,1.318657,534208,25648
1220.85,1.318669,540472,25948
1225.51,1.314691,549929,26645
1229.01,1.320805,556888,26605
1232.5,1.321028,562180,26844
1235.98,1.316848,567975,27383
1239.46,1.317237,574815,27688
1242.94,1.320478,582782,27863
1246.41,1.321165,591476,28234
1251.03,1.316917,604016,29116
1254.5,1.325848,612289,28914
1257.96,1.320457,619125,29602
1261.41,1.324438,624551,29589
1264.86,1.320734,629900,30098
1268.31,1.323413,634345,30124
1271.75,1.325204,638574,30200
1276.33,1.322833,642499,30552
1279.76,1.325229,645905,30545
1283.19,1.324798,648307,30689
1286.61,1.324590,650446,30805
1290.03,1.323100,652132,30991
1293.44,1.325586,653907,30898
1296.85,1.326570,655963,30925
1301.39,1.329485,657349,30783
1304.8,1.324267,657558,31165
1308.19,1.325610,658515,31114
1311.58,1.326219,658804,31084
1314.97,1.331231,659011,30737
1318.36,1.333181,658272,30565
1321.73,1.326193,658022,31049
1326.23,1.329674,657870,30794
1329.6,1.329759,656482,30723
1332.97,1.330996,654926,30563
1336.33,1.322259,653727,31127
1339.69,1.325971,652497,30804
1343.04,1.333337,649913,30166
1346.39,1.325889,647671,30582
1349.73,1.327471,645338,30361
1354.18,1.325634,641175,30293
1357.52,1.325372,638376,30179
1360.85,1.325942,635805,30018
1364.17,1.327879,633413,29772
1367.49,1.324100,631026,29919
1370.81,1.324770,628050,29732
1374.12,1.324685,625034,29595
1378.54,1.322613,620272,29510
1381.84,1.323267,616892,29305
1385.14,1.321442,613613,29272
1388.43,1.329260,611526,28652
1391.72,1.325716,610663,28846
1395.01,1.327566,610634,28722
1398.29,1.319404,611700,29318
1402.66,1.322227,614051,29240
1405.93,1.323941,616268,29230
1409.2,1.327429,617795,29068
1412.46,1.331967,618872,28816
1415.72,1.328310,619795,29103
1418.98,1.327489,620495,29191
1422.23,1.324141,621087,29445
1426.56,1.327376,621375,29240
1429.8,1.327619,621616,29235
1433.04,1.330391,622129,29073
1436.27,1.330717,621526,29023
1439.5,1.328621,621113,29144
1442.72,1.329517,620921,29075
1445.94,1.327481,620270,29181
1450.23,1.330304,618860,28926
1453.44,1.333151,617697,28683
1456.64,1.332930,616264,28631
1459.85,1.334134,614413,28466
1463.04,1.327245,612307,28822
1466.24,1.326156,610032,28787
1469.43,1.329460,607345,28443
1473.67,1.326879,603789,28445
1476.85,1.334691,601175,27817
1480.02,1.335145,597737,27629
1483.19,1.329826,594479,27817
1486.36,1.329764,591232,27669
1489.52,1.330126,587853,27488
1492.68,1.331799,583875,27197
1496.89,1.330369,578062,27015
1500.03,1.334036,574159,26607
1503.18,1.332322,570285,26532
1506.32,1.332269,565444,26310
1509.45,1.339239,560571,25668
1512.58,1.329311,555821,26039
1515.71,1.329318,550344,25782
1519.87,1.331145,543983,25377
1522.99,1.336160,538764,24845
1526.1,1.333207,533692,24779
1529.21,1.336358,527902,24333
1532.32,1.335000,521886,24131
1535.42,1.331567,515888,24043
1538.51,1.332206,509987,23733
1541.6,1.332084,503936,23458
1545.72,1.334805,494694,22884
1548.8,1.326066,488378,23051
1551.88,1.327904,481832,22646
1554.95,1.336041,474989,21910
1558.02,1.334439,467818,21659
1561.08,1.323042,460730,21898
1564.15,1.328717,454170,21306
1568.22,1.330270,444181,20763
1571.27,1.332762,436947,20308
1574.32,1.329111,429598,20135
1577.36,1.332919,422039,19608
1580.4,1.325869,414375,19567
1583.43,1.329808,406354,19015
1586.46,1.330048,398475,18636
1590.49,1.325797,388982,18371
1593.51,1.326261,380708,17961
1596.53,1.316794,372727,17972
1599.54,1.323491,365060,17333
1602.55,1.318988,357543,17153
1605.55,1.319504,349495,16747
1608.55,1.329700,341154,15968
1612.54,1.315954,330877,15985
1615.53,1.318238,322904,15518
1618.51,1.319149,315116,15112
1621.49,1.318447,307217,14757
1624.47,1.323622,299481,14215
1627.44,1.318770,292112,14021
1630.41,1.315548,284245,13745
1634.36,1.315398,274079,13258
1637.32,1.302654,266916,13296
1640.27,1.308678,259612,12754
1643.22,1.318385,251804,12097
1646.16,1.315612,244348,11814
1649.1,1.316158,236703,11430
1652.04,1.299759,228171,11442
1655.95,1.308694,215408,10582
1658.88,1.286110,204937,10605
1661.8,1.269913,193395,10388
1664.72,1.260343,179728,9869
1667.63,1.248928,163642,9225
1670.54,1.224913,146312,8717
1673.44,1.229642,128451,7570
1677.31,1.172408,105080,7065
1680.21,1.153121,88906,6249
1683.1,1.141814,75033,5413
1685.99,1.134338,63520,4662
1688.87,1.105702,53714,4211
1691.75,1.151479,45653,3221
1694.62,1.138048,39137,2848
1697.49,1.120368,33776,2560
1701.31,1.090218,28175,2289