File: ML/samples/unknown/Column 1_078475_20241121_170429.csv
Method:,Column 1,,
Host Date-Time:,21/11/24 @ 17:4:29,,
Header Version:,1,,
System Temp (C):,34.52,,
Detector Temp (C):,33.79,,
Humidity (%):,1.81,,
Lamp PD:,3801,,
Shift Vector Coefficients:,-10.5391,0.0761263,-0.000134223,,
Pixel to Wavelength Coefficients:,1775.68,-0.916766,-0.000235065,,
Serial Number:,5510004,,
Scan Config Name:,Column 1,,
Scan Config Type:,Slew,,
Section 1,,
Start wavelength (nm):,900,,
End wavelength (nm):,1700,,
Pattern Pixel Width (nm):,   7.03,,,,
Exposure (ms):,  0.635,,,,
Digital Resolution:,228,,
Num Repeats:,6,,
PGA Gain:,64,,
Total Measurement Time in sec:,  2.728,,
Wavelength (nm),Absorbance (AU),Reference Signal (unitless),Sample Signal (unitless)
901.51,1.308072,108485,5337
905.376,1.320005,121306,5806
909.237,1.326624,131909,6218
913.095,1.300724,143299,7170
916.948,1.302754,156982,7818
922.079,1.323917,179937,8535
925.923,1.311163,200504,9794
929.762,1.312573,222660,10841
933.597,1.328849,244426,11463
937.427,1.310564,263972,12912
941.254,1.316216,281845,13608
945.076,1.318911,297271,14264
950.165,1.318617,315605,15154
953.978,1.318136,328029,15768
957.786,1.315649,340470,16460
961.59,1.307960,352317,17337
965.389,1.311338,363056,17727
969.185,1.314291,373162,18097
972.976,1.315398,382632,18509
976.763,1.306192,391202,19329
981.806,1.303806,400190,19882
985.583,1.315877,406088,19622
989.355,1.310949,410162,20045
993.124,1.316391,412868,19926
996.888,1.315899,414263,20016
1000.65,1.310900,415476,20307
1004.4,1.303987,415479,20633
1009.41,1.309132,414358,20335
1013.15,1.299689,412923,20710
1016.89,1.307758,411526,20260
1020.63,1.316028,409066,19759
1024.36,1.313152,406777,19779
1028.09,1.305289,404427,20024
1031.82,1.308079,401911,19772
1036.78,1.313784,398410,19344
1040.49,1.302176,396204,19758
1044.2,1.310289,394236,19296
1047.91,1.303588,392042,19487
1051.61,1.309971,389823,19094
1055.31,1.310249,388234,19004
1059,1.309058,387599,19025
1063.92,1.305600,386688,19132
1067.61,1.304909,386598,19158
1071.29,1.301632,387377,19342
1074.96,1.310632,388536,19002
1078.63,1.305638,389855,19287
1082.3,1.314967,391215,18943
1085.96,1.319111,393215,18859
1090.84,1.313831,396270,19238
1094.49,1.309654,398760,19546
1098.14,1.307849,400987,19737
1101.79,1.309417,403477,19788
1105.43,1.317259,406116,19561
1109.06,1.319795,407701,19523
1112.7,1.314721,409859,19857
1117.53,1.317242,412494,19869
1121.15,1.314584,414909,20108
1124.77,1.315703,416559,20136
1128.38,1.309551,418532,20520
1131.99,1.317251,419956,20228
1135.6,1.317825,421946,20297
1139.2,1.327737,423881,19930
1143.99,1.313758,426786,20723
1147.58,1.312380,428617,20878
1151.17,1.317420,431169,20760
1154.75,1.315532,433579,20967
1158.33,1.322167,436264,20777
1161.91,1.317983,439132,21116
1165.48,1.318527,442389,21246
1169.04,1.319141,446101,21394
1173.79,1.313616,451929,21951
1177.34,1.316192,456026,22019
1180.9,1.315412,461306,22314
1184.44,1.320961,467657,22334
1187.99,1.323008,473969,22529
1191.52,1.314296,479856,23271
1195.06,1.320691,487372,23290
1199.76,1.310054,497347,24356
1203.29,1.319242,504311,24180
1206.81,1.324301,511507,24241
1210.33,1.323803,519078,24628
1213.84,1.321062,527163,25170
1217.35,1.324332,534208,25315
1220.85,1.323991,540472,25632
1225.51,1.319625,549929,26344
1229.01,1.321687,556888,26551
1232.5,1.322958,562180,26725
1235.98,1.320383,567975,27161
1239.46,1.323923,574815,27265
1242.94,1.324047,582782,27635
1246.41,1.322613,591476,28140
1251.03,1.328296,604016,28363
1254.5,1.327911,612289,28777
1257.96,1.323269,619125,29411
1261.41,1.324731,624551,29569
1264.86,1.327672,629900,29621
1268.31,1.328503,634345,29773
1271.75,1.327193,638574,30062
1276.33,1.330809,642499,29996
1279.76,1.331198,645905,30128
1283.19,1.325379,648307,30648
1286.61,1.325705,650446,30726
1290.03,1.329154,652132,30562
1293.44,1.327699,653907,30748
1296.85,1.326794,655963,30909
1301.39,1.329147,657349,30807
1304.8,1.332028,657558,30613
1308.19,1.330622,658515,30757
1311.58,1.327212,658804,31013
1314.97,1.333285,659011,30592
1318.36,1.329559,658272,30821
1321.73,1.329267,658022,30830
1326.23,1.332404,657870,30601
1329.6,1.332923,656482,30500
1332.97,1.332477,654926,30459
1336.33,1.332366,653727,30411
1339.69,1.329169,652497,30578
1343.04,1.328655,649913,30493
1346.39,1.326798,647671,30518
1349.73,1.328732,645338,30273
1354.18,1.326582,641175,30227
1357.52,1.331721,638376,29741
1360.85,1.326652,635805,29969
1364.17,1.331791,633413,29505
1367.49,1.332632,631026,29337
1370.81,1.327099,628050,29573
1374.12,1.331802,625034,29114
1378.54,1.326248,620272,29264
1381.84,1.328966,616892,28923
1385.14,1.325062,613613,29029
1388.43,1.323329,611526,29046
1391.72,1.328783,610663,28643
1395.01,1.327476,610634,28728
1398.29,1.326197,611700,28863
1402.66,1.324297,614051,29101
1405.93,1.327566,616268,28987
1409.2,1.328551,617795,28993
1412.46,1.331681,618872,28835
1415.72,1.329476,619795,29025
1418.98,1.333663,620495,28779
1422.23,1.330410,621087,29023
1426.56,1.331660,621375,28953
1429.8,1.329271,621616,29124
1433.04,1.335499,622129,28733
1436.27,1.332411,621526,28910
1439.5,1.335819,621113,28665
1442.72,1.332093,620921,28903
1445.94,1.332375,620270,28854
1450.23,1.328476,618860,29048
1453.44,1.330284,617697,28873
1456.64,1.332870,616264,28635
1459.85,1.329732,614413,28756
1463.04,1.333712,612307,28396
1466.24,1.338086,610032,28007
1469.43,1.331726,607345,28295
1473.67,1.331824,603789,28123
1476.85,1.326601,601175,28340
1480.02,1.332794,597737,27779
1483.19,1.335278,594479,27470
1486.36,1.331873,591232,27535
1489.52,1.335067,587853,27177
1492.68,1.336519,583875,26903
1496.89,1.339992,578062,26423
1500.03,1.336131,574159,26479
1503.18,1.341119,570285,26000
1506.32,1.331000,565444,26387
1509.45,1.334661,560571,25940
1512.58,1.342330,555821,25270
1515.71,1.335032,550344,25445
1519.87,1.335773,543983,25108
1522.99,1.336614,538764,24819
1526.1,1.341202,533692,24327
1529.21,1.338057,527902,24238
1532.32,1.335901,521886,24081
1535.42,1.333649,515888,23928
1538.51,1.332353,509987,23725
1541.6,1.340534,503936,23006
1545.72,1.333119,494694,22973
1548.8,1.332596,488378,22707
1551.88,1.333851,481832,22338
1554.95,1.331094,474989,22161
1558.02,1.339481,467818,21409
1561.08,1.338526,460730,21131
1564.15,1.339887,454170,20765
1568.22,1.340128,444181,20297
1571.27,1.329035,436947,20483
1574.32,1.327281,429598,20220
1577.36,1.316468,422039,20365
1580.4,1.330757,414375,19348
1583.43,1.321215,406354,19395
1586.46,1.333605,398475,18484
1590.49,1.327383,388982,18304
1593.51,1.324235,380708,18045
1596.53,1.320556,372727,17817
1599.54,1.321790,365060,17401
1602.55,1.322318,357543,17022
1605.55,1.330003,349495,16347
1608.55,1.326313,341154,16093
1612.54,1.331610,330877,15419
1615.53,1.321158,322904,15414
1618.51,1.324643,315116,14922
1621.49,1.313240,307217,14935
1624.47,1.316321,299481,14456
1627.44,1.314210,292112,14169
1630.41,1.323552,284245,13494
1634.36,1.321268,274079,13080
1637.32,1.315549,266916,12907
1640.27,1.321289,259612,12389
1643.22,1.324786,251804,11920
1646.16,1.321646,244348,11651
1649.1,1.316310,236703,11426
1652.04,1.298394,228171,11478
1655.95,1.315811,215408,10410
1658.88,1.295423,204937,10380
1661.8,1.305897,193395,9562
1664.72,1.285386,179728,9316
1667.63,1.250579,163642,9190
1670.54,1.251625,146312,8197
1673.44,1.246904,128451,7275
1677.31,1.198633,105080,6651
1680.21,1.173321,88906,5965
1683.1,1.163867,75033,5145
1685.99,1.191825,63520,4084
1688.87,1.168748,53714,3642
1691.75,1.160057,45653,3158
1694.62,1.202006,39137,2458
1697.49,1.321513,33776,1611
1701.31,1.286703,28175,1456