File: ML/samples/unknown/Column 1_078023_20241121_164142.csv
Method:,Column 1,,
Host Date-Time:,21/11/24 @ 16:41:42,,
Header Version:,1,,
System Temp (C):,29.91,,
Detector Temp (C):,24.91,,
Humidity (%):,7.06,,
Lamp PD:,3813,,
Shift Vector Coefficients:,-10.5391,0.0761263,-0.000134223,,
Pixel to Wavelength Coefficients:,1775.68,-0.916766,-0.000235065,,
Serial Number:,5510004,,
Scan Config Name:,Column 1,,
Scan Config Type:,Slew,,
Section 1,,
Start wavelength (nm):,900,,
End wavelength (nm):,1700,,
Pattern Pixel Width (nm):,   7.03,,,,
Exposure (ms):,  0.635,,,,
Digital Resolution:,228,,
Num Repeats:,6,,
PGA Gain:,64,,
Total Measurement Time in sec:,  2.721,,
Wavelength (nm),Absorbance (AU),Reference Signal (unitless),Sample Signal (unitless)
901.51,1.306854,108485,5352
905.376,1.324441,121306,5747
909.237,1.307361,131909,6500
913.095,1.318844,143299,6877
916.948,1.307165,156982,7739
922.079,1.310145,179937,8810
925.923,1.310897,200504,9800
929.762,1.305934,222660,11008
933.597,1.320333,244426,11690
937.427,1.308785,263972,12965
941.254,1.324627,281845,13347
945.076,1.325198,297271,14059
950.165,1.314594,315605,15295
953.978,1.314297,328029,15908
957.786,1.302704,340470,16958
961.59,1.310170,352317,17249
965.389,1.312246,363056,17690
969.185,1.313643,373162,18124
972.976,1.314180,382632,18561
976.763,1.314631,391202,18957
981.806,1.313525,400190,19442
985.583,1.314573,406088,19681
989.355,1.309220,410162,20125
993.124,1.305798,412868,20418
996.888,1.308520,414263,20359
1000.65,1.315674,415476,20085
1004.4,1.314188,415479,20154
1009.41,1.307235,414358,20424
1013.15,1.317475,412923,19879
1016.89,1.312348,411526,20047
1020.63,1.316292,409066,19747
1024.36,1.314119,406777,19735
1028.09,1.307573,404427,19919
1031.82,1.329649,401911,18814
1036.78,1.318615,398410,19130
1040.49,1.317864,396204,19057
1044.2,1.309929,394236,19312
1047.91,1.313096,392042,19065
1051.61,1.312000,389823,19005
1055.31,1.311278,388234,18959
1059,1.309218,387599,19018
1063.92,1.320048,386688,18506
1067.61,1.315674,386598,18689
1071.29,1.317944,387377,18629
1074.96,1.326127,388536,18336
1078.63,1.314074,389855,18916
1082.3,1.309657,391215,19176
1085.96,1.319734,393215,18832
1090.84,1.314351,396270,19215
1094.49,1.322988,398760,18955
1098.14,1.324811,400987,18981
1101.79,1.313253,403477,19614
1105.43,1.326051,406116,19169
1109.06,1.313545,407701,19806
1112.7,1.329039,409859,19213
1117.53,1.324960,412494,19519
1121.15,1.316207,414909,20033
1124.77,1.317302,416559,20062
1128.38,1.319484,418532,20056
1131.99,1.313467,419956,20405
1135.6,1.319068,421946,20239
1139.2,1.319149,423881,20328
1143.99,1.326215,426786,20137
1147.58,1.322801,428617,20383
1151.17,1.321265,431169,20577
1154.75,1.314332,433579,21025
1158.33,1.322773,436264,20748
1161.91,1.323177,439132,20865
1165.48,1.323192,442389,21019
1169.04,1.316127,446101,21543
1173.79,1.319372,451929,21662
1177.34,1.318268,456026,21914
1180.9,1.322040,461306,21976
1184.44,1.322227,467657,22269
1187.99,1.326200,473969,22364
1191.52,1.317593,479856,23095
1195.06,1.321176,487372,23264
1199.76,1.324521,497347,23558
1203.29,1.328886,504311,23649
1206.81,1.320644,511507,24446
1210.33,1.331507,519078,24195
1213.84,1.324283,527163,24984
1217.35,1.327950,534208,25105
1220.85,1.331648,540472,25184
1225.51,1.327947,549929,25844
1229.01,1.327201,556888,26216
1232.5,1.322259,562180,26768
1235.98,1.332347,567975,26423
1239.46,1.322984,574815,27324
1242.94,1.325463,582782,27545
1246.41,1.329646,591476,27688
1251.03,1.326630,604016,28472
1254.5,1.325563,612289,28933
1257.96,1.329051,619125,29022
1261.41,1.330319,624551,29191
1264.86,1.328347,629900,29575
1268.31,1.332842,634345,29477
1271.75,1.337840,638574,29334
1276.33,1.332201,642499,29900
1279.76,1.328855,645905,30291
1283.19,1.331185,648307,30241
1286.61,1.334601,650446,30103
1290.03,1.334458,652132,30191
1293.44,1.340513,653907,29854
1296.85,1.335537,655963,30293
1301.39,1.337746,657349,30203
1304.8,1.329595,657558,30785
1308.19,1.330763,658515,30747
1311.58,1.335711,658804,30412
1314.97,1.328681,659011,30918
1318.36,1.338830,658272,30170
1321.73,1.335167,658022,30414
1326.23,1.336597,657870,30307
1329.6,1.335436,656482,30324
1332.97,1.333476,654926,30389
1336.33,1.332437,653727,30406
1339.69,1.335133,652497,30161
1343.04,1.340757,649913,29655
1346.39,1.333683,647671,30038
1349.73,1.336475,645338,29738
1354.18,1.334805,641175,29660
1357.52,1.334828,638376,29529
1360.85,1.334622,635805,29424
1364.17,1.334642,633413,29312
1367.49,1.330579,631026,29476
1370.81,1.328187,628050,29499
1374.12,1.330640,625034,29192
1378.54,1.330439,620272,28983
1381.84,1.327587,616892,29015
1385.14,1.326621,613613,28925
1388.43,1.331037,611526,28535
1391.72,1.329952,610663,28566
1395.01,1.328187,610634,28681
1398.29,1.331419,611700,28518
1402.66,1.331626,614051,28614
1405.93,1.334255,616268,28544
1409.2,1.336243,617795,28484
1412.46,1.337702,618872,28438
1415.72,1.337418,619795,28499
1418.98,1.332924,620495,28828
1422.23,1.330111,621087,29043
1426.56,1.333012,621375,28863
1429.8,1.335822,621616,28688
1433.04,1.340868,622129,28380
1436.27,1.335109,621526,28731
1439.5,1.336243,621113,28637
1442.72,1.334655,620921,28733
1445.94,1.336975,620270,28550
1450.23,1.331236,618860,28864
1453.44,1.335839,617697,28506
1456.64,1.342640,616264,27998
1459.85,1.336536,614413,28309
1463.04,1.337090,612307,28176
1466.24,1.344601,610032,27590
1469.43,1.337054,607345,27950
1473.67,1.342454,603789,27443
1476.85,1.337824,601175,27617
1480.02,1.335900,597737,27581
1483.19,1.342307,594479,27029
1486.36,1.335230,591232,27323
1489.52,1.343881,587853,26631
1492.68,1.339305,583875,26731
1496.89,1.341013,578062,26361
1500.03,1.342758,574159,26078
1503.18,1.337691,570285,26206
1506.32,1.343150,565444,25659
1509.45,1.343096,560571,25441
1512.58,1.341334,555821,25328
1515.71,1.337394,550344,25307
1519.87,1.342730,543983,24709
1522.99,1.350085,538764,24061
1526.1,1.338674,533692,24469
1529.21,1.337484,527902,24270
1532.32,1.348620,521886,23386
1535.42,1.340141,515888,23573
1538.51,1.384761,509987,21028
1541.6,1.335318,503936,23284
1545.72,1.340305,494694,22596
1548.8,1.336998,488378,22478
1551.88,1.350518,481832,21497
1554.95,1.340965,474989,21663
1558.02,1.332857,467818,21738
1561.08,1.340463,460730,21037
1564.15,1.333595,454170,21068
1568.22,1.336400,444181,20472
1571.27,1.340856,436947,19933
1574.32,1.347033,429598,19321
1577.36,1.340381,422039,19274
1580.4,1.335769,414375,19126
1583.43,1.337435,406354,18684
1586.46,1.343852,398475,18053
1590.49,1.340022,388982,17779
1593.51,1.340617,380708,17377
1596.53,1.336292,372727,17183
1599.54,1.344275,365060,16523
1602.55,1.342315,357543,16256
1605.55,1.335511,349495,16141
1608.55,1.326206,341154,16097
1612.54,1.334294,330877,15324
1615.53,1.337318,322904,14851
1618.51,1.334028,315116,14603
1621.49,1.319036,307217,14737
1624.47,1.342256,299481,13618
1627.44,1.328385,292112,13714
1630.41,1.335560,284245,13126
1634.36,1.342532,274079,12455
1637.32,1.334391,266916,12359
1640.27,1.333302,259612,12051
1643.22,1.341234,251804,11477
1646.16,1.340929,244348,11145
1649.1,1.333364,236703,10986
1652.04,1.336575,228171,10512
1655.95,1.320298,215408,10303
1658.88,1.318228,204937,9849
1661.8,1.334089,193395,8961
1664.72,1.342394,179728,8170
1667.63,1.346074,163642,7376
1670.54,1.354510,146312,6468
1673.44,1.339730,128451,5875
1677.31,1.400864,105080,4175
1680.21,1.356754,88906,3910
1683.1,1.364171,75033,3244
1685.99,1.429079,63520,2365
1688.87,1.332843,53714,2496
1691.75,1.345391,45653,2061
1694.62,1.246822,39137,2217
1697.49,1.396028,33776,1357
1701.31,1.268020,28175,1520