File: ML/samples/unknown/Column 1_078068_20241121_164354.csv
Method:,Column 1,,
Host Date-Time:,21/11/24 @ 16:43:54,,
Header Version:,1,,
System Temp (C):,31.36,,
Detector Temp (C):,26.27,,
Humidity (%):,5.22,,
Lamp PD:,3809,,
Shift Vector Coefficients:,-10.5391,0.0761263,-0.000134223,,
Pixel to Wavelength Coefficients:,1775.68,-0.916766,-0.000235065,,
Serial Number:,5510004,,
Scan Config Name:,Column 1,,
Scan Config Type:,Slew,,
Section 1,,
Start wavelength (nm):,900,,
End wavelength (nm):,1700,,
Pattern Pixel Width (nm):,   7.03,,,,
Exposure (ms):,  0.635,,,,
Digital Resolution:,228,,
Num Repeats:,6,,
PGA Gain:,64,,
Total Measurement Time in sec:,  2.709,,
Wavelength (nm),Absorbance (AU),Reference Signal (unitless),Sample Signal (unitless)
901.51,1.301691,108485,5416
905.376,1.294443,121306,6158
909.237,1.305095,131909,6534
913.095,1.292207,143299,7312
916.948,1.292434,156982,8006
922.079,1.296461,179937,9092
925.923,1.311962,200504,9776
929.762,1.311013,222660,10880
933.597,1.305506,244426,12096
937.427,1.295199,263972,13377
941.254,1.308247,281845,13860
945.076,1.309425,297271,14579
950.165,1.291994,315605,16112
953.978,1.306183,328029,16208
957.786,1.303345,340470,16933
961.59,1.297100,352317,17776
965.389,1.306369,363056,17931
969.185,1.301731,373162,18628
972.976,1.298373,382632,19249
976.763,1.302834,391202,19479
981.806,1.304615,400190,19845
985.583,1.307221,406088,20017
989.355,1.302453,410162,20441
993.124,1.297873,412868,20794
996.888,1.299505,414263,20786
1000.65,1.297694,415476,20934
1004.4,1.310583,415479,20322
1009.41,1.304966,414358,20531
1013.15,1.310023,412923,20223
1016.89,1.308767,411526,20213
1020.63,1.304383,409066,20296
1024.36,1.295110,406777,20618
1028.09,1.304574,404427,20057
1031.82,1.303447,401911,19984
1036.78,1.310296,398410,19500
1040.49,1.310901,396204,19365
1044.2,1.300453,394236,19738
1047.91,1.307955,392042,19292
1051.61,1.309766,389823,19103
1055.31,1.303581,388234,19298
1059,1.300223,387599,19416
1063.92,1.319767,386688,18518
1067.61,1.309948,386598,18937
1071.29,1.307373,387377,19088
1074.96,1.306062,388536,19203
1078.63,1.305458,389855,19295
1082.3,1.324212,391215,18544
1085.96,1.301179,393215,19654
1090.84,1.307667,396270,19513
1094.49,1.312865,398760,19402
1098.14,1.310963,400987,19596
1101.79,1.310318,403477,19747
1105.43,1.311788,406116,19809
1109.06,1.321958,407701,19426
1112.7,1.314830,409859,19852
1117.53,1.312114,412494,20105
1121.15,1.314088,414909,20131
1124.77,1.313724,416559,20228
1128.38,1.318727,418532,20091
1131.99,1.312935,419956,20430
1135.6,1.305526,421946,20880
1139.2,1.313756,423881,20582
1143.99,1.312795,426786,20769
1147.58,1.324937,428617,20283
1151.17,1.319664,431169,20653
1154.75,1.315967,433579,20946
1158.33,1.321331,436264,20817
1161.91,1.312953,439132,21362
1165.48,1.320350,442389,21157
1169.04,1.309843,446101,21857
1173.79,1.322854,451929,21489
1177.34,1.316883,456026,21984
1180.9,1.315003,461306,22335
1184.44,1.315454,467657,22619
1187.99,1.307817,473969,23331
1191.52,1.315006,479856,23233
1195.06,1.319406,487372,23359
1199.76,1.312790,497347,24203
1203.29,1.312682,504311,24548
1206.81,1.318164,511507,24586
1210.33,1.316009,519078,25074
1213.84,1.311556,527163,25727
1217.35,1.320660,534208,25530
1220.85,1.321642,540472,25771
1225.51,1.321690,549929,26219
1229.01,1.324328,556888,26390
1232.5,1.319284,562180,26952
1235.98,1.321472,567975,27093
1239.46,1.322333,574815,27365
1242.94,1.319497,582782,27926
1246.41,1.326224,591476,27907
1251.03,1.322093,604016,28771
1254.5,1.320890,612289,29246
1257.96,1.320986,619125,29566
1261.41,1.321104,624551,29817
1264.86,1.322672,629900,29964
1268.31,1.334717,634345,29350
1271.75,1.323253,638574,30336
1276.33,1.321669,642499,30634
1279.76,1.322211,645905,30758
1283.19,1.326514,648307,30568
1286.61,1.327135,650446,30625
1290.03,1.332205,652132,30348
1293.44,1.329256,653907,30638
1296.85,1.328089,655963,30817
1301.39,1.330516,657349,30710
1304.8,1.327554,657558,30930
1308.19,1.334180,658515,30506
1311.58,1.332071,658804,30668
1314.97,1.328218,659011,30951
1318.36,1.333522,658272,30541
1321.73,1.327917,658022,30926
1326.23,1.328955,657870,30845
1329.6,1.329646,656482,30731
1332.97,1.328234,654926,30758
1336.33,1.321771,653727,31162
1339.69,1.333107,652497,30302
1343.04,1.323699,649913,30843
1346.39,1.331290,647671,30204
1349.73,1.324577,645338,30564
1354.18,1.320830,641175,30630
1357.52,1.324725,638376,30224
1360.85,1.324051,635805,30149
1364.17,1.322573,633413,30138
1367.49,1.323563,631026,29956
1370.81,1.323618,628050,29811
1374.12,1.326199,625034,29492
1378.54,1.327601,620272,29173
1381.84,1.327796,616892,29001
1385.14,1.328035,613613,28831
1388.43,1.326299,611526,28848
1391.72,1.325821,610663,28839
1395.01,1.324478,610634,28927
1398.29,1.328384,611700,28718
1402.66,1.324640,614051,29078
1405.93,1.327911,616268,28964
1409.2,1.325447,617795,29201
1412.46,1.322103,618872,29478
1415.72,1.329865,619795,28999
1418.98,1.330071,620495,29018
1422.23,1.331099,621087,28977
1426.56,1.324593,621375,29428
1429.8,1.325944,621616,29348
1433.04,1.326524,622129,29333
1436.27,1.331781,621526,28952
1439.5,1.331312,621113,28964
1442.72,1.333116,620921,28835
1445.94,1.331127,620270,28937
1450.23,1.335743,618860,28566
1453.44,1.331594,617697,28786
1456.64,1.338042,616264,28296
1459.85,1.333067,614413,28536
1463.04,1.332933,612307,28447
1466.24,1.336554,610032,28106
1469.43,1.330132,607345,28399
1473.67,1.331361,603789,28153
1476.85,1.331331,601175,28033
1480.02,1.337620,597737,27472
1483.19,1.335942,594479,27428
1486.36,1.327120,591232,27838
1489.52,1.332232,587853,27355
1492.68,1.333912,583875,27065
1496.89,1.335057,578062,26725
1500.03,1.329248,574159,26902
1503.18,1.335311,570285,26350
1506.32,1.332120,565444,26319
1509.45,1.336742,560571,25816
1512.58,1.337918,555821,25528
1515.71,1.328947,550344,25804
1519.87,1.334512,543983,25181
1522.99,1.324501,538764,25521
1526.1,1.334611,533692,24699
1529.21,1.338828,527902,24195
1532.32,1.338252,521886,23951
1535.42,1.328417,515888,24218
1538.51,1.329434,509987,23885
1541.6,1.336177,503936,23238
1545.72,1.329317,494694,23175
1548.8,1.333573,488378,22656
1551.88,1.334201,481832,22320
1554.95,1.331957,474989,22117
1558.02,1.330944,467818,21834
1561.08,1.342408,460730,20943
1564.15,1.324820,454170,21498
1568.22,1.333461,444181,20611
1571.27,1.332078,436947,20340
1574.32,1.332858,429598,19962
1577.36,1.330578,422039,19714
1580.4,1.328943,414375,19429
1583.43,1.331227,406354,18953
1586.46,1.323434,398475,18922
1590.49,1.321164,388982,18568
1593.51,1.327763,380708,17899
1596.53,1.330767,372727,17403
1599.54,1.327215,365060,17185
1602.55,1.320739,357543,17084
1605.55,1.316635,349495,16858
1608.55,1.329129,341154,15989
1612.54,1.333247,330877,15361
1615.53,1.329780,322904,15111
1618.51,1.316627,315116,15200
1621.49,1.311644,307217,14990
1624.47,1.312701,299481,14577
1627.44,1.310760,292112,14282
1630.41,1.318369,284245,13656
1634.36,1.307799,274079,13492
1637.32,1.318419,266916,12822
1640.27,1.321324,259612,12388
1643.22,1.316558,251804,12148
1646.16,1.307058,244348,12049
1649.1,1.317680,236703,11390
1652.04,1.329567,228171,10683
1655.95,1.302298,215408,10739
1658.88,1.312229,204937,9986
1661.8,1.305806,193395,9564
1664.72,1.307182,179728,8860
1667.63,1.313965,163642,7942
1670.54,1.310306,146312,7161
1673.44,1.305964,128451,6350
1677.31,1.278559,105080,5533
1680.21,1.271963,88906,4753
1683.1,1.267476,75033,4053
1685.99,1.276830,63520,3358
1688.87,1.310793,53714,2626
1691.75,1.243162,45653,2608
1694.62,1.274733,39137,2079
1697.49,1.222183,33776,2025
1701.31,1.356793,28175,1239