File: ML/samples/unknown/Column 1_078492_20241121_170520.csv
Method:,Column 1,,
Host Date-Time:,21/11/24 @ 17:5:20,,
Header Version:,1,,
System Temp (C):,34.97,,
Detector Temp (C):,33.88,,
Humidity (%):,2.06,,
Lamp PD:,3800,,
Shift Vector Coefficients:,-10.5391,0.0761263,-0.000134223,,
Pixel to Wavelength Coefficients:,1775.68,-0.916766,-0.000235065,,
Serial Number:,5510004,,
Scan Config Name:,Column 1,,
Scan Config Type:,Slew,,
Section 1,,
Start wavelength (nm):,900,,
End wavelength (nm):,1700,,
Pattern Pixel Width (nm):,   7.03,,,,
Exposure (ms):,  0.635,,,,
Digital Resolution:,228,,
Num Repeats:,6,,
PGA Gain:,64,,
Total Measurement Time in sec:,  2.727,,
Wavelength (nm),Absorbance (AU),Reference Signal (unitless),Sample Signal (unitless)
901.51,1.303298,108485,5396
905.376,1.297060,121306,6121
909.237,1.301851,131909,6583
913.095,1.283330,143299,7463
916.948,1.316467,156982,7575
922.079,1.311478,179937,8783
925.923,1.324217,200504,9504
929.762,1.323526,222660,10571
933.597,1.312491,244426,11903
937.427,1.316320,263972,12742
941.254,1.318424,281845,13539
945.076,1.305186,297271,14722
950.165,1.298321,315605,15879
953.978,1.315226,328029,15874
957.786,1.304475,340470,16889
961.59,1.304492,352317,17476
965.389,1.309993,363056,17782
969.185,1.304374,373162,18515
972.976,1.312708,382632,18624
976.763,1.303370,391202,19455
981.806,1.301453,400190,19990
985.583,1.299906,406088,20357
989.355,1.301710,410162,20476
993.124,1.310546,412868,20196
996.888,1.306838,414263,20438
1000.65,1.308086,415476,20439
1004.4,1.310583,415479,20322
1009.41,1.303825,414358,20585
1013.15,1.309230,412923,20260
1016.89,1.310877,411526,20115
1020.63,1.303848,409066,20321
1024.36,1.300813,406777,20349
1028.09,1.305094,404427,20033
1031.82,1.309465,401911,19709
1036.78,1.318229,398410,19147
1040.49,1.319371,396204,18991
1044.2,1.309030,394236,19352
1047.91,1.307011,392042,19334
1051.61,1.305108,389823,19309
1055.31,1.318904,388234,18629
1059,1.308967,387599,19029
1063.92,1.313781,386688,18775
1067.61,1.311534,386598,18868
1071.29,1.298924,387377,19463
1074.96,1.318613,388536,18656
1078.63,1.313982,389855,18920
1082.3,1.307940,391215,19252
1085.96,1.320103,393215,18816
1090.84,1.307890,396270,19503
1094.49,1.320179,398760,19078
1098.14,1.317956,400987,19283
1101.79,1.313784,403477,19590
1105.43,1.310824,406116,19853
1109.06,1.316869,407701,19655
1112.7,1.317023,409859,19752
1117.53,1.317263,412494,19868
1121.15,1.320543,414909,19834
1124.77,1.315445,416559,20148
1128.38,1.315432,418532,20244
1131.99,1.318390,419956,20175
1135.6,1.323424,421946,20037
1139.2,1.316806,423881,20438
1143.99,1.316364,426786,20599
1147.58,1.316645,428617,20674
1151.17,1.319349,431169,20668
1154.75,1.316444,433579,20923
1158.33,1.318607,436264,20948
1161.91,1.320169,439132,21010
1165.48,1.316569,442389,21342
1169.04,1.307959,446101,21952
1173.79,1.323319,451929,21466
1177.34,1.311386,456026,22264
1180.9,1.316444,461306,22261
1184.44,1.318576,467657,22457
1187.99,1.319456,473969,22714
1191.52,1.321124,479856,22908
1195.06,1.312728,487372,23721
1199.76,1.319882,497347,23811
1203.29,1.322922,504311,23976
1206.81,1.322121,511507,24363
1210.33,1.315040,519078,25130
1213.84,1.317984,527163,25349
1217.35,1.321255,534208,25495
1220.85,1.338970,540472,24763
1225.51,1.321144,549929,26252
1229.01,1.318168,556888,26767
1232.5,1.327220,562180,26464
1235.98,1.321985,567975,27061
1239.46,1.325470,574815,27168
1242.94,1.317899,582782,28029
1246.41,1.325726,591476,27939
1251.03,1.324424,604016,28617
1254.5,1.326450,612289,28874
1257.96,1.325652,619125,29250
1261.41,1.327945,624551,29351
1264.86,1.325055,629900,29800
1268.31,1.326204,634345,29931
1271.75,1.328742,638574,29955
1276.33,1.325471,642499,30367
1279.76,1.324405,645905,30603
1283.19,1.324770,648307,30691
1286.61,1.324590,650446,30805
1290.03,1.325334,652132,30832
1293.44,1.332100,653907,30438
1296.85,1.332039,655963,30538
1301.39,1.329499,657349,30782
1304.8,1.330782,657558,30701
1308.19,1.326910,658515,31021
1311.58,1.328671,658804,30909
1314.97,1.329201,659011,30881
1318.36,1.334932,658272,30442
1321.73,1.335595,658022,30384
1326.23,1.330578,657870,30730
1329.6,1.336096,656482,30278
1332.97,1.330045,654926,30630
1336.33,1.333266,653727,30348
1339.69,1.326465,652497,30769
1343.04,1.324121,649913,30813
1346.39,1.329668,647671,30317
1349.73,1.328015,645338,30323
1354.18,1.328800,641175,30073
1357.52,1.332159,638376,29711
1360.85,1.326043,635805,30011
1364.17,1.326190,633413,29888
1367.49,1.328990,631026,29584
1370.81,1.326776,628050,29595
1374.12,1.328710,625034,29322
1378.54,1.327303,620272,29193
1381.84,1.328216,616892,28973
1385.14,1.327433,613613,28871
1388.43,1.330094,611526,28597
1391.72,1.330850,610663,28507
1395.01,1.326087,610634,28820
1398.29,1.320962,611700,29213
1402.66,1.335391,614051,28367
1405.93,1.321940,616268,29365
1409.2,1.327519,617795,29062
1412.46,1.329308,618872,28993
1415.72,1.334003,619795,28724
1418.98,1.327861,620495,29166
1422.23,1.333248,621087,28834
1426.56,1.335442,621375,28702
1429.8,1.330466,621616,29044
1433.04,1.335227,622129,28751
1436.27,1.333780,621526,28819
1439.5,1.331687,621113,28939
1442.72,1.333418,620921,28815
1445.94,1.332315,620270,28858
1450.23,1.334847,618860,28625
1453.44,1.326972,617697,29094
1456.64,1.327818,616264,28970
1459.85,1.335555,614413,28373
1463.04,1.333942,612307,28381
1466.24,1.326005,610032,28797
1469.43,1.330515,607345,28374
1473.67,1.332442,603789,28083
1476.85,1.331657,601175,28012
1480.02,1.333764,597737,27717
1483.19,1.336655,594479,27383
1486.36,1.335389,591232,27313
1489.52,1.330647,587853,27455
1492.68,1.341406,583875,26602
1496.89,1.337370,578062,26583
1500.03,1.333759,574159,26624
1503.18,1.334208,570285,26417
1506.32,1.341359,565444,25765
1509.45,1.339120,560571,25675
1512.58,1.336034,555821,25639
1515.71,1.340649,550344,25118
1519.87,1.335808,543983,25106
1522.99,1.338965,538764,24685
1526.1,1.327392,533692,25113
1529.21,1.324370,527902,25014
1532.32,1.336750,521886,24034
1535.42,1.333976,515888,23910
1538.51,1.333783,509987,23647
1541.6,1.334312,503936,23338
1545.72,1.340344,494694,22594
1548.8,1.332864,488378,22693
1551.88,1.333540,481832,22354
1554.95,1.332114,474989,22109
1558.02,1.335744,467818,21594
1561.08,1.331331,460730,21484
1564.15,1.330616,454170,21213
1568.22,1.323092,444181,21109
1571.27,1.330564,436947,20411
1574.32,1.331381,429598,20030
1577.36,1.331460,422039,19674
1580.4,1.329614,414375,19399
1583.43,1.333202,406354,18867
1586.46,1.325712,398475,18823
1590.49,1.335067,388982,17983
1593.51,1.332177,380708,17718
1596.53,1.325903,372727,17599
1599.54,1.322289,365060,17381
1602.55,1.329573,357543,16740
1605.55,1.314271,349495,16950
1608.55,1.327719,341154,16041
1612.54,1.319391,330877,15859
1615.53,1.329522,322904,15120
1618.51,1.313098,315116,15324
1621.49,1.305687,307217,15197
1624.47,1.325766,299481,14145
1627.44,1.315776,292112,14118
1630.41,1.310866,284245,13894
1634.36,1.318587,274079,13161
1637.32,1.315146,266916,12919
1640.27,1.309121,259612,12741
1643.22,1.322896,251804,11972
1646.16,1.316053,244348,11802
1649.1,1.308325,236703,11638
1652.04,1.306375,228171,11269
1655.95,1.312818,215408,10482
1658.88,1.289646,204937,10519
1661.8,1.274833,193395,10271
1664.72,1.285946,179728,9304
1667.63,1.269560,163642,8797
1670.54,1.244166,146312,8339
1673.44,1.216810,128451,7797
1677.31,1.215476,105080,6398
1680.21,1.161612,88906,6128
1683.1,1.159583,75033,5196
1685.99,1.158965,63520,4405
1688.87,1.187387,53714,3489
1691.75,1.124302,45653,3429
1694.62,1.223743,39137,2338
1697.49,1.201249,33776,2125
1701.31,1.166563,28175,1920