File: ML/samples/unknown/Column 1_078589_20241121_171007.csv
Method:,Column 1,,
Host Date-Time:,21/11/24 @ 17:10:7,,
Header Version:,1,,
System Temp (C):,36.61,,
Detector Temp (C):,34.75,,
Humidity (%):,1.17,,
Lamp PD:,3798,,
Shift Vector Coefficients:,-10.5391,0.0761263,-0.000134223,,
Pixel to Wavelength Coefficients:,1775.68,-0.916766,-0.000235065,,
Serial Number:,5510004,,
Scan Config Name:,Column 1,,
Scan Config Type:,Slew,,
Section 1,,
Start wavelength (nm):,900,,
End wavelength (nm):,1700,,
Pattern Pixel Width (nm):,   7.03,,,,
Exposure (ms):,  0.635,,,,
Digital Resolution:,228,,
Num Repeats:,6,,
PGA Gain:,64,,
Total Measurement Time in sec:,  2.724,,
Wavelength (nm),Absorbance (AU),Reference Signal (unitless),Sample Signal (unitless)
901.51,1.304668,108485,5379
905.376,1.298766,121306,6097
909.237,1.298368,131909,6636
913.095,1.318150,143299,6888
916.948,1.320962,156982,7497
922.079,1.313212,179937,8748
925.923,1.328487,200504,9411
929.762,1.331403,222660,10381
933.597,1.325866,244426,11542
937.427,1.329048,263972,12374
941.254,1.318552,281845,13535
945.076,1.317574,297271,14308
950.165,1.304713,315605,15647
953.978,1.302580,328029,16343
957.786,1.314964,340470,16486
961.59,1.301470,352317,17598
965.389,1.317035,363056,17496
969.185,1.300637,373162,18675
972.976,1.318011,382632,18398
976.763,1.304286,391202,19414
981.806,1.304659,400190,19843
985.583,1.305446,406088,20099
989.355,1.306380,410162,20257
993.124,1.304524,412868,20478
996.888,1.303430,414263,20599
1000.65,1.302093,415476,20723
1004.4,1.306181,415479,20529
1009.41,1.306534,414358,20457
1013.15,1.300844,412923,20655
1016.89,1.310575,411526,20129
1020.63,1.306722,409066,20187
1024.36,1.299769,406777,20398
1028.09,1.307333,404427,19930
1031.82,1.314229,401911,19494
1036.78,1.311612,398410,19441
1040.49,1.313082,396204,19268
1044.2,1.305922,394236,19491
1047.91,1.309783,392042,19211
1051.61,1.306279,389823,19257
1055.31,1.311645,388234,18943
1059,1.307713,387599,19084
1063.92,1.299783,386688,19390
1067.61,1.305704,386598,19123
1071.29,1.313583,387377,18817
1074.96,1.312235,388536,18932
1078.63,1.313936,389855,18922
1082.3,1.308007,391215,19249
1085.96,1.306314,393215,19423
1090.84,1.316640,396270,19114
1094.49,1.321707,398760,19011
1098.14,1.319422,400987,19218
1101.79,1.314317,403477,19566
1105.43,1.313193,406116,19745
1109.06,1.323010,407701,19379
1112.7,1.312779,409859,19946
1117.53,1.308714,412494,20263
1121.15,1.306665,414909,20478
1124.77,1.318820,416559,19992
1128.38,1.317842,418532,20132
1131.99,1.311026,419956,20520
1135.6,1.312678,421946,20539
1139.2,1.314770,423881,20534
1143.99,1.320410,426786,20408
1147.58,1.324702,428617,20294
1151.17,1.316104,431169,20823
1154.75,1.318442,433579,20827
1158.33,1.315446,436264,21101
1161.91,1.309894,439132,21513
1165.48,1.309705,442389,21682
1169.04,1.312114,446101,21743
1173.79,1.315917,451929,21835
1177.34,1.313028,456026,22180
1180.9,1.312966,461306,22440
1184.44,1.312908,467657,22752
1187.99,1.320758,473969,22646
1191.52,1.312025,479856,23393
1195.06,1.321961,487372,23222
1199.76,1.318080,497347,23910
1203.29,1.322723,504311,23987
1206.81,1.316788,511507,24664
1210.33,1.319400,519078,24879
1213.84,1.321252,527163,25159
1217.35,1.317490,534208,25717
1220.85,1.317015,540472,26047
1225.51,1.327728,549929,25857
1229.01,1.316613,556888,26863
1232.5,1.324374,562180,26638
1235.98,1.318692,567975,27267
1239.46,1.323397,574815,27298
1242.94,1.315904,582782,28158
1246.41,1.322490,591476,28148
1251.03,1.323242,604016,28695
1254.5,1.324514,612289,29003
1257.96,1.323741,619125,29379
1261.41,1.322344,624551,29732
1264.86,1.320100,629900,30142
1268.31,1.320983,634345,30293
1271.75,1.318299,638574,30684
1276.33,1.322904,642499,30547
1279.76,1.325172,645905,30549
1283.19,1.323992,648307,30746
1286.61,1.329838,650446,30435
1290.03,1.326731,652132,30733
1293.44,1.323315,653907,31060
1296.85,1.326977,655963,30896
1301.39,1.326560,657349,30991
1304.8,1.328341,657558,30874
1308.19,1.325777,658515,31102
1311.58,1.329783,658804,30830
1314.97,1.332221,659011,30667
1318.36,1.331267,658272,30700
1321.73,1.327804,658022,30934
1326.23,1.328857,657870,30852
1329.6,1.332581,656482,30524
1332.97,1.325840,654926,30928
1336.33,1.331339,653727,30483
1339.69,1.327044,652497,30728
1343.04,1.328969,649913,30471
1346.39,1.320161,647671,30988
1349.73,1.321914,645338,30752
1354.18,1.327272,641175,30179
1357.52,1.325876,638376,30144
1360.85,1.328278,635805,29857
1364.17,1.322097,633413,30171
1367.49,1.323824,631026,29938
1370.81,1.322992,628050,29854
1374.12,1.319928,625034,29921
1378.54,1.327140,620272,29204
1381.84,1.324469,616892,29224
1385.14,1.328985,613613,28768
1388.43,1.318378,611526,29379
1391.72,1.325671,610663,28849
1395.01,1.330312,610634,28541
1398.29,1.320873,611700,29219
1402.66,1.326301,614051,28967
1405.93,1.330754,616268,28775
1409.2,1.329436,617795,28934
1412.46,1.326456,618872,29184
1415.72,1.335836,619795,28603
1418.98,1.330176,620495,29011
1422.23,1.326374,621087,29294
1426.56,1.330492,621375,29031
1429.8,1.331289,621616,28989
1433.04,1.333133,622129,28890
1436.27,1.329566,621526,29100
1439.5,1.330653,621113,29008
1442.72,1.331583,620921,28937
1445.94,1.334170,620270,28735
1450.23,1.331206,618860,28866
1453.44,1.326927,617697,29097
1456.64,1.332627,616264,28651
1459.85,1.334119,614413,28467
1463.04,1.332719,612307,28461
1466.24,1.324996,610032,28864
1469.43,1.332048,607345,28274
1473.67,1.326132,603789,28494
1476.85,1.330480,601175,28088
1480.02,1.331857,597737,27839
1483.19,1.335120,594479,27480
1486.36,1.330959,591232,27593
1489.52,1.332327,587853,27349
1492.68,1.328997,583875,27373
1496.89,1.334569,578062,26755
1500.03,1.331076,574159,26789
1503.18,1.331782,570285,26565
1506.32,1.334868,565444,26153
1509.45,1.331192,560571,26148
1512.58,1.328494,555821,26088
1515.71,1.329570,550344,25767
1519.87,1.336847,543983,25046
1522.99,1.340781,538764,24582
1526.1,1.334207,533692,24722
1529.21,1.343266,527902,23949
1532.32,1.330881,521886,24361
1535.42,1.336709,515888,23760
1538.51,1.334923,509987,23585
1541.6,1.336382,503936,23227
1545.72,1.331685,494694,23049
1548.8,1.331985,488378,22739
1551.88,1.331409,481832,22464
1554.95,1.326921,474989,22375
1558.02,1.336690,467818,21547
1561.08,1.335026,460730,21302
1564.15,1.331929,454170,21149
1568.22,1.333040,444181,20631
1571.27,1.327617,436947,20550
1574.32,1.334122,429598,19904
1577.36,1.335630,422039,19486
1580.4,1.329077,414375,19423
1583.43,1.330585,406354,18981
1586.46,1.332901,398475,18514
1590.49,1.336446,388982,17926
1593.51,1.326286,380708,17960
1596.53,1.330268,372727,17423
1599.54,1.325323,365060,17260
1602.55,1.331210,357543,16677
1605.55,1.330668,349495,16322
1608.55,1.322980,341154,16217
1612.54,1.312976,330877,16095
1615.53,1.317343,322904,15550
1618.51,1.322524,315116,14995
1621.49,1.318712,307217,14748
1624.47,1.331671,299481,13954
1627.44,1.313445,292112,14194
1630.41,1.316244,284245,13723
1634.36,1.311842,274079,13367
1637.32,1.311664,266916,13023
1640.27,1.313059,259612,12626
1643.22,1.304709,251804,12484
1646.16,1.312681,244348,11894
1649.1,1.317718,236703,11389
1652.04,1.312507,228171,11111
1655.95,1.304853,215408,10676
1658.88,1.276311,204937,10847
1661.8,1.291776,193395,9878
1664.72,1.262062,179728,9830
1667.63,1.258640,163642,9021
1670.54,1.228766,146312,8640
1673.44,1.226270,128451,7629
1677.31,1.177789,105080,6978
1680.21,1.143974,88906,6382
1683.1,1.177413,75033,4987
1685.99,1.178422,63520,4212
1688.87,1.167081,53714,3656
1691.75,1.123543,45653,3435
1694.62,1.185877,39137,2551
1697.49,1.194557,33776,2158
1701.31,1.175937,28175,1879