File: ML/samples/unknown/Column 1_078144_20241121_164738.csv
Method:,Column 1,,
Host Date-Time:,21/11/24 @ 16:47:38,,
Header Version:,1,,
System Temp (C):,33.14,,
Detector Temp (C):,29.08,,
Humidity (%):,3.32,,
Lamp PD:,3805,,
Shift Vector Coefficients:,-10.5391,0.0761263,-0.000134223,,
Pixel to Wavelength Coefficients:,1775.68,-0.916766,-0.000235065,,
Serial Number:,5510004,,
Scan Config Name:,Column 1,,
Scan Config Type:,Slew,,
Section 1,,
Start wavelength (nm):,900,,
End wavelength (nm):,1700,,
Pattern Pixel Width (nm):,   7.03,,,,
Exposure (ms):,  0.635,,,,
Digital Resolution:,228,,
Num Repeats:,6,,
PGA Gain:,64,,
Total Measurement Time in sec:,  2.722,,
Wavelength (nm),Absorbance (AU),Reference Signal (unitless),Sample Signal (unitless)
901.51,1.297224,108485,5472
905.376,1.304863,121306,6012
909.237,1.310311,131909,6456
913.095,1.285313,143299,7429
916.948,1.300317,156982,7862
922.079,1.336828,179937,8285
925.923,1.316337,200504,9678
929.762,1.313254,222660,10824
933.597,1.307954,244426,12028
937.427,1.304320,263972,13099
941.254,1.326714,281845,13283
945.076,1.304596,297271,14742
950.165,1.313120,315605,15347
953.978,1.312118,328029,15988
957.786,1.306098,340470,16826
961.59,1.308787,352317,17304
965.389,1.318253,363056,17447
969.185,1.307812,373162,18369
972.976,1.314625,382632,18542
976.763,1.312005,391202,19072
981.806,1.299589,400190,20076
985.583,1.303699,406088,20180
989.355,1.297993,410162,20652
993.124,1.304481,412868,20480
996.888,1.305035,414263,20523
1000.65,1.305628,415476,20555
1004.4,1.304492,415479,20609
1009.41,1.311294,414358,20234
1013.15,1.309830,412923,20232
1016.89,1.311331,411526,20094
1020.63,1.315370,409066,19789
1024.36,1.304629,406777,20171
1028.09,1.304812,404427,20046
1031.82,1.312051,401911,19592
1036.78,1.311612,398410,19441
1040.49,1.303453,396204,19700
1044.2,1.299157,394236,19797
1047.91,1.314373,392042,19009
1051.61,1.305130,389823,19308
1055.31,1.311003,388234,18971
1059,1.304200,387599,19239
1063.92,1.315055,386688,18720
1067.61,1.320981,386598,18462
1071.29,1.315179,387377,18748
1074.96,1.306719,388536,19174
1078.63,1.317809,389855,18754
1082.3,1.318466,391215,18791
1085.96,1.319227,393215,18854
1090.84,1.314034,396270,19229
1094.49,1.308810,398760,19584
1098.14,1.311162,400987,19587
1101.79,1.312235,403477,19660
1105.43,1.313259,406116,19742
1109.06,1.314599,407701,19758
1112.7,1.324497,409859,19415
1117.53,1.311229,412494,20146
1121.15,1.317945,414909,19953
1124.77,1.315466,416559,20147
1128.38,1.320460,418532,20011
1131.99,1.312086,419956,20470
1135.6,1.308532,421946,20736
1139.2,1.320369,423881,20271
1143.99,1.315017,426786,20663
1147.58,1.325023,428617,20279
1151.17,1.325635,431169,20371
1154.75,1.317379,433579,20878
1158.33,1.319873,436264,20887
1161.91,1.311350,439132,21441
1165.48,1.313972,442389,21470
1169.04,1.314718,446101,21613
1173.79,1.314765,451929,21893
1177.34,1.306904,456026,22495
1180.9,1.315373,461306,22316
1184.44,1.318324,467657,22470
1187.99,1.316997,473969,22843
1191.52,1.317367,479856,23107
1195.06,1.316220,487372,23531
1199.76,1.325721,497347,23493
1203.29,1.321385,504311,24061
1206.81,1.322210,511507,24358
1210.33,1.315057,519078,25129
1213.84,1.324492,527163,24972
1217.35,1.331441,534208,24904
1220.85,1.327120,540472,25448
1225.51,1.321210,549929,26248
1229.01,1.328031,556888,26166
1232.5,1.325745,562180,26554
1235.98,1.320016,567975,27184
1239.46,1.324321,574815,27240
1242.94,1.324440,582782,27610
1246.41,1.321734,591476,28197
1251.03,1.324212,604016,28631
1254.5,1.327941,612289,28775
1257.96,1.328393,619125,29066
1261.41,1.322066,624551,29751
1264.86,1.329582,629900,29491
1268.31,1.328532,634345,29771
1271.75,1.327410,638574,30047
1276.33,1.329912,642499,30058
1279.76,1.326995,645905,30421
1283.19,1.328921,648307,30399
1286.61,1.330281,650446,30404
1290.03,1.326688,652132,30736
1293.44,1.326373,653907,30842
1296.85,1.338212,655963,30107
1301.39,1.327922,657349,30894
1304.8,1.332426,657558,30585
1308.19,1.329818,658515,30814
1311.58,1.331180,658804,30731
1314.97,1.330963,659011,30756
1318.36,1.326792,658272,31018
1321.73,1.328619,658022,30876
1326.23,1.334424,657870,30459
1329.6,1.328785,656482,30792
1332.97,1.324662,654926,31012
1336.33,1.334183,653727,30284
1339.69,1.333623,652497,30266
1343.04,1.329682,649913,30421
1346.39,1.327453,647671,30472
1349.73,1.327443,645338,30363
1354.18,1.329494,641175,30025
1357.52,1.326972,638376,30068
1360.85,1.327972,635805,29878
1364.17,1.324479,633413,30006
1367.49,1.326195,631026,29775
1370.81,1.331690,628050,29262
1374.12,1.325229,625034,29558
1378.54,1.323866,620272,29425
1381.84,1.329973,616892,28856
1385.14,1.327990,613613,28834
1388.43,1.325773,611526,28883
1391.72,1.328041,610663,28692
1395.01,1.323069,610634,29021
1398.29,1.328520,611700,28709
1402.66,1.328902,614051,28794
1405.93,1.330603,616268,28785
1409.2,1.324006,617795,29298
1412.46,1.332933,618872,28752
1415.72,1.329536,619795,29021
1418.98,1.331645,620495,28913
1422.23,1.331984,621087,28918
1426.56,1.335336,621375,28709
1429.8,1.333301,621616,28855
1433.04,1.331632,622129,28990
1436.27,1.340569,621526,28372
1439.5,1.332032,621113,28916
1442.72,1.336716,620921,28597
1445.94,1.330977,620270,28947
1450.23,1.330154,618860,28936
1453.44,1.337182,617697,28418
1456.64,1.333629,616264,28585
1459.85,1.332961,614413,28543
1463.04,1.333666,612307,28399
1466.24,1.333397,610032,28311
1469.43,1.328728,607345,28491
1473.67,1.334876,603789,27926
1476.85,1.332572,601175,27953
1480.02,1.328965,597737,28025
1483.19,1.335325,594479,27467
1486.36,1.335373,591232,27314
1489.52,1.334684,587853,27201
1492.68,1.341226,583875,26613
1496.89,1.341144,578062,26353
1500.03,1.331141,574159,26785
1503.18,1.340735,570285,26023
1506.32,1.337483,565444,25996
1509.45,1.338681,560571,25701
1512.58,1.337833,555821,25533
1515.71,1.336211,550344,25376
1519.87,1.331813,543983,25338
1522.99,1.334224,538764,24956
1526.1,1.336056,533692,24617
1529.21,1.338415,527902,24218
1532.32,1.333778,521886,24199
1535.42,1.337020,515888,23743
1538.51,1.340259,509987,23297
1541.6,1.340704,503936,22997
1545.72,1.334312,494694,22910
1548.8,1.333822,488378,22643
1551.88,1.336797,481832,22187
1554.95,1.330624,474989,22185
1558.02,1.332578,467818,21752
1561.08,1.337275,460730,21192
1564.15,1.334111,454170,21043
1568.22,1.336209,444181,20481
1571.27,1.342843,436947,19842
1574.32,1.327260,429598,20221
1577.36,1.333207,422039,19595
1580.4,1.325448,414375,19586
1583.43,1.331479,406354,18942
1586.46,1.333981,398475,18468
1590.49,1.323604,388982,18464
1593.51,1.332349,380708,17711
1596.53,1.329421,372727,17457
1599.54,1.322815,365060,17360
1602.55,1.323237,357543,16986
1605.55,1.318287,349495,16794
1608.55,1.324832,341154,16148
1612.54,1.323380,330877,15714
1615.53,1.319864,322904,15460
1618.51,1.322321,315116,15002
1621.49,1.314084,307217,14906
1624.47,1.311927,299481,14603
1627.44,1.307489,292112,14390
1630.41,1.323070,284245,13509
1634.36,1.319082,274079,13146
1637.32,1.311664,266916,13023
1640.27,1.304881,259612,12866
1643.22,1.315843,251804,12168
1646.16,1.316679,244348,11785
1649.1,1.311396,236703,11556
1652.04,1.300024,228171,11435
1655.95,1.306810,215408,10628
1658.88,1.282115,204937,10703
1661.8,1.289758,193395,9924
1664.72,1.297631,179728,9057
1667.63,1.279144,163642,8605
1670.54,1.284524,146312,7599
1673.44,1.289654,128451,6593
1677.31,1.273177,105080,5602
1680.21,1.259445,88906,4892
1683.1,1.256263,75033,4159
1685.99,1.250364,63520,3569
1688.87,1.246073,53714,3048
1691.75,1.266421,45653,2472
1694.62,1.258939,39137,2156
1697.49,1.234583,33776,1968
1701.31,1.191945,28175,1811