File: ML/samples/unknown/Column 1_078506_20241121_170601.csv
Method:,Column 1,,
Host Date-Time:,21/11/24 @ 17:6:1,,
Header Version:,1,,
System Temp (C):,34.49,,
Detector Temp (C):,33.85,,
Humidity (%):,1.86,,
Lamp PD:,3800,,
Shift Vector Coefficients:,-10.5391,0.0761263,-0.000134223,,
Pixel to Wavelength Coefficients:,1775.68,-0.916766,-0.000235065,,
Serial Number:,5510004,,
Scan Config Name:,Column 1,,
Scan Config Type:,Slew,,
Section 1,,
Start wavelength (nm):,900,,
End wavelength (nm):,1700,,
Pattern Pixel Width (nm):,   7.03,,,,
Exposure (ms):,  0.635,,,,
Digital Resolution:,228,,
Num Repeats:,6,,
PGA Gain:,64,,
Total Measurement Time in sec:,  2.725,,
Wavelength (nm),Absorbance (AU),Reference Signal (unitless),Sample Signal (unitless)
901.51,1.309213,108485,5323
905.376,1.308636,121306,5960
909.237,1.309975,131909,6461
913.095,1.317142,143299,6904
916.948,1.306324,156982,7754
922.079,1.310687,179937,8799
925.923,1.342509,200504,9112
929.762,1.325874,222660,10514
933.597,1.335723,244426,11283
937.427,1.320946,263972,12607
941.254,1.313068,281845,13707
945.076,1.312624,297271,14472
950.165,1.308336,315605,15517
953.978,1.319736,328029,15710
957.786,1.313333,340470,16548
961.59,1.315795,352317,17027
965.389,1.311093,363056,17737
969.185,1.306749,373162,18414
972.976,1.308693,382632,18797
976.763,1.313945,391202,18987
981.806,1.314263,400190,19409
985.583,1.301552,406088,20280
989.355,1.312469,410162,19975
993.124,1.302197,412868,20588
996.888,1.309652,414263,20306
1000.65,1.308108,415476,20438
1004.4,1.316132,415479,20064
1009.41,1.304226,414358,20566
1013.15,1.301918,412923,20604
1016.89,1.312933,411526,20020
1020.63,1.313508,409066,19874
1024.36,1.320124,406777,19464
1028.09,1.311735,404427,19729
1031.82,1.308651,401911,19746
1036.78,1.308274,398410,19591
1040.49,1.306617,396204,19557
1044.2,1.305099,394236,19528
1047.91,1.314328,392042,19011
1051.61,1.307046,389823,19223
1055.31,1.308948,388234,19061
1059,1.304426,387599,19229
1063.92,1.310600,386688,18913
1067.61,1.315697,386598,18688
1071.29,1.307647,387377,19076
1074.96,1.312924,388536,18902
1078.63,1.315984,389855,18833
1082.3,1.313708,391215,18998
1085.96,1.304640,393215,19498
1090.84,1.320336,396270,18952
1094.49,1.319951,398760,19088
1098.14,1.327358,400987,18870
1101.79,1.315962,403477,19492
1105.43,1.322553,406116,19324
1109.06,1.322249,407701,19413
1112.7,1.325124,409859,19387
1117.53,1.314431,412494,19998
1121.15,1.317640,414909,19967
1124.77,1.322179,416559,19838
1128.38,1.318922,418532,20082
1131.99,1.314383,419956,20362
1135.6,1.314818,421946,20438
1139.2,1.316572,423881,20449
1143.99,1.317864,426786,20528
1147.58,1.313568,428617,20821
1151.17,1.318048,431169,20730
1154.75,1.315139,433579,20986
1158.33,1.321290,436264,20819
1161.91,1.315809,439132,21222
1165.48,1.319059,442389,21220
1169.04,1.326759,446101,21022
1173.79,1.316873,451929,21787
1177.34,1.322390,456026,21707
1180.9,1.318067,461306,22178
1184.44,1.321058,467657,22329
1187.99,1.318520,473969,22763
1191.52,1.320101,479856,22962
1195.06,1.319760,487372,23340
1199.76,1.319955,497347,23807
1203.29,1.326980,504311,23753
1206.81,1.319934,511507,24486
1210.33,1.325783,519078,24516
1213.84,1.323658,527163,25020
1217.35,1.326206,534208,25206
1220.85,1.326216,540472,25501
1225.51,1.320913,549929,26266
1229.01,1.327748,556888,26183
1232.5,1.328749,562180,26371
1235.98,1.318421,567975,27284
1239.46,1.318179,574815,27628
1242.94,1.325290,582782,27556
1246.41,1.327627,591476,27817
1251.03,1.320090,604016,28904
1254.5,1.324708,612289,28990
1257.96,1.326991,619125,29160
1261.41,1.333065,624551,29007
1264.86,1.329347,629900,29507
1268.31,1.325045,634345,30011
1271.75,1.326616,638574,30102
1276.33,1.326702,642499,30281
1279.76,1.327895,645905,30358
1283.19,1.331659,648307,30208
1286.61,1.323872,650446,30856
1290.03,1.326674,652132,30737
1293.44,1.327756,653907,30744
1296.85,1.319715,655963,31417
1301.39,1.327051,657349,30956
1304.8,1.335018,657558,30403
1308.19,1.334950,658515,30452
1311.58,1.332723,658804,30622
1314.97,1.325783,659011,31125
1318.36,1.334561,658272,30468
1321.73,1.330240,658022,30761
1326.23,1.331993,657870,30630
1329.6,1.330821,656482,30648
1332.97,1.330513,654926,30597
1336.33,1.329207,653727,30633
1339.69,1.328673,652497,30613
1343.04,1.330410,649913,30370
1346.39,1.330715,647671,30244
1349.73,1.329895,645338,30192
1354.18,1.327646,641175,30153
1357.52,1.331254,638376,29773
1360.85,1.327711,635805,29896
1364.17,1.331071,633413,29554
1367.49,1.332114,631026,29372
1370.81,1.333967,628050,29109
1374.12,1.327896,625034,29377
1378.54,1.331850,620272,28889
1381.84,1.326092,616892,29115
1385.14,1.328668,613613,28789
1388.43,1.328427,611526,28707
1391.72,1.330820,610663,28509
1395.01,1.326208,610634,28812
1398.29,1.333128,611700,28406
1402.66,1.328089,614051,28848
1405.93,1.329037,616268,28889
1409.2,1.327116,617795,29089
1412.46,1.339431,618872,28325
1415.72,1.330390,619795,28964
1418.98,1.329428,620495,29061
1422.23,1.333338,621087,28828
1426.56,1.333780,621375,28812
1429.8,1.331259,621616,28991
1433.04,1.326406,622129,29341
1436.27,1.335577,621526,28700
1439.5,1.331237,621113,28969
1442.72,1.332139,620921,28900
1445.94,1.334457,620270,28716
1450.23,1.330559,618860,28909
1453.44,1.338314,617697,28344
1456.64,1.334267,616264,28543
1459.85,1.334348,614413,28452
1463.04,1.338928,612307,28057
1466.24,1.330477,610032,28502
1469.43,1.330377,607345,28383
1473.67,1.333092,603789,28041
1476.85,1.341837,601175,27363
1480.02,1.334391,597737,27677
1483.19,1.335389,594479,27463
1486.36,1.341538,591232,26929
1489.52,1.333791,587853,27257
1492.68,1.333190,583875,27110
1496.89,1.341524,578062,26330
1500.03,1.342292,574159,26106
1503.18,1.339751,570285,26082
1506.32,1.333393,565444,26242
1509.45,1.330031,560571,26218
1512.58,1.338037,555821,25521
1515.71,1.339786,550344,25168
1519.87,1.334409,543983,25187
1522.99,1.339846,538764,24635
1526.1,1.330638,533692,24926
1529.21,1.335876,527902,24360
1532.32,1.329066,521886,24463
1535.42,1.336892,515888,23750
1538.51,1.331694,509987,23761
1541.6,1.332362,503936,23443
1545.72,1.328082,494694,23241
1548.8,1.334840,488378,22590
1551.88,1.334143,481832,22323
1554.95,1.329100,474989,22263
1558.02,1.328069,467818,21979
1561.08,1.330766,460730,21512
1564.15,1.330391,454170,21224
1568.22,1.331191,444181,20719
1571.27,1.336758,436947,20122
1574.32,1.335586,429598,19837
1577.36,1.332964,422039,19606
1580.4,1.329928,414375,19385
1583.43,1.338365,406354,18644
1586.46,1.324629,398475,18870
1590.49,1.332563,388982,18087
1593.51,1.331173,380708,17759
1596.53,1.321215,372727,17790
1599.54,1.325022,365060,17272
1602.55,1.323928,357543,16959
1605.55,1.326747,349495,16470
1608.55,1.321109,341154,16287
1612.54,1.334862,330877,15304
1615.53,1.325121,322904,15274
1618.51,1.331567,315116,14686
1621.49,1.322290,307217,14627
1624.47,1.318399,299481,14387
1627.44,1.315992,292112,14111
1630.41,1.323681,284245,13490
1634.36,1.316283,274079,13231
1637.32,1.316189,266916,12888
1640.27,1.308032,259612,12773
1643.22,1.305370,251804,12465
1646.16,1.320640,244348,11678
1649.1,1.310045,236703,11592
1652.04,1.316237,228171,11016
1655.95,1.294443,215408,10935
1658.88,1.307901,204937,10086
1661.8,1.288404,193395,9955
1664.72,1.271847,179728,9611
1667.63,1.266020,163642,8869
1670.54,1.259916,146312,8042
1673.44,1.224339,128451,7663
1677.31,1.217995,105080,6361
1680.21,1.192523,88906,5707
1683.1,1.155590,75033,5244
1685.99,1.209292,63520,3923
1688.87,1.186516,53714,3496
1691.75,1.204015,45653,2854
1694.62,1.200594,39137,2466
1697.49,1.220685,33776,2032
1701.31,1.191945,28175,1811