File: ML/samples/unknown/Column 1_078573_20241121_170920.csv
Method:,Column 1,,
Host Date-Time:,21/11/24 @ 17:9:20,,
Header Version:,1,,
System Temp (C):,36.22,,
Detector Temp (C):,34.54,,
Humidity (%):,1.17,,
Lamp PD:,3799,,
Shift Vector Coefficients:,-10.5391,0.0761263,-0.000134223,,
Pixel to Wavelength Coefficients:,1775.68,-0.916766,-0.000235065,,
Serial Number:,5510004,,
Scan Config Name:,Column 1,,
Scan Config Type:,Slew,,
Section 1,,
Start wavelength (nm):,900,,
End wavelength (nm):,1700,,
Pattern Pixel Width (nm):,   7.03,,,,
Exposure (ms):,  0.635,,,,
Digital Resolution:,228,,
Num Repeats:,6,,
PGA Gain:,64,,
Total Measurement Time in sec:,  2.729,,
Wavelength (nm),Absorbance (AU),Reference Signal (unitless),Sample Signal (unitless)
901.51,1.311586,108485,5294
905.376,1.304069,121306,6023
909.237,1.315658,131909,6377
913.095,1.312823,143299,6973
916.948,1.323344,156982,7456
922.079,1.310638,179937,8800
925.923,1.341082,200504,9142
929.762,1.321395,222660,10623
933.597,1.311762,244426,11923
937.427,1.315095,263972,12778
941.254,1.318713,281845,13530
945.076,1.315484,297271,14377
950.165,1.308700,315605,15504
953.978,1.303299,328029,16316
957.786,1.300049,340470,17062
961.59,1.296514,352317,17800
965.389,1.303617,363056,18045
969.185,1.302268,373162,18605
972.976,1.298779,382632,19231
976.763,1.297692,391202,19711
981.806,1.293979,400190,20337
985.583,1.304992,406088,20120
989.355,1.295540,410162,20769
993.124,1.292704,412868,21043
996.888,1.295781,414263,20965
1000.65,1.300942,415476,20778
1004.4,1.311695,415479,20270
1009.41,1.314461,414358,20087
1013.15,1.301433,412923,20627
1016.89,1.307672,411526,20264
1020.63,1.300760,409066,20466
1024.36,1.288587,406777,20930
1028.09,1.306027,404427,19990
1031.82,1.305342,401911,19897
1036.78,1.306371,398410,19677
1040.49,1.305552,396204,19605
1044.2,1.302991,394236,19623
1047.91,1.299396,392042,19676
1051.61,1.300143,389823,19531
1055.31,1.298725,388234,19515
1059,1.301522,387599,19358
1063.92,1.309385,386688,18966
1067.61,1.299122,386598,19415
1071.29,1.307373,387377,19088
1074.96,1.306040,388536,19204
1078.63,1.302564,389855,19424
1082.3,1.308459,391215,19229
1085.96,1.307187,393215,19384
1090.84,1.312299,396270,19306
1094.49,1.308345,398760,19605
1098.14,1.310011,400987,19639
1101.79,1.307446,403477,19878
1105.43,1.313501,406116,19731
1109.06,1.311161,407701,19915
1112.7,1.312561,409859,19956
1117.53,1.315671,412494,19941
1121.15,1.313527,414909,20157
1124.77,1.302952,416559,20736
1128.38,1.305989,418532,20689
1131.99,1.316072,419956,20283
1135.6,1.310400,421946,20647
1139.2,1.302838,423881,21106
1143.99,1.308860,426786,20958
1147.58,1.310388,428617,20974
1151.17,1.312035,431169,21019
1154.75,1.309199,433579,21275
1158.33,1.314973,436264,21124
1161.91,1.305775,439132,21718
1165.48,1.305360,442389,21900
1169.04,1.307208,446101,21990
1173.79,1.302675,451929,22511
1177.34,1.308451,456026,22415
1180.9,1.305788,461306,22814
1184.44,1.315800,467657,22601
1187.99,1.314797,473969,22959
1191.52,1.313792,479856,23298
1195.06,1.310245,487372,23857
1199.76,1.323398,497347,23619
1203.29,1.311058,504311,24640
1206.81,1.309264,511507,25095
1210.33,1.321500,519078,24759
1213.84,1.320493,527163,25203
1217.35,1.319623,534208,25591
1220.85,1.316665,540472,26068
1225.51,1.331761,549929,25618
1229.01,1.320984,556888,26594
1232.5,1.314812,562180,27231
1235.98,1.319154,567975,27238
1239.46,1.315436,574815,27803
1242.94,1.312907,582782,28353
1246.41,1.315753,591476,28588
1251.03,1.317514,604016,29076
1254.5,1.314741,612289,29663
1257.96,1.323298,619125,29409
1261.41,1.322753,624551,29704
1264.86,1.319538,629900,30181
1268.31,1.323442,634345,30122
1271.75,1.321866,638574,30433
1276.33,1.316791,642499,30980
1279.76,1.323639,645905,30657
1283.19,1.320391,648307,31002
1286.61,1.325437,650446,30745
1290.03,1.321268,652132,31122
1293.44,1.315609,653907,31616
1296.85,1.325392,655963,31009
1301.39,1.327163,657349,30948
1304.8,1.320024,657558,31471
1308.19,1.322938,658515,31306
1311.58,1.327535,658804,30990
1314.97,1.322005,659011,31397
1318.36,1.320964,658272,31437
1321.73,1.326543,658022,31024
1326.23,1.323818,657870,31212
1329.6,1.323319,656482,31182
1332.97,1.321162,654926,31263
1336.33,1.322510,653727,31109
1339.69,1.327681,652497,30683
1343.04,1.326000,649913,30680
1346.39,1.319531,647671,31033
1349.73,1.321603,645338,30774
1354.18,1.319640,641175,30714
1357.52,1.323906,638376,30281
1360.85,1.322082,635805,30286
1364.17,1.327573,633413,29793
1367.49,1.324434,631026,29896
1370.81,1.319024,628050,30128
1374.12,1.321323,625034,29825
1378.54,1.319358,620272,29732
1381.84,1.323579,616892,29284
1385.14,1.321412,613613,29274
1388.43,1.318748,611526,29354
1391.72,1.313045,610663,29700
1395.01,1.319952,610634,29230
1398.29,1.324081,611700,29004
1402.66,1.325133,614051,29045
1405.93,1.326579,616268,29053
1409.2,1.324303,617795,29278
1412.46,1.324392,618872,29323
1415.72,1.325811,619795,29271
1418.98,1.326984,620495,29225
1422.23,1.325027,621087,29385
1426.56,1.323988,621375,29469
1429.8,1.323509,621616,29513
1433.04,1.320087,622129,29771
1436.27,1.325215,621526,29393
1439.5,1.329995,621113,29052
1442.72,1.326703,620921,29264
1445.94,1.322759,620270,29500
1450.23,1.328910,618860,29019
1453.44,1.332682,617697,28714
1456.64,1.333173,616264,28615
1459.85,1.330821,614413,28684
1463.04,1.329557,612307,28669
1466.24,1.332463,610032,28372
1469.43,1.329918,607345,28413
1473.67,1.319837,603789,28910
1476.85,1.327629,601175,28273
1480.02,1.324310,597737,28327
1483.19,1.325987,594479,28064
1486.36,1.332015,591232,27526
1489.52,1.328124,587853,27615
1492.68,1.325411,583875,27600
1496.89,1.326257,578062,27272
1500.03,1.326528,574159,27071
1503.18,1.323203,570285,27095
1506.32,1.332318,565444,26307
1509.45,1.331342,560571,26139
1512.58,1.327812,555821,26129
1515.71,1.341151,550344,25089
1519.87,1.335981,543983,25096
1522.99,1.331137,538764,25134
1526.1,1.329959,533692,24965
1529.21,1.323919,527902,25040
1532.32,1.327082,521886,24575
1535.42,1.327700,515888,24258
1538.51,1.327583,509987,23987
1541.6,1.325470,503936,23818
1545.72,1.324231,494694,23448
1548.8,1.331660,488378,22756
1551.88,1.331544,481832,22457
1554.95,1.332193,474989,22105
1558.02,1.335844,467818,21589
1561.08,1.330826,460730,21509
1564.15,1.330760,454170,21206
1568.22,1.317694,444181,21373
1571.27,1.325677,436947,20642
1574.32,1.331880,429598,20007
1577.36,1.327111,422039,19872
1580.4,1.318933,414375,19882
1583.43,1.322560,406354,19335
1586.46,1.326220,398475,18801
1590.49,1.316928,388982,18750
1593.51,1.325416,380708,17996
1596.53,1.317811,372727,17930
1599.54,1.315152,365060,17669
1602.55,1.326600,357543,16855
1605.55,1.320568,349495,16706
1608.55,1.319592,341154,16344
1612.54,1.311629,330877,16145
1615.53,1.314781,322904,15642
1618.51,1.308840,315116,15475
1621.49,1.316538,307217,14822
1624.47,1.307872,299481,14740
1627.44,1.305651,292112,14451
1630.41,1.295904,284245,14381
1634.36,1.324668,274079,12978
1637.32,1.313200,266916,12977
1640.27,1.301586,259612,12964
1643.22,1.309150,251804,12357
1646.16,1.288018,244348,12589
1649.1,1.298438,236703,11906
1652.04,1.289592,228171,11713
1655.95,1.283617,215408,11211
1658.88,1.283741,204937,10663
1661.8,1.274833,193395,10271
1664.72,1.263212,179728,9804
1667.63,1.246628,163642,9274
1670.54,1.221736,146312,8781
1673.44,1.194183,128451,8214
1677.31,1.191060,105080,6768
1680.21,1.153051,88906,6250
1683.1,1.137265,75033,5470
1685.99,1.146333,63520,4535
1688.87,1.104775,53714,4220
1691.75,1.112557,45653,3523
1694.62,1.100806,39137,3103
1697.49,1.161252,33776,2330
1701.31,1.102534,28175,2225