File: ML/samples/unknown/Column 1_078043_20241121_164241.csv
Method:,Column 1,,
Host Date-Time:,21/11/24 @ 16:42:41,,
Header Version:,1,,
System Temp (C):,30.64,,
Detector Temp (C):,25.45,,
Humidity (%):,5.6,,
Lamp PD:,3810,,
Shift Vector Coefficients:,-10.5391,0.0761263,-0.000134223,,
Pixel to Wavelength Coefficients:,1775.68,-0.916766,-0.000235065,,
Serial Number:,5510004,,
Scan Config Name:,Column 1,,
Scan Config Type:,Slew,,
Section 1,,
Start wavelength (nm):,900,,
End wavelength (nm):,1700,,
Pattern Pixel Width (nm):,   7.03,,,,
Exposure (ms):,  0.635,,,,
Digital Resolution:,228,,
Num Repeats:,6,,
PGA Gain:,64,,
Total Measurement Time in sec:,  2.732,,
Wavelength (nm),Absorbance (AU),Reference Signal (unitless),Sample Signal (unitless)
901.51,1.317034,108485,5228
905.376,1.296280,121306,6132
909.237,1.319970,131909,6314
913.095,1.302545,143299,7140
916.948,1.307895,156982,7726
922.079,1.299914,179937,9020
925.923,1.315128,200504,9705
929.762,1.304988,222660,11032
933.597,1.313880,244426,11865
937.427,1.305183,263972,13073
941.254,1.306746,281845,13908
945.076,1.314278,297271,14417
950.165,1.309120,315605,15489
953.978,1.310221,328029,16058
957.786,1.313832,340470,16529
961.59,1.305636,352317,17430
965.389,1.315622,363056,17553
969.185,1.309423,373162,18301
972.976,1.310220,382632,18731
976.763,1.311891,391202,19077
981.806,1.310165,400190,19593
985.583,1.310925,406088,19847
989.355,1.312860,410162,19957
993.124,1.294524,412868,20955
996.888,1.300321,414263,20747
1000.65,1.305819,415476,20546
1004.4,1.313284,415479,20196
1009.41,1.300420,414358,20747
1013.15,1.309444,412923,20250
1016.89,1.305897,411526,20347
1020.63,1.309831,409066,20043
1024.36,1.313328,406777,19771
1028.09,1.308927,404427,19857
1031.82,1.311077,401911,19636
1036.78,1.307543,398410,19624
1040.49,1.305331,396204,19615
1044.2,1.310379,394236,19292
1047.91,1.308744,392042,19257
1051.61,1.319281,389823,18689
1055.31,1.317717,388234,18680
1059,1.315011,387599,18766
1063.92,1.319978,386688,18509
1067.61,1.321593,386598,18436
1071.29,1.304426,387377,19218
1074.96,1.311021,388536,18985
1078.63,1.319294,389855,18690
1082.3,1.325361,391215,18495
1085.96,1.312235,393215,19160
1090.84,1.310906,396270,19368
1094.49,1.312708,398760,19409
1098.14,1.312095,400987,19545
1101.79,1.304528,403477,20012
1105.43,1.317326,406116,19558
1109.06,1.307232,407701,20096
1112.7,1.328362,409859,19243
1117.53,1.318709,412494,19802
1121.15,1.324303,414909,19663
1124.77,1.322069,416559,19843
1128.38,1.321285,418532,19973
1131.99,1.317552,419956,20214
1135.6,1.314118,421946,20471
1139.2,1.322883,423881,20154
1143.99,1.324386,426786,20222
1147.58,1.321759,428617,20432
1151.17,1.314397,431169,20905
1154.75,1.316673,433579,20912
1158.33,1.317220,436264,21015
1161.91,1.317387,439132,21145
1165.48,1.323213,442389,21018
1169.04,1.318715,446101,21415
1173.79,1.311366,451929,22065
1177.34,1.318922,456026,21881
1180.9,1.319990,461306,22080
1184.44,1.322695,467657,22245
1187.99,1.314192,473969,22991
1191.52,1.323062,479856,22806
1195.06,1.320803,487372,23284
1199.76,1.323472,497347,23615
1203.29,1.331520,504311,23506
1206.81,1.321248,511507,24412
1210.33,1.325093,519078,24555
1213.84,1.323935,527163,25004
1217.35,1.325432,534208,25251
1220.85,1.323940,540472,25635
1225.51,1.330340,549929,25702
1229.01,1.318964,556888,26718
1232.5,1.325059,562180,26596
1235.98,1.321889,567975,27067
1239.46,1.326591,574815,27098
1242.94,1.322901,582782,27708
1246.41,1.327330,591476,27836
1251.03,1.324865,604016,28588
1254.5,1.324648,612289,28994
1257.96,1.327199,619125,29146
1261.41,1.328300,624551,29327
1264.86,1.323325,629900,29919
1268.31,1.328912,634345,29745
1271.75,1.323511,638574,30318
1276.33,1.325185,642499,30387
1279.76,1.327867,645905,30360
1283.19,1.330367,648307,30298
1286.61,1.333276,650446,30195
1290.03,1.332048,652132,30359
1293.44,1.333429,653907,30345
1296.85,1.333877,655963,30409
1301.39,1.336138,657349,30315
1304.8,1.334889,657558,30412
1308.19,1.335150,658515,30438
1311.58,1.330079,658804,30809
1314.97,1.328344,659011,30942
1318.36,1.334576,658272,30467
1321.73,1.333386,658022,30539
1326.23,1.332319,657870,30607
1329.6,1.336225,656482,30269
1332.97,1.335008,654926,30282
1336.33,1.328329,653727,30695
1339.69,1.330963,652497,30452
1343.04,1.328271,649913,30520
1346.39,1.333973,647671,30018
1349.73,1.330054,645338,30181
1354.18,1.332673,641175,29806
1357.52,1.324667,638376,30228
1360.85,1.332899,635805,29541
1364.17,1.329033,633413,29693
1367.49,1.331154,631026,29437
1370.81,1.333371,628050,29149
1374.12,1.328310,625034,29349
1378.54,1.323777,620272,29431
1381.84,1.332115,616892,28714
1385.14,1.329106,613613,28760
1388.43,1.330079,611526,28598
1391.72,1.329694,610663,28583
1395.01,1.329947,610634,28565
1398.29,1.323138,611700,29067
1402.66,1.334917,614051,28398
1405.93,1.332827,616268,28638
1409.2,1.333765,617795,28647
1412.46,1.334113,618872,28674
1415.72,1.332147,619795,28847
1418.98,1.332532,620495,28854
1422.23,1.331444,621087,28954
1426.56,1.331600,621375,28957
1429.8,1.337962,621616,28547
1433.04,1.334262,622129,28815
1436.27,1.331481,621526,28972
1439.5,1.330578,621113,29013
1442.72,1.332590,620921,28870
1445.94,1.332074,620270,28874
1450.23,1.335895,618860,28556
1453.44,1.331564,617697,28788
1456.64,1.339626,616264,28193
1459.85,1.341970,614413,27957
1463.04,1.337630,612307,28141
1466.24,1.335181,610032,28195
1469.43,1.336262,607345,28001
1473.67,1.336825,603789,27801
1476.85,1.332200,601175,27977
1480.02,1.340157,597737,27312
1483.19,1.329062,594479,27866
1486.36,1.330079,591232,27649
1489.52,1.343637,587853,26646
1492.68,1.334426,583875,27033
1496.89,1.342465,578062,26273
1500.03,1.340416,574159,26219
1503.18,1.339801,570285,26079
1506.32,1.343641,565444,25630
1509.45,1.338968,560571,25684
1512.58,1.335408,555821,25676
1515.71,1.343477,550344,24955
1519.87,1.341081,543983,24803
1522.99,1.342357,538764,24493
1526.1,1.334506,533692,24705
1529.21,1.342831,527902,23973
1532.32,1.341455,521886,23775
1535.42,1.340306,515888,23564
1538.51,1.339607,509987,23332
1541.6,1.334870,503936,23308
1545.72,1.343740,494694,22418
1548.8,1.330840,488378,22799
1551.88,1.341244,481832,21961
1554.95,1.337988,474989,21812
1558.02,1.344336,467818,21171
1561.08,1.336231,460730,21243
1564.15,1.338467,454170,20833
1568.22,1.343695,444181,20131
1571.27,1.329969,436947,20439
1574.32,1.342049,429598,19544
1577.36,1.330666,422039,19710
1580.4,1.332557,414375,19268
1583.43,1.347261,406354,18266
1586.46,1.332854,398475,18516
1590.49,1.331532,388982,18130
1593.51,1.332840,380708,17691
1596.53,1.342837,372727,16926
1599.54,1.337624,365060,16778
1602.55,1.325159,357543,16911
1605.55,1.340816,349495,15945
1608.55,1.323355,341154,16203
1612.54,1.328579,330877,15527
1615.53,1.324013,322904,15313
1618.51,1.316684,315116,15198
1621.49,1.337949,307217,14109
1624.47,1.326504,299481,14121
1627.44,1.315653,292112,14122
1630.41,1.335825,284245,13118
1634.36,1.318356,274079,13168
1637.32,1.315549,266916,12907
1640.27,1.310145,259612,12711
1643.22,1.327564,251804,11844
1646.16,1.319637,244348,11705
1649.1,1.321048,236703,11302
1652.04,1.323512,228171,10833
1655.95,1.313730,215408,10460
1658.88,1.322438,204937,9754
1661.8,1.323366,193395,9185
1664.72,1.319310,179728,8616
1667.63,1.337331,163642,7526
1670.54,1.335205,146312,6762
1673.44,1.328708,128451,6026
1677.31,1.319866,105080,5031
1680.21,1.341583,88906,4049
1683.1,1.380124,75033,3127
1685.99,1.266984,63520,3435
1688.87,1.322867,53714,2554
1691.75,1.316258,45653,2204
1694.62,1.274107,39137,2082
1697.49,1.304853,33776,1674
1701.31,1.344354,28175,1275