File: ML/samples/unknown/Column 1_078672_20241121_171636.csv
Method:,Column 1,,
Host Date-Time:,21/11/24 @ 17:16:36,,
Header Version:,1,,
System Temp (C):,34.69,,
Detector Temp (C):,35.36,,
Humidity (%):,1.37,,
Lamp PD:,3803,,
Shift Vector Coefficients:,-10.5391,0.0761263,-0.000134223,,
Pixel to Wavelength Coefficients:,1775.68,-0.916766,-0.000235065,,
Serial Number:,5510004,,
Scan Config Name:,Column 1,,
Scan Config Type:,Slew,,
Section 1,,
Start wavelength (nm):,900,,
End wavelength (nm):,1700,,
Pattern Pixel Width (nm):,   7.03,,,,
Exposure (ms):,  0.635,,,,
Digital Resolution:,228,,
Num Repeats:,6,,
PGA Gain:,64,,
Total Measurement Time in sec:,  2.727,,
Wavelength (nm),Absorbance (AU),Reference Signal (unitless),Sample Signal (unitless)
901.51,1.332853,108485,5041
905.376,1.285370,121306,6288
909.237,1.313010,131909,6416
913.095,1.313010,143299,6970
916.948,1.324686,156982,7433
922.079,1.314554,179937,8721
925.923,1.313074,200504,9751
929.762,1.314822,222660,10785
933.597,1.320073,244426,11697
937.427,1.318404,263972,12681
941.254,1.312941,281845,13711
945.076,1.305451,297271,14713
950.165,1.311510,315605,15404
953.978,1.310248,328029,16057
957.786,1.313438,340470,16544
961.59,1.301618,352317,17592
965.389,1.309383,363056,17807
969.185,1.300590,373162,18677
972.976,1.310475,382632,18720
976.763,1.296922,391202,19746
981.806,1.306523,400190,19758
985.583,1.299586,406088,20372
989.355,1.301498,410162,20486
993.124,1.301249,412868,20633
996.888,1.303894,414263,20577
1000.65,1.301047,415476,20773
1004.4,1.301824,415479,20736
1009.41,1.297541,414358,20885
1013.15,1.304963,412923,20460
1016.89,1.297819,411526,20729
1020.63,1.305261,409066,20255
1024.36,1.312121,406777,19826
1028.09,1.309583,404427,19827
1031.82,1.304557,401911,19933
1036.78,1.299713,398410,19981
1040.49,1.312497,396204,19294
1044.2,1.309367,394236,19337
1047.91,1.307640,392042,19306
1051.61,1.306414,389823,19251
1055.31,1.306290,388234,19178
1059,1.302938,387599,19295
1063.92,1.306782,386688,19080
1067.61,1.307866,386598,19028
1071.29,1.303613,387377,19254
1074.96,1.308307,388536,19104
1078.63,1.309415,389855,19120
1082.3,1.309341,391215,19190
1085.96,1.300892,393215,19667
1090.84,1.312546,396270,19295
1094.49,1.308921,398760,19579
1098.14,1.310830,400987,19602
1101.79,1.313230,403477,19615
1105.43,1.314382,406116,19691
1109.06,1.315083,407701,19736
1112.7,1.300267,409859,20529
1117.53,1.311293,412494,20143
1121.15,1.314411,414909,20116
1124.77,1.311689,416559,20323
1128.38,1.312141,418532,20398
1131.99,1.310646,419956,20538
1135.6,1.307737,421946,20774
1139.2,1.305625,423881,20971
1143.99,1.319432,426786,20454
1147.58,1.310243,428617,20981
1151.17,1.308455,431169,21193
1154.75,1.310650,433579,21204
1158.33,1.311880,436264,21275
1161.91,1.312283,439132,21395
1165.48,1.316895,442389,21326
1169.04,1.315462,446101,21576
1173.79,1.313952,451929,21934
1177.34,1.314224,456026,22119
1180.9,1.308863,461306,22653
1184.44,1.314055,467657,22692
1187.99,1.312119,473969,23101
1191.52,1.316785,479856,23138
1195.06,1.319146,487372,23373
1199.76,1.307476,497347,24501
1203.29,1.318488,504311,24222
1206.81,1.323585,511507,24281
1210.33,1.314470,519078,25163
1213.84,1.317693,527163,25366
1217.35,1.316040,534208,25803
1220.85,1.315385,540472,26145
1225.51,1.317520,549929,26472
1229.01,1.325169,556888,26339
1232.5,1.317901,562180,27038
1235.98,1.314712,567975,27518
1239.46,1.321097,574815,27443
1242.94,1.322635,582782,27725
1246.41,1.320535,591476,28275
1251.03,1.321324,604016,28822
1254.5,1.321053,612289,29235
1257.96,1.323475,619125,29397
1261.41,1.324628,624551,29576
1264.86,1.320172,629900,30137
1268.31,1.322664,634345,30176
1271.75,1.318597,638574,30663
1276.33,1.324656,642499,30424
1279.76,1.323795,645905,30646
1283.19,1.320994,648307,30959
1286.61,1.327078,650446,30629
1290.03,1.322246,652132,31052
1293.44,1.323930,653907,31016
1296.85,1.326682,655963,30917
1301.39,1.327177,657349,30947
1304.8,1.326222,657558,31025
1308.19,1.327989,658515,30944
1311.58,1.321343,658804,31435
1314.97,1.325407,659011,31152
1318.36,1.322002,658272,31362
1321.73,1.329337,658022,30825
1326.23,1.331865,657870,30639
1329.6,1.325133,656482,31052
1332.97,1.325532,654926,30950
1336.33,1.324329,653727,30979
1339.69,1.328999,652497,30590
1343.04,1.323994,649913,30822
1346.39,1.321888,647671,30865
1349.73,1.326057,645338,30460
1354.18,1.323061,641175,30473
1357.52,1.324222,638376,30259
1360.85,1.321681,635805,30314
1364.17,1.317231,633413,30511
1367.49,1.325700,631026,29809
1370.81,1.326981,628050,29581
1374.12,1.325596,625034,29533
1378.54,1.326456,620272,29250
1381.84,1.323727,616892,29274
1385.14,1.322556,613613,29197
1388.43,1.324182,611526,28989
1391.72,1.320389,610663,29202
1395.01,1.322814,610634,29038
1398.29,1.325656,611700,28899
1402.66,1.327878,614051,28862
1405.93,1.328406,616268,28931
1409.2,1.319083,617795,29632
1412.46,1.326411,618872,29187
1415.72,1.329461,619795,29026
1418.98,1.328264,620495,29139
1422.23,1.328276,621087,29166
1426.56,1.331900,621375,28937
1429.8,1.326803,621616,29290
1433.04,1.325326,622129,29414
1436.27,1.327943,621526,29209
1439.5,1.327282,621113,29234
1442.72,1.327802,620921,29190
1445.94,1.329196,620270,29066
1450.23,1.330680,618860,28901
1453.44,1.325675,617697,29181
1456.64,1.334693,616264,28515
1459.85,1.326797,614413,28951
1463.04,1.336028,612307,28245
1466.24,1.333382,610032,28312
1469.43,1.335936,607345,28022
1473.67,1.337153,603789,27780
1476.85,1.331471,601175,28024
1480.02,1.330688,597737,27914
1483.19,1.329280,594479,27852
1486.36,1.330802,591232,27603
1489.52,1.336027,587853,27117
1492.68,1.331927,583875,27189
1496.89,1.333273,578062,26835
1500.03,1.332082,574159,26727
1503.18,1.330835,570285,26623
1506.32,1.333144,565444,26257
1509.45,1.335180,560571,25909
1512.58,1.335036,555821,25698
1515.71,1.329284,550344,25784
1519.87,1.328466,543983,25534
1522.99,1.333476,538764,24999
1526.1,1.332506,533692,24819
1529.21,1.331689,527902,24596
1532.32,1.329759,521886,24424
1535.42,1.327325,515888,24279
1538.51,1.332499,509987,23717
1541.6,1.334572,503936,23324
1545.72,1.328849,494694,23200
1548.8,1.333630,488378,22653
1551.88,1.331177,481832,22476
1554.95,1.337411,474989,21841
1558.02,1.328049,467818,21980
1561.08,1.321597,460730,21971
1564.15,1.331970,454170,21147
1568.22,1.323360,444181,21096
1571.27,1.325109,436947,20669
1574.32,1.328636,429598,20157
1577.36,1.329610,422039,19758
1580.4,1.326425,414375,19542
1583.43,1.321125,406354,19399
1586.46,1.324376,398475,18881
1590.49,1.327241,388982,18310
1593.51,1.333036,380708,17683
1596.53,1.321557,372727,17776
1599.54,1.318434,365060,17536
1602.55,1.318280,357543,17181
1605.55,1.311640,349495,17053
1608.55,1.326017,341154,16104
1612.54,1.313246,330877,16085
1615.53,1.319864,322904,15460
1618.51,1.325197,315116,14903
1621.49,1.317213,307217,14799
1624.47,1.311600,299481,14614
1627.44,1.311795,292112,14248
1630.41,1.305800,284245,14057
1634.36,1.319016,274079,13148
1637.32,1.310964,266916,13044
1640.27,1.324561,259612,12296
1643.22,1.308869,251804,12365
1646.16,1.305367,244348,12096
1649.1,1.325412,236703,11189
1652.04,1.294439,228171,11583
1655.95,1.296473,215408,10884
1658.88,1.294337,204937,10406
1661.8,1.294290,193395,9821
1664.72,1.272933,179728,9587
1667.63,1.243130,163642,9349
1670.54,1.221884,146312,8778
1673.44,1.227695,128451,7604
1677.31,1.203889,105080,6571
1680.21,1.167247,88906,6049
1683.1,1.162939,75033,5156
1685.99,1.143565,63520,4564
1688.87,1.191263,53714,3458
1691.75,1.167548,45653,3104
1694.62,1.252937,39137,2186
1697.49,1.166314,33776,2303
1701.31,1.241960,28175,1614