File: ML/samples/unknown/Column 1_078047_20241121_164253.csv
Method:,Column 1,,
Host Date-Time:,21/11/24 @ 16:42:53,,
Header Version:,1,,
System Temp (C):,30.74,,
Detector Temp (C):,25.49,,
Humidity (%):,5.36,,
Lamp PD:,3810,,
Shift Vector Coefficients:,-10.5391,0.0761263,-0.000134223,,
Pixel to Wavelength Coefficients:,1775.68,-0.916766,-0.000235065,,
Serial Number:,5510004,,
Scan Config Name:,Column 1,,
Scan Config Type:,Slew,,
Section 1,,
Start wavelength (nm):,900,,
End wavelength (nm):,1700,,
Pattern Pixel Width (nm):,   7.03,,,,
Exposure (ms):,  0.635,,,,
Digital Resolution:,228,,
Num Repeats:,6,,
PGA Gain:,64,,
Total Measurement Time in sec:,  2.734,,
Wavelength (nm),Absorbance (AU),Reference Signal (unitless),Sample Signal (unitless)
901.51,1.285093,108485,5627
905.376,1.304142,121306,6022
909.237,1.328373,131909,6193
913.095,1.305352,143299,7094
916.948,1.301645,156982,7838
922.079,1.315701,179937,8698
925.923,1.317101,200504,9661
929.762,1.317569,222660,10717
933.597,1.330405,244426,11422
937.427,1.318953,263972,12665
941.254,1.323781,281845,13373
945.076,1.299500,297271,14916
950.165,1.318273,315605,15166
953.978,1.305620,328029,16229
957.786,1.308817,340470,16721
961.59,1.304094,352317,17492
965.389,1.310042,363056,17780
969.185,1.300730,373162,18671
972.976,1.310244,382632,18730
976.763,1.298266,391202,19685
981.806,1.309877,400190,19606
985.583,1.309680,406088,19904
989.355,1.299637,410162,20574
993.124,1.311989,412868,20129
996.888,1.308498,414263,20360
1000.65,1.302345,415476,20711
1004.4,1.316435,415479,20050
1009.41,1.306449,414358,20461
1013.15,1.313516,412923,20061
1016.89,1.314629,411526,19942
1020.63,1.309506,409066,20058
1024.36,1.306571,406777,20081
1028.09,1.314806,404427,19590
1031.82,1.314162,401911,19497
1036.78,1.306614,398410,19666
1040.49,1.299022,396204,19902
1044.2,1.316226,394236,19034
1047.91,1.313050,392042,19067
1051.61,1.311383,389823,19032
1055.31,1.310683,388234,18985
1059,1.315173,387599,18759
1063.92,1.307625,386688,19043
1067.61,1.304887,386598,19159
1071.29,1.308649,387377,19032
1074.96,1.314028,388536,18854
1078.63,1.315546,389855,18852
1082.3,1.308436,391215,19230
1085.96,1.309320,393215,19289
1090.84,1.317345,396270,19083
1094.49,1.311546,398760,19461
1098.14,1.323760,400987,19027
1101.79,1.317056,403477,19443
1105.43,1.321274,406116,19381
1109.06,1.319640,407701,19530
1112.7,1.311974,409859,19983
1117.53,1.318161,412494,19827
1121.15,1.326562,414909,19561
1124.77,1.323340,416559,19785
1128.38,1.317367,418532,20154
1131.99,1.316800,419956,20249
1135.6,1.312995,421946,20524
1139.2,1.319833,423881,20296
1143.99,1.312523,426786,20782
1147.58,1.322908,428617,20378
1151.17,1.312097,431169,21016
1154.75,1.320532,433579,20727
1158.33,1.320747,436264,20845
1161.91,1.320334,439132,21002
1165.48,1.317282,442389,21307
1169.04,1.319121,446101,21395
1173.79,1.315997,451929,21831
1177.34,1.324616,456026,21596
1180.9,1.314537,461306,22359
1184.44,1.314802,467657,22653
1187.99,1.319246,473969,22725
1191.52,1.323348,479856,22791
1195.06,1.318960,487372,23383
1199.76,1.323214,497347,23629
1203.29,1.317611,504311,24271
1206.81,1.323084,511507,24309
1210.33,1.322694,519078,24691
1213.84,1.322773,527163,25071
1217.35,1.355203,534208,23578
1220.85,1.319524,540472,25897
1225.51,1.340495,549929,25108
1229.01,1.327500,556888,26198
1232.5,1.328848,562180,26365
1235.98,1.318453,567975,27282
1239.46,1.323461,574815,27294
1242.94,1.321539,582782,27795
1246.41,1.318267,591476,28423
1251.03,1.326722,604016,28466
1254.5,1.321648,612289,29195
1257.96,1.329350,619125,29002
1261.41,1.326910,624551,29421
1264.86,1.329435,629900,29501
1268.31,1.326117,634345,29937
1271.75,1.327208,638574,30061
1276.33,1.330216,642499,30037
1279.76,1.331314,645905,30120
1283.19,1.327666,648307,30487
1286.61,1.334529,650446,30108
1290.03,1.328231,652132,30627
1293.44,1.330363,653907,30560
1296.85,1.329614,655963,30709
1301.39,1.327416,657349,30930
1304.8,1.330866,657558,30695
1308.19,1.332929,658515,30594
1311.58,1.327409,658804,30999
1314.97,1.331090,659011,30747
1318.36,1.330913,658272,30725
1321.73,1.331640,658022,30662
1326.23,1.333627,657870,30515
1329.6,1.334306,656482,30403
1332.97,1.332491,654926,30458
1336.33,1.332166,653727,30425
1339.69,1.327214,652497,30716
1343.04,1.335546,649913,30013
1346.39,1.329854,647671,30304
1349.73,1.332666,645338,30000
1354.18,1.330725,641175,29940
1357.52,1.330438,638376,29829
1360.85,1.333693,635805,29487
1364.17,1.324508,633413,30004
1367.49,1.333135,631026,29303
1370.81,1.327422,628050,29551
1374.12,1.327128,625034,29429
1378.54,1.321995,620272,29552
1381.84,1.335288,616892,28505
1385.14,1.325796,613613,28980
1388.43,1.323463,611526,29037
1391.72,1.326801,610663,28774
1395.01,1.325876,610634,28834
1398.29,1.328475,611700,28712
1402.66,1.326946,614051,28924
1405.93,1.335733,616268,28447
1409.2,1.330503,617795,28863
1412.46,1.333099,618872,28741
1415.72,1.329192,619795,29044
1418.98,1.333120,620495,28815
1422.23,1.328976,621087,29119
1426.56,1.333088,621375,28858
1429.8,1.339455,621616,28449
1433.04,1.328081,622129,29228
1436.27,1.334353,621526,28781
1439.5,1.331327,621113,28963
1442.72,1.332665,620921,28865
1445.94,1.325787,620270,29295
1450.23,1.337251,618860,28467
1453.44,1.339665,617697,28256
1456.64,1.335990,616264,28430
1459.85,1.336244,614413,28328
1463.04,1.341739,612307,27876
1466.24,1.333397,610032,28311
1469.43,1.338034,607345,27887
1473.67,1.326406,603789,28476
1476.85,1.338139,601175,27597
1480.02,1.332590,597737,27792
1483.19,1.332143,594479,27669
1486.36,1.332725,591232,27481
1489.52,1.333552,587853,27272
1492.68,1.337667,583875,26832
1496.89,1.343259,578062,26225
1500.03,1.339787,574159,26257
1503.18,1.339219,570285,26114
1506.32,1.339190,565444,25894
1509.45,1.336775,560571,25814
1512.58,1.338821,555821,25475
1515.71,1.339199,550344,25202
1519.87,1.341852,543983,24759
1522.99,1.331310,538764,25124
1526.1,1.335791,533692,24632
1529.21,1.331054,527902,24632
1532.32,1.345069,521886,23578
1535.42,1.340841,515888,23535
1538.51,1.337824,509987,23428
1541.6,1.334684,503936,23318
1545.72,1.336516,494694,22794
1548.8,1.330193,488378,22833
1551.88,1.331795,481832,22444
1554.95,1.337192,474989,21852
1558.02,1.336187,467818,21572
1561.08,1.341124,460730,21005
1564.15,1.336034,454170,20950
1568.22,1.336718,444181,20457
1571.27,1.332719,436947,20310
1574.32,1.336090,429598,19814
1577.36,1.341644,422039,19218
1580.4,1.322112,414375,19737
1583.43,1.330471,406354,18986
1586.46,1.335937,398475,18385
1590.49,1.327265,388982,18309
1593.51,1.332300,380708,17713
1596.53,1.329819,372727,17441
1599.54,1.331915,365060,17000
1602.55,1.339651,357543,16356
1605.55,1.330641,349495,16323
1608.55,1.330735,341154,15930
1612.54,1.321615,330877,15778
1615.53,1.325263,322904,15269
1618.51,1.329090,315116,14770
1621.49,1.316597,307217,14820
1624.47,1.319911,299481,14337
1627.44,1.327247,292112,13750
1630.41,1.326426,284245,13405
1634.36,1.310512,274079,13408
1637.32,1.312933,266916,12985
1640.27,1.328285,259612,12191
1643.22,1.320004,251804,12052
1646.16,1.318156,244348,11745
1649.1,1.316462,236703,11422
1652.04,1.319680,228171,10929
1655.95,1.312155,215408,10498
1658.88,1.320971,204937,9787
1661.8,1.324076,193395,9170
1664.72,1.311517,179728,8772
1667.63,1.318914,163642,7852
1670.54,1.353303,146312,6486
1673.44,1.318382,128451,6171
1677.31,1.304182,105080,5216
1680.21,1.308052,88906,4374
1683.1,1.293075,75033,3821
1685.99,1.302949,63520,3162
1688.87,1.321000,53714,2565
1691.75,1.218246,45653,2762
1694.62,1.267483,39137,2114
1697.49,1.376626,33776,1419
1701.31,1.282547,28175,1470