File: ML/samples/unknown/Column 1_078215_20241121_165107.csv
Method:,Column 1,,
Host Date-Time:,21/11/24 @ 16:51:7,,
Header Version:,1,,
System Temp (C):,33.95,,
Detector Temp (C):,31.02,,
Humidity (%):,2.99,,
Lamp PD:,3803,,
Shift Vector Coefficients:,-10.5391,0.0761263,-0.000134223,,
Pixel to Wavelength Coefficients:,1775.68,-0.916766,-0.000235065,,
Serial Number:,5510004,,
Scan Config Name:,Column 1,,
Scan Config Type:,Slew,,
Section 1,,
Start wavelength (nm):,900,,
End wavelength (nm):,1700,,
Pattern Pixel Width (nm):,   7.03,,,,
Exposure (ms):,  0.635,,,,
Digital Resolution:,228,,
Num Repeats:,6,,
PGA Gain:,64,,
Total Measurement Time in sec:,  2.724,,
Wavelength (nm),Absorbance (AU),Reference Signal (unitless),Sample Signal (unitless)
901.51,1.314549,108485,5258
905.376,1.324139,121306,5751
909.237,1.357671,131909,5789
913.095,1.314071,143299,6953
916.948,1.301423,156982,7842
922.079,1.313311,179937,8746
925.923,1.304824,200504,9938
929.762,1.295834,222660,11267
933.597,1.326544,244426,11524
937.427,1.321774,263972,12583
941.254,1.314242,281845,13670
945.076,1.320131,297271,14224
950.165,1.308168,315605,15523
953.978,1.313179,328029,15949
957.786,1.319891,340470,16300
961.59,1.316638,352317,16994
965.389,1.313032,363056,17658
969.185,1.306513,373162,18424
972.976,1.311707,382632,18667
976.763,1.309666,391202,19175
981.806,1.312232,400190,19500
985.583,1.306571,406088,20047
989.355,1.305010,410162,20321
993.124,1.302915,412868,20554
996.888,1.310101,414263,20285
1000.65,1.300733,415476,20788
1004.4,1.310326,415479,20334
1009.41,1.304966,414358,20531
1013.15,1.302213,412923,20590
1016.89,1.308230,411526,20238
1020.63,1.305540,409066,20242
1024.36,1.317721,406777,19572
1028.09,1.307050,404427,19943
1031.82,1.307706,401911,19789
1036.78,1.313559,398410,19354
1040.49,1.312024,396204,19315
1044.2,1.300519,394236,19735
1047.91,1.310937,392042,19160
1051.61,1.306346,389823,19254
1055.31,1.309609,388234,19032
1059,1.313002,387599,18853
1063.92,1.311957,386688,18854
1067.61,1.315093,386598,18714
1071.29,1.310158,387377,18966
1074.96,1.319288,388536,18627
1078.63,1.312515,389855,18984
1082.3,1.312110,391215,19068
1085.96,1.326919,393215,18523
1090.84,1.315211,396270,19177
1094.49,1.329079,398760,18691
1098.14,1.307739,400987,19742
1101.79,1.313430,403477,19606
1105.43,1.318638,406116,19499
1109.06,1.318241,407701,19593
1112.7,1.321066,409859,19569
1117.53,1.309851,412494,20210
1121.15,1.320608,414909,19831
1124.77,1.311603,416559,20327
1128.38,1.315132,418532,20258
1131.99,1.317208,419956,20230
1135.6,1.322299,421946,20089
1139.2,1.316933,423881,20432
1143.99,1.315437,426786,20643
1147.58,1.327041,428617,20185
1151.17,1.316709,431169,20794
1154.75,1.318379,433579,20830
1158.33,1.321144,436264,20826
1161.91,1.322033,439132,20920
1165.48,1.320514,442389,21149
1169.04,1.317783,446101,21461
1173.79,1.328243,451929,21224
1177.34,1.315817,456026,22038
1180.9,1.317812,461306,22191
1184.44,1.315531,467657,22615
1187.99,1.317301,473969,22827
1191.52,1.319232,479856,23008
1195.06,1.323066,487372,23163
1199.76,1.319463,497347,23834
1203.29,1.321078,504311,24078
1206.81,1.318411,511507,24572
1210.33,1.321166,519078,24778
1213.84,1.317642,527163,25369
1217.35,1.319470,534208,25600
1220.85,1.317399,540472,26024
1225.51,1.324866,549929,26028
1229.01,1.329427,556888,26082
1232.5,1.325631,562180,26561
1235.98,1.323432,567975,26971
1239.46,1.323891,574815,27267
1242.94,1.323042,582782,27699
1246.41,1.327393,591476,27832
1251.03,1.321023,604016,28842
1254.5,1.328470,612289,28740
1257.96,1.329995,619125,28959
1261.41,1.325084,624551,29545
1264.86,1.327408,629900,29639
1268.31,1.325552,634345,29976
1271.75,1.319547,638574,30596
1276.33,1.324842,642499,30411
1279.76,1.332107,645905,30065
1283.19,1.323851,648307,30756
1286.61,1.325960,650446,30708
1290.03,1.331291,652132,30412
1293.44,1.332071,653907,30440
1296.85,1.331243,655963,30594
1301.39,1.333596,657349,30493
1304.8,1.332809,657558,30558
1308.19,1.328663,658515,30896
1311.58,1.324351,658804,31218
1314.97,1.334707,659011,30492
1318.36,1.334405,658272,30479
1321.73,1.332051,658022,30633
1326.23,1.330253,657870,30753
1329.6,1.331047,656482,30632
1332.97,1.329422,654926,30674
1336.33,1.332309,653727,30415
1339.69,1.335075,652497,30165
1343.04,1.328370,649913,30513
1346.39,1.330242,647671,30277
1349.73,1.337192,645338,29689
1354.18,1.330594,641175,29949
1357.52,1.328317,638376,29975
1360.85,1.329297,635805,29787
1364.17,1.330997,633413,29559
1367.49,1.331213,631026,29433
1370.81,1.329942,628050,29380
1374.12,1.323176,625034,29698
1378.54,1.323880,620272,29424
1381.84,1.328441,616892,28958
1385.14,1.331529,613613,28600
1388.43,1.325607,611526,28894
1391.72,1.334799,610663,28249
1395.01,1.330525,610634,28527
1398.29,1.322094,611700,29137
1402.66,1.326286,614051,28968
1405.93,1.330407,616268,28798
1409.2,1.333250,617795,28681
1412.46,1.325252,618872,29265
1415.72,1.332042,619795,28854
1418.98,1.334993,620495,28691
1422.23,1.335967,621087,28654
1426.56,1.327748,621375,29215
1429.8,1.331784,621616,28956
1433.04,1.336756,622129,28650
1436.27,1.332787,621526,28885
1439.5,1.334956,621113,28722
1442.72,1.335730,620921,28662
1445.94,1.336853,620270,28558
1450.23,1.331914,618860,28819
1453.44,1.340958,617697,28172
1456.64,1.336510,616264,28396
1459.85,1.336398,614413,28318
1463.04,1.334079,612307,28372
1466.24,1.329442,610032,28570
1469.43,1.330408,607345,28381
1473.67,1.340275,603789,27581
1476.85,1.335003,601175,27797
1480.02,1.339616,597737,27346
1483.19,1.338818,594479,27247
1486.36,1.342151,591232,26891
1489.52,1.339371,587853,26909
1492.68,1.345490,583875,26353
1496.89,1.333921,578062,26795
1500.03,1.332196,574159,26720
1503.18,1.339768,570285,26081
1506.32,1.336549,565444,26052
1509.45,1.342261,560571,25490
1512.58,1.332743,555821,25834
1515.71,1.332615,550344,25587
1519.87,1.337003,543983,25037
1522.99,1.337701,538764,24757
1526.1,1.336903,533692,24569
1529.21,1.337967,527902,24243
1532.32,1.330702,521886,24371
1535.42,1.334940,515888,23857
1538.51,1.342896,509987,23156
1541.6,1.337731,503936,23155
1545.72,1.339019,494694,22663
1548.8,1.327576,488378,22971
1551.88,1.342908,481832,21877
1554.95,1.340244,474989,21699
1558.02,1.334318,467818,21665
1561.08,1.335822,460730,21263
1564.15,1.335247,454170,20988
1568.22,1.329225,444181,20813
1571.27,1.334476,436947,20228
1574.32,1.337913,429598,19731
1577.36,1.330666,422039,19710
1580.4,1.333821,414375,19212
1583.43,1.333708,406354,18845
1586.46,1.333582,398475,18485
1590.49,1.331005,388982,18152
1593.51,1.328370,380708,17874
1596.53,1.327906,372727,17518
1599.54,1.324921,365060,17276
1602.55,1.334452,357543,16553
1605.55,1.330774,349495,16318
1608.55,1.327448,341154,16051
1612.54,1.322800,330877,15735
1615.53,1.334171,322904,14959
1618.51,1.327534,315116,14823
1621.49,1.322884,307217,14607
1624.47,1.338003,299481,13752
1627.44,1.305621,292112,14452
1630.41,1.325100,284245,13446
1634.36,1.318191,274079,13173
1637.32,1.323804,266916,12664
1640.27,1.330786,259612,12121
1643.22,1.307851,251804,12394
1646.16,1.333779,244348,11330
1649.1,1.308736,236703,11627
1652.04,1.314074,228171,11071
1655.95,1.301328,215408,10763
1658.88,1.299585,204937,10281
1661.8,1.305125,193395,9579
1664.72,1.288474,179728,9250
1667.63,1.266559,163642,8858
1670.54,1.260456,146312,8032
1673.44,1.245474,128451,7299
1677.31,1.212769,105080,6438
1680.21,1.200976,88906,5597
1683.1,1.211457,75033,4611
1685.99,1.223699,63520,3795
1688.87,1.198353,53714,3402
1691.75,1.237044,45653,2645
1694.62,1.193953,39137,2504
1697.49,1.216431,33776,2052
1701.31,1.207322,28175,1748