File: ML/samples/unknown/Column 1_078648_20241121_171303.csv
Method:,Column 1,,
Host Date-Time:,21/11/24 @ 17:13:3,,
Header Version:,1,,
System Temp (C):,36.27,,
Detector Temp (C):,35.22,,
Humidity (%):,0.68,,
Lamp PD:,3797,,
Shift Vector Coefficients:,-10.5391,0.0761263,-0.000134223,,
Pixel to Wavelength Coefficients:,1775.68,-0.916766,-0.000235065,,
Serial Number:,5510004,,
Scan Config Name:,Column 1,,
Scan Config Type:,Slew,,
Section 1,,
Start wavelength (nm):,900,,
End wavelength (nm):,1700,,
Pattern Pixel Width (nm):,   7.03,,,,
Exposure (ms):,  0.635,,,,
Digital Resolution:,228,,
Num Repeats:,6,,
PGA Gain:,64,,
Total Measurement Time in sec:,  2.706,,
Wavelength (nm),Absorbance (AU),Reference Signal (unitless),Sample Signal (unitless)
901.51,1.297859,108485,5464
905.376,1.298837,121306,6096
909.237,1.322591,131909,6276
913.095,1.318339,143299,6885
916.948,1.317615,156982,7555
922.079,1.309111,179937,8831
925.923,1.326553,200504,9453
929.762,1.342848,222660,10111
933.597,1.320036,244426,11698
937.427,1.324995,263972,12490
941.254,1.318424,281845,13539
945.076,1.315001,297271,14393
950.165,1.302112,315605,15741
953.978,1.304391,328029,16275
957.786,1.304501,340470,16888
961.59,1.318944,352317,16904
965.389,1.309724,363056,17793
969.185,1.313595,373162,18126
972.976,1.302362,382632,19073
976.763,1.305518,391202,19359
981.806,1.306985,400190,19737
985.583,1.304324,406088,20151
989.355,1.306252,410162,20263
993.124,1.308465,412868,20293
996.888,1.309609,414263,20308
1000.65,1.298753,415476,20883
1004.4,1.308451,415479,20422
1009.41,1.307660,414358,20404
1013.15,1.299626,412923,20713
1016.89,1.304086,411526,20432
1020.63,1.311959,409066,19945
1024.36,1.308109,406777,20010
1028.09,1.299344,404427,20300
1031.82,1.298714,401911,20203
1036.78,1.295194,398410,20190
1040.49,1.314346,396204,19212
1044.2,1.315315,394236,19074
1047.91,1.312049,392042,19111
1051.61,1.296511,389823,19695
1055.31,1.303041,388234,19322
1059,1.315961,387599,18725
1063.92,1.315240,386688,18712
1067.61,1.311557,386598,18867
1071.29,1.304516,387377,19214
1074.96,1.301764,388536,19394
1078.63,1.317138,389855,18783
1082.3,1.310088,391215,19157
1085.96,1.311374,393215,19198
1090.84,1.311086,396270,19360
1094.49,1.316258,398760,19251
1098.14,1.305523,400987,19843
1101.79,1.314672,403477,19550
1105.43,1.303987,406116,20168
1109.06,1.311751,407701,19888
1112.7,1.312278,409859,19969
1117.53,1.317329,412494,19865
1121.15,1.308216,414909,20405
1124.77,1.308347,416559,20480
1128.38,1.317432,418532,20151
1131.99,1.312213,419956,20464
1135.6,1.307110,421946,20804
1139.2,1.318488,423881,20359
1143.99,1.313946,426786,20714
1147.58,1.315030,428617,20751
1151.17,1.320822,431169,20598
1154.75,1.317088,433579,20892
1158.33,1.319894,436264,20886
1161.91,1.317162,439132,21156
1165.48,1.314195,442389,21459
1169.04,1.317965,446101,21452
1173.79,1.307643,451929,22255
1177.34,1.315010,456026,22079
1180.9,1.313974,461306,22388
1184.44,1.307916,467657,23015
1187.99,1.319590,473969,22707
1191.52,1.327195,479856,22590
1195.06,1.324606,487372,23081
1199.76,1.315761,497347,24038
1203.29,1.316628,504311,24326
1206.81,1.322192,511507,24359
1210.33,1.316928,519078,25021
1213.84,1.323675,527163,25019
1217.35,1.323715,534208,25351
1220.85,1.316899,540472,26054
1225.51,1.317897,549929,26449
1229.01,1.315419,556888,26937
1232.5,1.313411,562180,27319
1235.98,1.327054,567975,26747
1239.46,1.317362,574815,27680
1242.94,1.322776,582782,27716
1246.41,1.311957,591476,28839
1251.03,1.320075,604016,28905
1254.5,1.324334,612289,29015
1257.96,1.322782,619125,29444
1261.41,1.324086,624551,29613
1264.86,1.322962,629900,29944
1268.31,1.323658,634345,30107
1271.75,1.324486,638574,30250
1276.33,1.325714,642499,30350
1279.76,1.323002,645905,30702
1283.19,1.322779,648307,30832
1286.61,1.318167,650446,31264
1290.03,1.321282,652132,31121
1293.44,1.334461,653907,30273
1296.85,1.328992,655963,30753
1301.39,1.325301,657349,31081
1304.8,1.323487,657558,31221
1308.19,1.321180,658515,31433
1311.58,1.323240,658804,31298
1314.97,1.327923,659011,30972
1318.36,1.327885,658272,30940
1321.73,1.332335,658022,30613
1326.23,1.324780,657870,31143
1329.6,1.323249,656482,31187
1332.97,1.333133,654926,30413
1336.33,1.322706,653727,31095
1339.69,1.328021,652497,30659
1343.04,1.321227,649913,31019
1346.39,1.322987,647671,30787
1349.73,1.334218,645338,29893
1354.18,1.327761,641175,30145
1357.52,1.323433,638376,30314
1360.85,1.329472,635805,29775
1364.17,1.326641,633413,29857
1367.49,1.324173,631026,29914
1370.81,1.317872,628050,30208
1374.12,1.328281,625034,29351
1378.54,1.323910,620272,29422
1381.84,1.321891,616892,29398
1385.14,1.325467,613613,29002
1388.43,1.318999,611526,29337
1391.72,1.326394,610663,28801
1395.01,1.322799,610634,29039
1398.29,1.323512,611700,29042
1402.66,1.323208,614051,29174
1405.93,1.328556,616268,28921
1409.2,1.329001,617795,28963
1412.46,1.324082,618872,29344
1415.72,1.323001,619795,29461
1418.98,1.331195,620495,28943
1422.23,1.329110,621087,29110
1426.56,1.323797,621375,29482
1429.8,1.332309,621616,28921
1433.04,1.332292,622129,28946
1436.27,1.326503,621526,29306
1439.5,1.331537,621113,28949
1442.72,1.327371,620921,29219
1445.94,1.332706,620270,28832
1450.23,1.331416,618860,28852
1453.44,1.326838,617697,29103
1456.64,1.332067,616264,28688
1459.85,1.333478,614413,28509
1463.04,1.329739,612307,28657
1466.24,1.330996,610032,28468
1469.43,1.334992,607345,28083
1473.67,1.330313,603789,28221
1476.85,1.333334,601175,27904
1480.02,1.332184,597737,27818
1483.19,1.327056,594479,27995
1486.36,1.330141,591232,27645
1489.52,1.329084,587853,27554
1492.68,1.331591,583875,27210
1496.89,1.334943,578062,26732
1500.03,1.330282,574159,26838
1503.18,1.329646,570285,26696
1506.32,1.332632,565444,26288
1509.45,1.329783,560571,26233
1512.58,1.325773,555821,26252
1515.71,1.331648,550344,25644
1519.87,1.332843,543983,25278
1522.99,1.325694,538764,25451
1526.1,1.340970,533692,24340
1529.21,1.336625,527902,24318
1532.32,1.332506,521886,24270
1535.42,1.331350,515888,24055
1538.51,1.325038,509987,24128
1541.6,1.333847,503936,23363
1545.72,1.325864,494694,23360
1548.8,1.329927,488378,22847
1551.88,1.332202,481832,22423
1554.95,1.331329,474989,22149
1558.02,1.328247,467818,21970
1561.08,1.329798,460730,21560
1564.15,1.321640,454170,21656
1568.22,1.333461,444181,20611
1571.27,1.335831,436947,20165
1574.32,1.331078,429598,20044
1577.36,1.327505,422039,19854
1580.4,1.327782,414375,19481
1583.43,1.342226,406354,18479
1586.46,1.324813,398475,18862
1590.49,1.330933,388982,18155
1593.51,1.326915,380708,17934
1596.53,1.327609,372727,17530
1599.54,1.323942,365060,17315
1602.55,1.324107,357543,16952
1605.55,1.322941,349495,16615
1608.55,1.331144,341154,15915
1612.54,1.328523,330877,15529
1615.53,1.315170,322904,15628
1618.51,1.326656,315116,14853
1621.49,1.325239,307217,14528
1624.47,1.311570,299481,14615
1627.44,1.319576,292112,13995
1630.41,1.306728,284245,14027
1634.36,1.313535,274079,13315
1637.32,1.315415,266916,12911
1640.27,1.310521,259612,12700
1643.22,1.306068,251804,12445
1646.16,1.292491,244348,12460
1649.1,1.311998,236703,11540
1652.04,1.299607,228171,11446
1655.95,1.307997,215408,10599
1658.88,1.298994,204937,10295
1661.8,1.278655,193395,10181
1664.72,1.276207,179728,9515
1667.63,1.252094,163642,9158
1670.54,1.225761,146312,8700
1673.44,1.224395,128451,7662
1677.31,1.184690,105080,6868
1680.21,1.156609,88906,6199
1683.1,1.180209,75033,4955
1685.99,1.118424,63520,4836
1688.87,1.113717,53714,4134
1691.75,1.168528,45653,3097
1694.62,1.156107,39137,2732
1697.49,1.142288,33776,2434
1701.31,1.121688,28175,2129