File: ML/samples/unknown/Column 1_078652_20241121_171315.csv
Method:,Column 1,,
Host Date-Time:,21/11/24 @ 17:13:15,,
Header Version:,1,,
System Temp (C):,36.32,,
Detector Temp (C):,35.27,,
Humidity (%):,0.68,,
Lamp PD:,3797,,
Shift Vector Coefficients:,-10.5391,0.0761263,-0.000134223,,
Pixel to Wavelength Coefficients:,1775.68,-0.916766,-0.000235065,,
Serial Number:,5510004,,
Scan Config Name:,Column 1,,
Scan Config Type:,Slew,,
Section 1,,
Start wavelength (nm):,900,,
End wavelength (nm):,1700,,
Pattern Pixel Width (nm):,   7.03,,,,
Exposure (ms):,  0.635,,,,
Digital Resolution:,228,,
Num Repeats:,6,,
PGA Gain:,64,,
Total Measurement Time in sec:,  2.725,,
Wavelength (nm),Absorbance (AU),Reference Signal (unitless),Sample Signal (unitless)
901.51,1.322804,108485,5159
905.376,1.326107,121306,5725
909.237,1.329637,131909,6175
913.095,1.316954,143299,6907
916.948,1.314922,156982,7602
922.079,1.322850,179937,8556
925.923,1.326278,200504,9459
929.762,1.322746,222660,10590
933.597,1.298878,244426,12282
937.427,1.316798,263972,12728
941.254,1.325441,281845,13322
945.076,1.323226,297271,14123
950.165,1.309008,315605,15493
953.978,1.308817,328029,16110
957.786,1.299744,340470,17074
961.59,1.310144,352317,17250
965.389,1.310164,363056,17775
969.185,1.297716,373162,18801
972.976,1.294353,382632,19428
976.763,1.317182,391202,18846
981.806,1.304221,400190,19863
985.583,1.304776,406088,20130
989.355,1.308788,410162,20145
993.124,1.311666,412868,20144
996.888,1.307774,414263,20394
1000.65,1.298483,415476,20896
1004.4,1.304303,415479,20618
1009.41,1.299020,414358,20814
1013.15,1.311422,412923,20158
1016.89,1.314454,411526,19950
1020.63,1.297989,409066,20597
1024.36,1.314626,406777,19712
1028.09,1.299858,404427,20276
1031.82,1.307026,401911,19820
1036.78,1.304499,398410,19762
1040.49,1.305729,396204,19597
1044.2,1.305811,394236,19496
1047.91,1.301431,392042,19584
1051.61,1.308812,389823,19145
1055.31,1.313161,388234,18877
1059,1.304810,387599,19212
1063.92,1.305623,386688,19131
1067.61,1.312917,386598,18808
1071.29,1.322444,387377,18437
1074.96,1.315620,388536,18785
1078.63,1.316307,389855,18819
1082.3,1.315219,391215,18932
1085.96,1.312393,393215,19153
1090.84,1.322749,396270,18847
1094.49,1.310588,398760,19504
1098.14,1.301168,400987,20043
1101.79,1.303250,403477,20071
1105.43,1.317503,406116,19550
1109.06,1.319284,407701,19546
1112.7,1.305010,409859,20306
1117.53,1.305447,412494,20416
1121.15,1.312903,414909,20186
1124.77,1.316870,416559,20082
1128.38,1.305360,418532,20719
1131.99,1.313148,419956,20420
1135.6,1.311453,421946,20597
1139.2,1.317380,423881,20411
1143.99,1.314303,426786,20697
1147.58,1.312069,428617,20893
1151.17,1.316793,431169,20790
1154.75,1.322653,433579,20626
1158.33,1.312799,436264,21230
1161.91,1.318807,439132,21076
1165.48,1.312720,442389,21532
1169.04,1.317318,446101,21484
1173.79,1.314785,451929,21892
1177.34,1.312832,456026,22190
1180.9,1.307963,461306,22700
1184.44,1.314361,467657,22676
1187.99,1.315933,473969,22899
1191.52,1.318874,479856,23027
1195.06,1.323422,487372,23144
1199.76,1.318734,497347,23874
1203.29,1.322922,504311,23976
1206.81,1.315750,511507,24723
1210.33,1.316616,519078,25039
1213.84,1.320407,527163,25208
1217.35,1.312954,534208,25987
1220.85,1.319541,540472,25896
1225.51,1.317421,549929,26478
1229.01,1.320397,556888,26630
1232.5,1.329144,562180,26347
1235.98,1.313436,567975,27599
1239.46,1.321793,574815,27399
1242.94,1.316012,582782,28151
1246.41,1.316620,591476,28531
1251.03,1.313840,604016,29323
1254.5,1.320623,612289,29264
1257.96,1.318306,619125,29749
1261.41,1.317767,624551,30047
1264.86,1.317442,629900,30327
1268.31,1.325335,634345,29991
1271.75,1.328756,638574,29954
1276.33,1.318055,642499,30890
1279.76,1.320576,645905,30874
1283.19,1.321190,648307,30945
1286.61,1.322789,650446,30933
1290.03,1.327806,652132,30657
1293.44,1.324379,653907,30984
1296.85,1.322767,655963,31197
1301.39,1.322571,657349,31277
1304.8,1.329017,657558,30826
1308.19,1.319594,658515,31548
1311.58,1.325033,658804,31169
1314.97,1.330243,659011,30807
1318.36,1.326470,658272,31041
1321.73,1.324462,658022,31173
1326.23,1.325757,657870,31073
1329.6,1.329236,656482,30760
1332.97,1.322079,654926,31197
1336.33,1.328584,653727,30677
1339.69,1.334759,652497,30187
1343.04,1.330439,649913,30368
1346.39,1.325690,647671,30596
1349.73,1.322408,645338,30717
1354.18,1.320986,641175,30619
1357.52,1.326409,638376,30107
1360.85,1.328642,635805,29832
1364.17,1.322328,633413,30155
1367.49,1.317717,631026,30362
1370.81,1.319962,628050,30063
1374.12,1.324011,625034,29641
1378.54,1.326560,620272,29243
1381.84,1.322187,616892,29378
1385.14,1.321858,613613,29244
1388.43,1.324212,611526,28987
1391.72,1.328041,610663,28692
1395.01,1.321709,610634,29112
1398.29,1.330385,611700,28586
1402.66,1.329944,614051,28725
1405.93,1.321024,616268,29427
1409.2,1.327564,617795,29059
1412.46,1.330853,618872,28890
1415.72,1.327729,619795,29142
1418.98,1.327326,620495,29202
1422.23,1.328752,621087,29134
1426.56,1.332035,621375,28928
1429.8,1.328764,621616,29158
1433.04,1.327517,622129,29266
1436.27,1.325703,621526,29360
1439.5,1.327624,621113,29211
1442.72,1.329472,620921,29078
1445.94,1.332751,620270,28829
1450.23,1.323378,618860,29391
1453.44,1.330118,617697,28884
1456.64,1.328433,616264,28929
1459.85,1.332961,614413,28543
1463.04,1.330072,612307,28635
1466.24,1.331652,610032,28425
1469.43,1.332171,607345,28266
1473.67,1.324504,603789,28601
1476.85,1.326785,601175,28328
1480.02,1.329771,597737,27973
1483.19,1.326870,594479,28007
1486.36,1.321524,591232,28199
1489.52,1.338823,587853,26943
1492.68,1.332870,583875,27130
1496.89,1.338319,578062,26525
1500.03,1.335688,574159,26506
1503.18,1.333896,570285,26436
1506.32,1.334304,565444,26187
1509.45,1.342482,560571,25477
1512.58,1.331350,555821,25917
1515.71,1.333720,550344,25522
1519.87,1.334823,543983,25163
1522.99,1.339846,538764,24635
1526.1,1.335439,533692,24652
1529.21,1.328592,527902,24772
1532.32,1.333402,521886,24220
1535.42,1.333958,515888,23911
1538.51,1.331366,509987,23779
1541.6,1.328581,503936,23648
1545.72,1.327578,494694,23268
1548.8,1.331279,488378,22776
1551.88,1.327310,481832,22677
1554.95,1.337252,474989,21849
1558.02,1.333297,467818,21716
1561.08,1.334659,460730,21320
1564.15,1.326784,454170,21401
1568.22,1.340214,444181,20293
1571.27,1.328887,436947,20490
1574.32,1.329326,429598,20125
1577.36,1.341418,422039,19228
1580.4,1.336815,414375,19080
1583.43,1.325920,406354,19186
1586.46,1.327794,398475,18733
1590.49,1.329453,388982,18217
1593.51,1.324982,380708,18014
1596.53,1.314962,372727,18048
1599.54,1.327291,365060,17182
1602.55,1.321298,357543,17062
1605.55,1.320179,349495,16721
1608.55,1.317445,341154,16425
1612.54,1.322662,330877,15740
1615.53,1.322315,322904,15373
1618.51,1.320271,315116,15073
1621.49,1.309995,307217,15047
1624.47,1.319215,299481,14360
1627.44,1.316176,292112,14105
1630.41,1.312745,284245,13834
1634.36,1.312818,274079,13337
1637.32,1.310332,266916,13063
1640.27,1.316512,259612,12526
1643.22,1.307921,251804,12392
1646.16,1.298492,244348,12289
1649.1,1.300962,236703,11837
1652.04,1.293653,228171,11604
1655.95,1.293055,215408,10970
1658.88,1.282074,204937,10704
1661.8,1.274283,193395,10284
1664.72,1.260607,179728,9863
1667.63,1.244852,163642,9312
1670.54,1.243282,146312,8356
1673.44,1.212542,128451,7874
1677.31,1.185639,105080,6853
1680.21,1.165671,88906,6071
1683.1,1.173771,75033,5029
1685.99,1.127499,63520,4736
1688.87,1.170061,53714,3631
1691.75,1.162263,45653,3142
1694.62,1.112581,39137,3020
1697.49,1.162746,33776,2322
1701.31,1.094029,28175,2269