File: ML/samples/unknown/Column 1_078401_20241121_170052.csv
Method:,Column 1,,
Host Date-Time:,21/11/24 @ 17:0:52,,
Header Version:,1,,
System Temp (C):,34.7,,
Detector Temp (C):,33.88,,
Humidity (%):,2.45,,
Lamp PD:,3803,,
Shift Vector Coefficients:,-10.5391,0.0761263,-0.000134223,,
Pixel to Wavelength Coefficients:,1775.68,-0.916766,-0.000235065,,
Serial Number:,5510004,,
Scan Config Name:,Column 1,,
Scan Config Type:,Slew,,
Section 1,,
Start wavelength (nm):,900,,
End wavelength (nm):,1700,,
Pattern Pixel Width (nm):,   7.03,,,,
Exposure (ms):,  0.635,,,,
Digital Resolution:,228,,
Num Repeats:,6,,
PGA Gain:,64,,
Total Measurement Time in sec:,  2.727,,
Wavelength (nm),Absorbance (AU),Reference Signal (unitless),Sample Signal (unitless)
901.51,1.331048,108485,5062
905.376,1.351489,121306,5400
909.237,1.325996,131909,6227
913.095,1.326104,143299,6763
916.948,1.328206,156982,7373
922.079,1.318808,179937,8636
925.923,1.329319,200504,9393
929.762,1.312333,222660,10847
933.597,1.324589,244426,11576
937.427,1.322015,263972,12576
941.254,1.320836,281845,13464
945.076,1.317756,297271,14302
950.165,1.327769,315605,14838
953.978,1.322955,328029,15594
957.786,1.321680,340470,16233
961.59,1.322012,352317,16785
965.389,1.314461,363056,17600
969.185,1.310492,373162,18256
972.976,1.310591,382632,18715
976.763,1.314036,391202,18983
981.806,1.310498,400190,19578
985.583,1.307894,406088,19986
989.355,1.309176,410162,20127
993.124,1.309644,412868,20238
996.888,1.313864,414263,20110
1000.65,1.306792,415476,20500
1004.4,1.308706,415479,20410
1009.41,1.304374,414358,20559
1013.15,1.311400,412923,20159
1016.89,1.316331,411526,19864
1020.63,1.306378,409066,20203
1024.36,1.312911,406777,19790
1028.09,1.309934,404427,19811
1031.82,1.312118,401911,19589
1036.78,1.310162,398410,19506
1040.49,1.311642,396204,19332
1044.2,1.315725,394236,19056
1047.91,1.306809,392042,19343
1051.61,1.312983,389823,18962
1055.31,1.313874,388234,18846
1059,1.315358,387599,18751
1063.92,1.316356,386688,18664
1067.61,1.317630,386598,18605
1071.29,1.314716,387377,18768
1074.96,1.318752,388536,18650
1078.63,1.315615,389855,18849
1082.3,1.316736,391215,18866
1085.96,1.317663,393215,18922
1090.84,1.312546,396270,19295
1094.49,1.323515,398760,18932
1098.14,1.314278,400987,19447
1101.79,1.318398,403477,19383
1105.43,1.322373,406116,19332
1109.06,1.320931,407701,19472
1112.7,1.319626,409859,19634
1117.53,1.317351,412494,19864
1121.15,1.319449,414909,19884
1124.77,1.318386,416559,20012
1128.38,1.314040,418532,20309
1131.99,1.311895,419956,20479
1135.6,1.323034,421946,20055
1139.2,1.322495,423881,20172
1143.99,1.320410,426786,20408
1147.58,1.325409,428617,20261
1151.17,1.315854,431169,20835
1154.75,1.319026,433579,20799
1158.33,1.314829,436264,21131
1161.91,1.326142,439132,20723
1165.48,1.320166,442389,21166
1169.04,1.321115,446101,21297
1173.79,1.315023,451929,21880
1177.34,1.321351,456026,21759
1180.9,1.323386,461306,21908
1184.44,1.321253,467657,22319
1187.99,1.323317,473969,22513
1191.52,1.315979,479856,23181
1195.06,1.318719,487372,23396
1199.76,1.330218,497347,23251
1203.29,1.322976,504311,23973
1206.81,1.321586,511507,24393
1210.33,1.323169,519078,24664
1213.84,1.326147,527163,24877
1217.35,1.320336,534208,25549
1220.85,1.321372,540472,25787
1225.51,1.327393,549929,25877
1229.01,1.323424,556888,26445
1232.5,1.324879,562180,26607
1235.98,1.326357,567975,26790
1239.46,1.322047,574815,27383
1242.94,1.326695,582782,27467
1246.41,1.318191,591476,28428
1251.03,1.330753,604016,28203
1254.5,1.329605,612289,28665
1257.96,1.326395,619125,29200
1261.41,1.333110,624551,29004
1264.86,1.332552,629900,29290
1268.31,1.326538,634345,29908
1271.75,1.329075,638574,29932
1276.33,1.332390,642499,29887
1279.76,1.328511,645905,30315
1283.19,1.326755,648307,30551
1286.61,1.328897,650446,30501
1290.03,1.327324,652132,30691
1293.44,1.328731,653907,30675
1296.85,1.336140,655963,30251
1301.39,1.332643,657349,30560
1304.8,1.333677,657558,30497
1308.19,1.331880,658515,30668
1311.58,1.331137,658804,30734
1314.97,1.332590,659011,30641
1318.36,1.327647,658272,30957
1321.73,1.332108,658022,30629
1326.23,1.331285,657870,30680
1329.6,1.334993,656482,30355
1332.97,1.328022,654926,30773
1336.33,1.331111,653727,30499
1339.69,1.336936,652497,30036
1343.04,1.331958,649913,30262
1346.39,1.333553,647671,30047
1349.73,1.332637,645338,30002
1354.18,1.329494,641175,30025
1357.52,1.327594,638376,30025
1360.85,1.330407,635805,29711
1364.17,1.335843,633413,29231
1367.49,1.326779,631026,29735
1370.81,1.327275,628050,29561
1374.12,1.328532,625034,29334
1378.54,1.326620,620272,29239
1381.84,1.332948,616892,28659
1385.14,1.330952,613613,28638
1388.43,1.332974,611526,28408
1391.72,1.327768,610663,28710
1395.01,1.326072,610634,28821
1398.29,1.331252,611700,28529
1402.66,1.332188,614051,28577
1405.93,1.337600,616268,28325
1409.2,1.332902,617795,28704
1412.46,1.332963,618872,28750
1415.72,1.337357,619795,28503
1418.98,1.333406,620495,28796
1422.23,1.335089,621087,28712
1426.56,1.337413,621375,28572
1429.8,1.338647,621616,28502
1433.04,1.331078,622129,29027
1436.27,1.333856,621526,28814
1439.5,1.338997,621113,28456
1442.72,1.332575,620921,28871
1445.94,1.333581,620270,28774
1450.23,1.337434,618860,28455
1453.44,1.336480,617697,28464
1456.64,1.332430,616264,28664
1459.85,1.335479,614413,28378
1463.04,1.339594,612307,28014
1466.24,1.341714,610032,27774
1469.43,1.339219,607345,27811
1473.67,1.342501,603789,27440
1476.85,1.337746,601175,27622
1480.02,1.333263,597737,27749
1483.19,1.335341,594479,27466
1486.36,1.332899,591232,27470
1489.52,1.342627,587853,26708
1492.68,1.342010,583875,26565
1496.89,1.341194,578062,26350
1500.03,1.341345,574159,26163
1503.18,1.335757,570285,26323
1506.32,1.340888,565444,25793
1509.45,1.340153,560571,25614
1512.58,1.336424,555821,25616
1515.71,1.338390,550344,25249
1519.87,1.338376,543983,24958
1522.99,1.337455,538764,24771
1526.1,1.338107,533692,24501
1529.21,1.335342,527902,24390
1532.32,1.343121,521886,23684
1535.42,1.337825,515888,23699
1538.51,1.341360,509987,23238
1541.6,1.337337,503936,23176
1545.72,1.343624,494694,22424
1548.8,1.330212,488378,22832
1551.88,1.335136,481832,22272
1554.95,1.337908,474989,21816
1558.02,1.336146,467818,21574
1561.08,1.328912,460730,21604
1564.15,1.329124,454170,21286
1568.22,1.334685,444181,20553
1571.27,1.341750,436947,19892
1574.32,1.339633,429598,19653
1577.36,1.329060,422039,19783
1580.4,1.340059,414375,18938
1583.43,1.328827,406354,19058
1586.46,1.333887,398475,18472
1590.49,1.336398,388982,17928
1593.51,1.327545,380708,17908
1596.53,1.330517,372727,17413
1599.54,1.327063,365060,17191
1602.55,1.334662,357543,16545
1605.55,1.325116,349495,16532
1608.55,1.328451,341154,16014
1612.54,1.322607,330877,15742
1615.53,1.339252,322904,14785
1618.51,1.329620,315116,14752
1621.49,1.321252,307217,14662
1624.47,1.326442,299481,14123
1627.44,1.316731,292112,14087
1630.41,1.325455,284245,13435
1634.36,1.322066,274079,13056
1637.32,1.324799,266916,12635
1640.27,1.325268,259612,12276
1643.22,1.323186,251804,11964
1646.16,1.322130,244348,11638
1649.1,1.307952,236703,11648
1652.04,1.313094,228171,11096
1655.95,1.291948,215408,10998
1658.88,1.307557,204937,10094
1661.8,1.295485,193395,9794
1664.72,1.274840,179728,9545
1667.63,1.264505,163642,8900
1670.54,1.282983,146312,7626
1673.44,1.235359,128451,7471
1677.31,1.208006,105080,6509
1680.21,1.204560,88906,5551
1683.1,1.175761,75033,5006
1685.99,1.175340,63520,4242
1688.87,1.192520,53714,3448
1691.75,1.148656,45653,3242
1694.62,1.197436,39137,2484
1697.49,1.259329,33776,1859
1701.31,1.118639,28175,2144