File: ML/samples/unknown/Column 1_078975_20241121_173113.csv
Method:,Column 1,,
Host Date-Time:,21/11/24 @ 17:31:13,,
Header Version:,1,,
System Temp (C):,37.65,,
Detector Temp (C):,36.88,,
Humidity (%):,0.48,,
Lamp PD:,3795,,
Shift Vector Coefficients:,-10.5391,0.0761263,-0.000134223,,
Pixel to Wavelength Coefficients:,1775.68,-0.916766,-0.000235065,,
Serial Number:,5510004,,
Scan Config Name:,Column 1,,
Scan Config Type:,Slew,,
Section 1,,
Start wavelength (nm):,900,,
End wavelength (nm):,1700,,
Pattern Pixel Width (nm):,   7.03,,,,
Exposure (ms):,  0.635,,,,
Digital Resolution:,228,,
Num Repeats:,6,,
PGA Gain:,64,,
Total Measurement Time in sec:,  2.725,,
Wavelength (nm),Absorbance (AU),Reference Signal (unitless),Sample Signal (unitless)
901.51,1.322973,108485,5157
905.376,1.334146,121306,5620
909.237,1.317432,131909,6351
913.095,1.325847,143299,6767
916.948,1.310545,156982,7679
922.079,1.308963,179937,8834
925.923,1.324125,200504,9506
929.762,1.330692,222660,10398
933.597,1.333611,244426,11338
937.427,1.312114,263972,12866
941.254,1.320933,281845,13461
945.076,1.315303,297271,14383
950.165,1.306298,315605,15590
953.978,1.297876,328029,16521
957.786,1.320024,340470,16295
961.59,1.314522,352317,17077
965.389,1.313303,363056,17647
969.185,1.313236,373162,18141
972.976,1.303228,382632,19035
976.763,1.303548,391202,19447
981.806,1.305996,400190,19782
985.583,1.307482,406088,20005
989.355,1.292082,410162,20935
993.124,1.306842,412868,20369
996.888,1.305798,414263,20487
1000.65,1.307725,415476,20456
1004.4,1.302873,415479,20686
1009.41,1.305177,414358,20521
1013.15,1.303247,412923,20541
1016.89,1.305790,411526,20352
1020.63,1.309657,409066,20051
1024.36,1.303661,406777,20216
1028.09,1.312131,404427,19711
1031.82,1.310944,401911,19642
1036.78,1.311187,398410,19460
1040.49,1.303651,396204,19691
1044.2,1.311777,394236,19230
1047.91,1.306315,392042,19365
1051.61,1.322570,389823,18548
1055.31,1.315074,388234,18794
1059,1.309789,387599,18993
1063.92,1.310623,386688,18912
1067.61,1.306385,386598,19093
1071.29,1.308832,387377,19024
1074.96,1.306854,388536,19168
1078.63,1.304312,389855,19346
1082.3,1.304233,391215,19417
1085.96,1.301002,393215,19662
1090.84,1.313741,396270,19242
1094.49,1.310855,398760,19492
1098.14,1.317483,400987,19304
1101.79,1.321117,403477,19262
1105.43,1.312095,406116,19795
1109.06,1.311904,407701,19881
1112.7,1.320201,409859,19608
1117.53,1.311790,412494,20120
1121.15,1.305099,414909,20552
1124.77,1.316221,416559,20112
1128.38,1.313164,418532,20350
1131.99,1.325531,419956,19846
1135.6,1.318682,421946,20257
1139.2,1.313841,423881,20578
1143.99,1.317462,426786,20547
1147.58,1.314152,428617,20793
1151.17,1.319580,431169,20657
1154.75,1.310999,433579,21187
1158.33,1.311309,436264,21303
1161.91,1.315911,439132,21217
1165.48,1.317690,442389,21287
1169.04,1.315120,446101,21593
1173.79,1.314467,451929,21908
1177.34,1.316113,456026,22023
1180.9,1.312058,461306,22487
1184.44,1.316300,467657,22575
1187.99,1.314513,473969,22974
1191.52,1.310283,479856,23487
1195.06,1.320169,487372,23318
1199.76,1.321966,497347,23697
1203.29,1.315861,504311,24369
1206.81,1.324158,511507,24249
1210.33,1.325659,519078,24523
1213.84,1.316155,527163,25456
1217.35,1.323801,534208,25346
1220.85,1.320767,540472,25823
1225.51,1.326253,549929,25945
1229.01,1.329960,556888,26050
1232.5,1.313474,562180,27315
1235.98,1.315202,567975,27487
1239.46,1.329018,574815,26947
1242.94,1.322666,582782,27723
1246.41,1.322212,591476,28166
1251.03,1.320647,604016,28867
1254.5,1.322422,612289,29143
1257.96,1.326961,619125,29162
1261.41,1.323573,624551,29648
1264.86,1.323542,629900,29904
1268.31,1.327148,634345,29866
1271.75,1.325276,638574,30195
1276.33,1.318758,642499,30840
1279.76,1.324845,645905,30572
1283.19,1.324798,648307,30689
1286.61,1.327788,650446,30579
1290.03,1.323352,652132,30973
1293.44,1.333071,653907,30370
1296.85,1.328047,655963,30820
1301.39,1.332984,657349,30536
1304.8,1.331915,657558,30621
1308.19,1.328017,658515,30942
1311.58,1.334741,658804,30480
1314.97,1.326398,659011,31081
1318.36,1.335503,658272,30402
1321.73,1.326501,658022,31027
1326.23,1.329307,657870,30820
1329.6,1.325763,656482,31007
1332.97,1.331167,654926,30551
1336.33,1.327043,653727,30786
1339.69,1.332549,652497,30341
1343.04,1.331771,649913,30275
1346.39,1.326315,647671,30552
1349.73,1.327800,645338,30338
1354.18,1.326567,641175,30228
1357.52,1.324308,638376,30253
1360.85,1.322426,635805,30262
1364.17,1.330175,633413,29615
1367.49,1.328345,631026,29628
1370.81,1.324829,628050,29728
1374.12,1.326730,625034,29456
1378.54,1.328674,620272,29101
1381.84,1.322172,616892,29379
1385.14,1.329362,613613,28743
1388.43,1.325728,611526,28886
1391.72,1.324243,610663,28944
1395.01,1.325094,610634,28886
1398.29,1.323198,611700,29063
1402.66,1.320389,614051,29364
1405.93,1.326205,616268,29078
1409.2,1.326593,617795,29124
1412.46,1.332133,618872,28805
1415.72,1.332901,619795,28797
1418.98,1.331030,620495,28954
1422.23,1.332390,621087,28891
1426.56,1.325760,621375,29349
1429.8,1.329734,621616,29093
1433.04,1.333268,622129,28881
1436.27,1.334399,621526,28778
1439.5,1.329382,621113,29093
1442.72,1.331898,620921,28916
1445.94,1.331833,620270,28890
1450.23,1.328267,618860,29062
1453.44,1.330073,617697,28887
1456.64,1.331159,616264,28748
1459.85,1.334027,614413,28473
1463.04,1.331957,612307,28511
1466.24,1.334642,610032,28230
1469.43,1.335394,607345,28057
1473.67,1.335297,603789,27899
1476.85,1.332060,601175,27986
1480.02,1.335161,597737,27628
1483.19,1.340719,594479,27128
1486.36,1.325563,591232,27938
1489.52,1.332502,587853,27338
1492.68,1.330587,583875,27273
1496.89,1.329679,578062,27058
1500.03,1.333645,574159,26631
1503.18,1.331880,570285,26559
1506.32,1.338453,565444,25938
1509.45,1.339492,560571,25653
1512.58,1.334343,555821,25739
1515.71,1.334367,550344,25484
1519.87,1.331128,543983,25378
1522.99,1.330360,538764,25179
1526.1,1.334137,533692,24726
1529.21,1.337501,527902,24269
1532.32,1.330435,521886,24386
1535.42,1.349621,515888,23064
1538.51,1.336454,509987,23502
1541.6,1.336214,503936,23236
1545.72,1.325195,494694,23396
1548.8,1.335109,488378,22576
1551.88,1.340433,481832,22002
1554.95,1.325545,474989,22446
1558.02,1.335422,467818,21610
1561.08,1.335148,460730,21296
1564.15,1.333224,454170,21086
1568.22,1.334136,444181,20579
1571.27,1.329438,436947,20464
1574.32,1.338618,429598,19699
1577.36,1.335518,422039,19491
1580.4,1.324252,414375,19640
1583.43,1.334724,406354,18801
1586.46,1.330585,398475,18613
1590.49,1.331580,388982,18128
1593.51,1.329904,380708,17811
1596.53,1.328725,372727,17485
1599.54,1.329724,365060,17086
1602.55,1.324723,357543,16928
1605.55,1.328438,349495,16406
1608.55,1.301761,341154,17029
1612.54,1.328831,330877,15518
1615.53,1.327458,322904,15192
1618.51,1.319062,315116,15115
1621.49,1.326497,307217,14486
1624.47,1.323073,299481,14233
1627.44,1.326963,292112,13759
1630.41,1.329026,284245,13325
1634.36,1.308186,274079,13480
1637.32,1.315314,266916,12914
1640.27,1.312921,259612,12630
1643.22,1.306871,251804,12422
1646.16,1.294622,244348,12399
1649.1,1.306872,236703,11677
1652.04,1.312234,228171,11118
1655.95,1.309228,215408,10569
1658.88,1.288903,204937,10537
1661.8,1.286619,193395,9996
1664.72,1.264232,179728,9781
1667.63,1.243083,163642,9350
1670.54,1.220649,146312,8803
1673.44,1.194977,128451,8199
1677.31,1.159568,105080,7277
1680.21,1.153746,88906,6240
1683.1,1.136789,75033,5476
1685.99,1.118424,63520,4836
1688.87,1.106218,53714,4206
1691.75,1.091033,45653,3702
1694.62,1.071449,39137,3320
1697.49,1.131886,33776,2493
1701.31,1.098648,28175,2245