File: ML/samples/unknown/Column 1_078045_20241121_164247.csv
Method:,Column 1,,
Host Date-Time:,21/11/24 @ 16:42:47,,
Header Version:,1,,
System Temp (C):,30.63,,
Detector Temp (C):,25.41,,
Humidity (%):,5.41,,
Lamp PD:,3810,,
Shift Vector Coefficients:,-10.5391,0.0761263,-0.000134223,,
Pixel to Wavelength Coefficients:,1775.68,-0.916766,-0.000235065,,
Serial Number:,5510004,,
Scan Config Name:,Column 1,,
Scan Config Type:,Slew,,
Section 1,,
Start wavelength (nm):,900,,
End wavelength (nm):,1700,,
Pattern Pixel Width (nm):,   7.03,,,,
Exposure (ms):,  0.635,,,,
Digital Resolution:,228,,
Num Repeats:,6,,
PGA Gain:,64,,
Total Measurement Time in sec:,  2.677,,
Wavelength (nm),Absorbance (AU),Reference Signal (unitless),Sample Signal (unitless)
901.51,1.312900,108485,5278
905.376,1.308272,121306,5965
909.237,1.304896,131909,6537
913.095,1.309597,143299,7025
916.948,1.324744,156982,7432
922.079,1.320016,179937,8612
925.923,1.309260,200504,9837
929.762,1.311213,222660,10875
933.597,1.307846,244426,12031
937.427,1.320223,263972,12628
941.254,1.310100,281845,13801
945.076,1.308681,297271,14604
950.165,1.312159,315605,15381
953.978,1.313206,328029,15948
957.786,1.317367,340470,16395
961.59,1.311102,352317,17212
965.389,1.312418,363056,17683
969.185,1.311135,373162,18229
972.976,1.309572,382632,18759
976.763,1.309122,391202,19199
981.806,1.309368,400190,19629
985.583,1.308721,406088,19948
989.355,1.315939,410162,19816
993.124,1.323644,412868,19596
996.888,1.311624,414263,20214
1000.65,1.310879,415476,20308
1004.4,1.309345,415479,20380
1009.41,1.320075,414358,19829
1013.15,1.315600,412923,19965
1016.89,1.303216,411526,20473
1020.63,1.307432,409066,20154
1024.36,1.315685,406777,19664
1028.09,1.308380,404427,19882
1031.82,1.321916,401911,19152
1036.78,1.308296,398410,19590
1040.49,1.306395,396204,19567
1044.2,1.322848,394236,18746
1047.91,1.319776,392042,18774
1051.61,1.310175,389823,19085
1055.31,1.309176,388234,19051
1059,1.313648,387599,18825
1063.92,1.314336,386688,18751
1067.61,1.318237,386598,18579
1071.29,1.309883,387377,18978
1074.96,1.315112,388536,18807
1078.63,1.308553,389855,19158
1082.3,1.314211,391215,18976
1085.96,1.319042,393215,18862
1090.84,1.321782,396270,18889
1094.49,1.322690,398760,18968
1098.14,1.314099,400987,19455
1101.79,1.320306,403477,19298
1105.43,1.313743,406116,19720
1109.06,1.322898,407701,19384
1112.7,1.318609,409859,19680
1117.53,1.326855,412494,19434
1121.15,1.317423,414909,19977
1124.77,1.331785,416559,19404
1128.38,1.321264,418532,19974
1131.99,1.322500,419956,19985
1135.6,1.316991,421946,20336
1139.2,1.322280,423881,20182
1143.99,1.317335,426786,20553
1147.58,1.321249,428617,20456
1151.17,1.333639,431169,19999
1154.75,1.324531,433579,20537
1158.33,1.323297,436264,20723
1161.91,1.312344,439132,21392
1165.48,1.319612,442389,21193
1169.04,1.321156,446101,21295
1173.79,1.311898,451929,22038
1177.34,1.323652,456026,21644
1180.9,1.316288,461306,22269
1184.44,1.324064,467657,22175
1187.99,1.325308,473969,22410
1191.52,1.315380,479856,23213
1195.06,1.322747,487372,23180
1199.76,1.320630,497347,23770
1203.29,1.329731,504311,23603
1206.81,1.321604,511507,24392
1210.33,1.326616,519078,24469
1213.84,1.328493,527163,24743
1217.35,1.325931,534208,25222
1220.85,1.326437,540472,25488
1225.51,1.327661,549929,25861
1229.01,1.326142,556888,26280
1232.5,1.329210,562180,26343
1235.98,1.323175,567975,26987
1239.46,1.324816,574815,27209
1242.94,1.324251,582782,27622
1246.41,1.324066,591476,28046
1251.03,1.322607,604016,28737
1254.5,1.329983,612289,28640
1257.96,1.328976,619125,29027
1261.41,1.328137,624551,29338
1264.86,1.331530,629900,29359
1268.31,1.325407,634345,29986
1271.75,1.323898,638574,30291
1276.33,1.328081,642499,30185
1279.76,1.328783,645905,30296
1283.19,1.332580,648307,30144
1286.61,1.325762,650446,30722
1290.03,1.334962,652132,30156
1293.44,1.333043,653907,30372
1296.85,1.332608,655963,30498
1301.39,1.334980,657349,30396
1304.8,1.335632,657558,30360
1308.19,1.336135,658515,30369
1311.58,1.339310,658804,30161
1314.97,1.335149,659011,30461
1318.36,1.331423,658272,30689
1321.73,1.337817,658022,30229
1326.23,1.333556,657870,30520
1329.6,1.340478,656482,29974
1332.97,1.334492,654926,30318
1336.33,1.329405,653727,30619
1339.69,1.335954,652497,30104
1343.04,1.327049,649913,30606
1346.39,1.330730,647671,30243
1349.73,1.330860,645338,30125
1354.18,1.329580,641175,30019
1357.52,1.327970,638376,29999
1360.85,1.332076,635805,29597
1364.17,1.327558,633413,29794
1367.49,1.325642,631026,29813
1370.81,1.328865,628050,29453
1374.12,1.351406,625034,27829
1378.54,1.333009,620272,28812
1381.84,1.325854,616892,29131
1385.14,1.332897,613613,28510
1388.43,1.331204,611526,28524
1391.72,1.329147,610663,28619
1395.01,1.327793,610634,28707
1398.29,1.333465,611700,28384
1402.66,1.327517,614051,28886
1405.93,1.336146,616268,28420
1409.2,1.330970,617795,28832
1412.46,1.334097,618872,28675
1415.72,1.338486,619795,28429
1418.98,1.332939,620495,28827
1422.23,1.338536,621087,28485
1426.56,1.337079,621375,28594
1429.8,1.329898,621616,29082
1433.04,1.331587,622129,28993
1436.27,1.337124,621526,28598
1439.5,1.337823,621113,28533
1442.72,1.334459,620921,28746
1445.94,1.332902,620270,28819
1450.23,1.339591,618860,28314
1453.44,1.340881,617697,28177
1456.64,1.334831,616264,28506
1459.85,1.339183,614413,28137
1463.04,1.342737,612307,27812
1466.24,1.336214,610032,28128
1469.43,1.338298,607345,27870
1473.67,1.339441,603789,27634
1476.85,1.335425,601175,27770
1480.02,1.340300,597737,27303
1483.19,1.340047,594479,27170
1486.36,1.332963,591232,27466
1489.52,1.345073,587853,26558
1492.68,1.342763,583875,26519
1496.89,1.341854,578062,26310
1500.03,1.337395,574159,26402
1503.18,1.338936,570285,26131
1506.32,1.339341,565444,25885
1509.45,1.343865,560571,25396
1512.58,1.342725,555821,25247
1515.71,1.343042,550344,24980
1519.87,1.341765,543983,24764
1522.99,1.342623,538764,24478
1526.1,1.343260,533692,24212
1529.21,1.340536,527902,24100
1532.32,1.338706,521886,23926
1535.42,1.338265,515888,23675
1538.51,1.340856,509987,23265
1541.6,1.334107,503936,23349
1545.72,1.340921,494694,22564
1548.8,1.340763,488378,22284
1551.88,1.336386,481832,22208
1554.95,1.338506,474989,21786
1558.02,1.337033,467818,21530
1561.08,1.341869,460730,20969
1564.15,1.343372,454170,20599
1568.22,1.336824,444181,20452
1571.27,1.331800,436947,20353
1574.32,1.335367,429598,19847
1577.36,1.332964,422039,19606
1580.4,1.343790,414375,18776
1583.43,1.337946,406354,18662
1586.46,1.335394,398475,18408
1590.49,1.335623,388982,17960
1593.51,1.337182,380708,17515
1596.53,1.328775,372727,17483
1599.54,1.330538,365060,17054
1602.55,1.327115,357543,16835
1605.55,1.334140,349495,16192
1608.55,1.341164,341154,15552
1612.54,1.332456,330877,15389
1615.53,1.326488,322904,15226
1618.51,1.339505,315116,14420
1621.49,1.322409,307217,14623
1624.47,1.331359,299481,13964
1627.44,1.321848,292112,13922
1630.41,1.328472,284245,13342
1634.36,1.322465,274079,13044
1637.32,1.314507,266916,12938
1640.27,1.301519,259612,12966
1643.22,1.335969,251804,11617
1646.16,1.341046,244348,11142
1649.1,1.308661,236703,11629
1652.04,1.309198,228171,11196
1655.95,1.307383,215408,10614
1658.88,1.320660,204937,9794
1661.8,1.329797,193395,9050
1664.72,1.326169,179728,8481
1667.63,1.334914,163642,7568
1670.54,1.326305,146312,6902
1673.44,1.297699,128451,6472
1677.31,1.345559,105080,4742
1680.21,1.351236,88906,3960
1683.1,1.335925,75033,3462
1685.99,1.311269,63520,3102
1688.87,1.308319,53714,2641
1691.75,1.293046,45653,2325
1694.62,1.326356,39137,1846
1697.49,1.337716,33776,1552
1701.31,1.380196,28175,1174