File: ML/samples/unknown/Column 1_078208_20241121_165046.csv
Method:,Column 1,,
Host Date-Time:,21/11/24 @ 16:50:46,,
Header Version:,1,,
System Temp (C):,33.92,,
Detector Temp (C):,30.83,,
Humidity (%):,2.94,,
Lamp PD:,3804,,
Shift Vector Coefficients:,-10.5391,0.0761263,-0.000134223,,
Pixel to Wavelength Coefficients:,1775.68,-0.916766,-0.000235065,,
Serial Number:,5510004,,
Scan Config Name:,Column 1,,
Scan Config Type:,Slew,,
Section 1,,
Start wavelength (nm):,900,,
End wavelength (nm):,1700,,
Pattern Pixel Width (nm):,   7.03,,,,
Exposure (ms):,  0.635,,,,
Digital Resolution:,228,,
Num Repeats:,6,,
PGA Gain:,64,,
Total Measurement Time in sec:,  2.727,,
Wavelength (nm),Absorbance (AU),Reference Signal (unitless),Sample Signal (unitless)
901.51,1.307341,108485,5346
905.376,1.302845,121306,6040
909.237,1.305561,131909,6527
913.095,1.304496,143299,7108
916.948,1.322646,156982,7468
922.079,1.300540,179937,9007
925.923,1.305130,200504,9931
929.762,1.319193,222660,10677
933.597,1.302037,244426,12193
937.427,1.322015,263972,12576
941.254,1.318905,281845,13524
945.076,1.314428,297271,14412
950.165,1.321290,315605,15061
953.978,1.317255,328029,15800
957.786,1.302807,340470,16954
961.59,1.304914,352317,17459
965.389,1.309749,363056,17792
969.185,1.303413,373162,18556
972.976,1.310475,382632,18720
976.763,1.309575,391202,19179
981.806,1.315787,400190,19341
985.583,1.312130,406088,19792
989.355,1.301477,410162,20487
993.124,1.314065,412868,20033
996.888,1.306540,414263,20452
1000.65,1.311178,415476,20294
1004.4,1.314037,415479,20161
1009.41,1.311165,414358,20240
1013.15,1.306921,412923,20368
1016.89,1.310726,411526,20122
1020.63,1.304083,409066,20310
1024.36,1.303876,406777,20206
1028.09,1.307355,404427,19929
1031.82,1.317943,401911,19328
1036.78,1.308717,398410,19571
1040.49,1.306461,396204,19564
1044.2,1.300805,394236,19722
1047.91,1.305844,392042,19386
1051.61,1.314498,389823,18896
1055.31,1.303334,388234,19309
1059,1.315845,387599,18730
1063.92,1.317498,386688,18615
1067.61,1.313079,386598,18801
1071.29,1.298589,387377,19478
1074.96,1.306017,388536,19205
1078.63,1.303392,389855,19387
1082.3,1.319345,391215,18753
1085.96,1.314348,393215,19067
1090.84,1.309809,396270,19417
1094.49,1.314008,398760,19351
1098.14,1.319264,400987,19225
1101.79,1.315050,403477,19533
1105.43,1.315067,406116,19660
1109.06,1.320018,407701,19513
1112.7,1.324676,409859,19407
1117.53,1.322387,412494,19635
1121.15,1.318947,414909,19907
1124.77,1.312673,416559,20277
1128.38,1.325217,418532,19793
1131.99,1.318261,419956,20181
1135.6,1.321629,421946,20120
1139.2,1.318146,423881,20375
1143.99,1.325117,426786,20188
1147.58,1.319786,428617,20525
1151.17,1.319875,431169,20643
1154.75,1.315491,433579,20969
1158.33,1.307412,436264,21495
1161.91,1.309249,439132,21545
1165.48,1.322037,442389,21075
1169.04,1.318918,446101,21405
1173.79,1.315341,451929,21864
1177.34,1.318050,456026,21925
1180.9,1.319381,461306,22111
1184.44,1.322402,467657,22260
1187.99,1.315157,473969,22940
1191.52,1.311376,479856,23428
1195.06,1.319016,487372,23380
1199.76,1.326369,497347,23458
1203.29,1.322035,504311,24025
1206.81,1.322942,511507,24317
1210.33,1.319714,519078,24861
1213.84,1.323779,527163,25013
1217.35,1.321903,534208,25457
1220.85,1.320447,540472,25842
1225.51,1.322602,549929,26164
1229.01,1.329510,556888,26077
1232.5,1.321546,562180,26812
1235.98,1.319776,567975,27199
1239.46,1.326190,574815,27123
1242.94,1.324786,582782,27588
1246.41,1.327549,591476,27822
1251.03,1.321038,604016,28841
1254.5,1.320326,612289,29284
1257.96,1.326529,619125,29191
1261.41,1.330631,624551,29170
1264.86,1.325712,629900,29755
1268.31,1.327934,634345,29812
1271.75,1.329293,638574,29917
1276.33,1.325328,642499,30377
1279.76,1.323611,645905,30659
1283.19,1.322047,648307,30884
1286.61,1.325352,650446,30751
1290.03,1.328004,652132,30643
1293.44,1.332157,653907,30434
1296.85,1.330081,655963,30676
1301.39,1.330743,657349,30694
1304.8,1.329299,657558,30806
1308.19,1.332773,658515,30605
1311.58,1.332312,658804,30651
1314.97,1.329905,659011,30831
1318.36,1.332074,658272,30643
1321.73,1.329295,658022,30828
1326.23,1.329068,657870,30837
1329.6,1.335107,656482,30347
1332.97,1.337280,654926,30124
1336.33,1.333710,653727,30317
1339.69,1.329311,652497,30568
1343.04,1.326510,649913,30644
1346.39,1.329568,647671,30324
1349.73,1.329162,645338,30243
1354.18,1.329768,641175,30006
1357.52,1.325573,638376,30165
1360.85,1.335657,635805,29354
1364.17,1.331806,633413,29504
1367.49,1.328052,631026,29648
1370.81,1.327554,628050,29542
1374.12,1.326096,625034,29499
1378.54,1.325063,620272,29344
1381.84,1.335898,616892,28465
1385.14,1.331772,613613,28584
1388.43,1.331722,611526,28490
1391.72,1.324814,610663,28906
1395.01,1.332187,610634,28418
1398.29,1.328309,611700,28723
1402.66,1.333817,614051,28470
1405.93,1.328196,616268,28945
1409.2,1.331120,617795,28822
1412.46,1.327887,618872,29088
1415.72,1.329132,619795,29048
1418.98,1.334463,620495,28726
1422.23,1.329230,621087,29102
1426.56,1.330447,621375,29034
1429.8,1.332189,621616,28929
1433.04,1.337712,622129,28587
1436.27,1.331811,621526,28950
1439.5,1.330413,621113,29024
1442.72,1.334640,620921,28734
1445.94,1.332044,620270,28876
1450.23,1.336961,618860,28486
1453.44,1.335215,617697,28547
1456.64,1.338779,616264,28248
1459.85,1.335264,614413,28392
1463.04,1.330710,612307,28593
1466.24,1.336677,610032,28098
1469.43,1.342558,607345,27598
1473.67,1.339976,603789,27600
1476.85,1.335081,601175,27792
1480.02,1.331373,597737,27870
1483.19,1.333464,594479,27585
1486.36,1.338228,591232,27135
1489.52,1.339387,587853,26908
1492.68,1.335987,583875,26936
1496.89,1.338417,578062,26519
1500.03,1.336689,574159,26445
1503.18,1.336087,570285,26303
1506.32,1.329193,565444,26497
1509.45,1.341920,560571,25510
1512.58,1.339572,555821,25431
1515.71,1.339803,550344,25167
1519.87,1.341817,543983,24761
1522.99,1.335095,538764,24906
1526.1,1.340596,533692,24361
1529.21,1.333405,527902,24499
1532.32,1.343726,521886,23651
1535.42,1.338449,515888,23665
1538.51,1.334445,509987,23611
1541.6,1.338143,503936,23133
1545.72,1.340267,494694,22598
1548.8,1.337153,488378,22470
1551.88,1.329595,481832,22558
1554.95,1.330370,474989,22198
1558.02,1.342248,467818,21273
1561.08,1.335842,460730,21262
1564.15,1.343267,454170,20604
1568.22,1.331464,444181,20706
1571.27,1.332762,436947,20308
1574.32,1.334166,429598,19902
1577.36,1.335340,422039,19499
1580.4,1.336542,414375,19092
1583.43,1.331754,406354,18930
1586.46,1.336410,398475,18365
1590.49,1.335236,388982,17976
1593.51,1.325488,380708,17993
1596.53,1.331516,372727,17373
1599.54,1.329800,365060,17083
1602.55,1.333116,357543,16604
1605.55,1.332053,349495,16270
1608.55,1.322017,341154,16253
1612.54,1.322993,330877,15728
1615.53,1.320398,322904,15441
1618.51,1.331242,315116,14697
1621.49,1.329747,307217,14378
1624.47,1.316952,299481,14435
1627.44,1.320446,292112,13967
1630.41,1.319133,284245,13632
1634.36,1.313241,274079,13324
1637.32,1.309037,266916,13102
1640.27,1.316825,259612,12517
1643.22,1.316093,251804,12161
1646.16,1.310750,244348,11947
1649.1,1.293902,236703,12031
1652.04,1.297600,228171,11499
1655.95,1.299557,215408,10807
1658.88,1.304598,204937,10163
1661.8,1.271757,193395,10344
1664.72,1.291584,179728,9184
1667.63,1.278085,163642,8626
1670.54,1.264094,146312,7965
1673.44,1.267441,128451,6939
1677.31,1.267401,105080,5677
1680.21,1.242384,88906,5088
1683.1,1.218484,75033,4537
1685.99,1.189069,63520,4110
1688.87,1.234821,53714,3128
1691.75,1.213088,45653,2795
1694.62,1.127353,39137,2919
1697.49,1.143538,33776,2427
1701.31,1.181989,28175,1853