File: ML/samples/unknown/Column 1_078244_20241121_165233.csv
Method:,Column 1,,
Host Date-Time:,21/11/24 @ 16:52:33,,
Header Version:,1,,
System Temp (C):,34.15,,
Detector Temp (C):,31.65,,
Humidity (%):,2.44,,
Lamp PD:,3803,,
Shift Vector Coefficients:,-10.5391,0.0761263,-0.000134223,,
Pixel to Wavelength Coefficients:,1775.68,-0.916766,-0.000235065,,
Serial Number:,5510004,,
Scan Config Name:,Column 1,,
Scan Config Type:,Slew,,
Section 1,,
Start wavelength (nm):,900,,
End wavelength (nm):,1700,,
Pattern Pixel Width (nm):,   7.03,,,,
Exposure (ms):,  0.635,,,,
Digital Resolution:,228,,
Num Repeats:,6,,
PGA Gain:,64,,
Total Measurement Time in sec:,  2.706,,
Wavelength (nm),Absorbance (AU),Reference Signal (unitless),Sample Signal (unitless)
901.51,1.335792,108485,5007
905.376,1.354394,121306,5364
909.237,1.326554,131909,6219
913.095,1.364062,143299,6197
916.948,1.318767,156982,7535
922.079,1.349055,179937,8055
925.923,1.337911,200504,9209
929.762,1.320293,222660,10650
933.597,1.323914,244426,11594
937.427,1.323988,263972,12519
941.254,1.320256,281845,13482
945.076,1.314157,297271,14421
950.165,1.324648,315605,14945
953.978,1.314187,328029,15912
957.786,1.314674,340470,16497
961.59,1.315591,352317,17035
965.389,1.313943,363056,17621
969.185,1.320576,373162,17837
972.976,1.327147,382632,18015
976.763,1.312962,391202,19030
981.806,1.317204,400190,19278
985.583,1.313735,406088,19719
989.355,1.316005,410162,19813
993.124,1.315629,412868,19961
996.888,1.317007,414263,19965
1000.65,1.312250,415476,20244
1004.4,1.311053,415479,20300
1009.41,1.317411,414358,19951
1013.15,1.309701,412923,20238
1016.89,1.321322,411526,19637
1020.63,1.313224,409066,19887
1024.36,1.317255,406777,19593
1028.09,1.318994,404427,19402
1031.82,1.311586,401911,19613
1036.78,1.316080,398410,19242
1040.49,1.316795,396204,19104
1044.2,1.312432,394236,19201
1047.91,1.306427,392042,19360
1051.61,1.315257,389823,18863
1055.31,1.318578,388234,18643
1059,1.312542,387599,18873
1063.92,1.317078,386688,18633
1067.61,1.312432,386598,18829
1071.29,1.314115,387377,18794
1074.96,1.324165,388536,18419
1078.63,1.315500,389855,18854
1082.3,1.310632,391215,19133
1085.96,1.321166,393215,18770
1090.84,1.323672,396270,18807
1094.49,1.322187,398760,18990
1098.14,1.329296,400987,18786
1101.79,1.317056,403477,19443
1105.43,1.316993,406116,19573
1109.06,1.315876,407701,19700
1112.7,1.322310,409859,19513
1117.53,1.319851,412494,19750
1121.15,1.326229,414909,19576
1124.77,1.324285,416559,19742
1128.38,1.326228,418532,19747
1131.99,1.316114,419956,20281
1135.6,1.327781,421946,19837
1139.2,1.326388,423881,19992
1143.99,1.318732,426786,20487
1147.58,1.320633,428617,20485
1151.17,1.321287,431169,20576
1154.75,1.322001,433579,20657
1158.33,1.323590,436264,20709
1161.91,1.323302,439132,20859
1165.48,1.324558,442389,20953
1169.04,1.322688,446101,21220
1173.79,1.324941,451929,21386
1177.34,1.320274,456026,21813
1180.9,1.330764,461306,21539
1184.44,1.318208,467657,22476
1187.99,1.320528,473969,22658
1191.52,1.320385,479856,22947
1195.06,1.321419,487372,23251
1199.76,1.323030,497347,23639
1203.29,1.318973,504311,24195
1206.81,1.330963,511507,23872
1210.33,1.332333,519078,24149
1213.84,1.332283,527163,24528
1217.35,1.333767,534208,24771
1220.85,1.329344,540472,25318
1225.51,1.332712,549929,25562
1229.01,1.332703,556888,25886
1232.5,1.321886,562180,26791
1235.98,1.324464,567975,26907
1239.46,1.328277,574815,26993
1242.94,1.325716,582782,27529
1246.41,1.328330,591476,27772
1251.03,1.328204,604016,28369
1254.5,1.327851,612289,28781
1257.96,1.324363,619125,29337
1261.41,1.330453,624551,29182
1264.86,1.333265,629900,29242
1268.31,1.328459,634345,29776
1271.75,1.327829,638574,30018
1276.33,1.331186,642499,29970
1279.76,1.327609,645905,30378
1283.19,1.330037,648307,30321
1286.61,1.333420,650446,30185
1290.03,1.337634,652132,29971
1293.44,1.330192,653907,30572
1296.85,1.336887,655963,30199
1301.39,1.333268,657349,30516
1304.8,1.330202,657558,30742
1308.19,1.338918,658515,30175
1311.58,1.339455,658804,30151
1314.97,1.335106,659011,30464
1318.36,1.338197,658272,30214
1321.73,1.335010,658022,30425
1326.23,1.338119,657870,30201
1329.6,1.336555,656482,30246
1332.97,1.339274,654926,29986
1336.33,1.336023,653727,30156
1339.69,1.337515,652497,29996
1343.04,1.332001,649913,30259
1346.39,1.328524,647671,30397
1349.73,1.329924,645338,30190
1354.18,1.331465,641175,29889
1357.52,1.332891,638376,29661
1360.85,1.334135,635805,29457
1364.17,1.332130,633413,29482
1367.49,1.332129,631026,29371
1370.81,1.335312,628050,29019
1374.12,1.334315,625034,28946
1378.54,1.329346,620272,29056
1381.84,1.331330,616892,28766
1385.14,1.329998,613613,28701
1388.43,1.334920,611526,28281
1391.72,1.323553,610663,28990
1395.01,1.330784,610634,28510
1398.29,1.330735,611700,28563
1402.66,1.332887,614051,28531
1405.93,1.334179,616268,28549
1409.2,1.337281,617795,28416
1412.46,1.332842,618872,28758
1415.72,1.340324,619795,28309
1418.98,1.336099,620495,28618
1422.23,1.337957,621087,28523
1426.56,1.333208,621375,28850
1429.8,1.333572,621616,28837
1433.04,1.335983,622129,28701
1436.27,1.335774,621526,28687
1439.5,1.333929,621113,28790
1442.72,1.333976,620921,28778
1445.94,1.332540,620270,28843
1450.23,1.333620,618860,28706
1453.44,1.338437,617697,28336
1456.64,1.335029,616264,28493
1459.85,1.333052,614413,28537
1463.04,1.336320,612307,28226
1466.24,1.336739,610032,28094
1469.43,1.336991,607345,27954
1473.67,1.338719,603789,27680
1476.85,1.341742,601175,27369
1480.02,1.344198,597737,27059
1483.19,1.339440,594479,27208
1486.36,1.339478,591232,27057
1489.52,1.341118,587853,26801
1492.68,1.341798,583875,26578
1496.89,1.342448,578062,26274
1500.03,1.340565,574159,26210
1503.18,1.339468,570285,26099
1506.32,1.343235,565444,25654
1509.45,1.343199,560571,25435
1512.58,1.344552,555821,25141
1515.71,1.341913,550344,25045
1519.87,1.340294,543983,24848
1522.99,1.340587,538764,24593
1526.1,1.346700,533692,24021
1529.21,1.346049,527902,23796
1532.32,1.342607,521886,23712
1535.42,1.337221,515888,23732
1538.51,1.337824,509987,23428
1541.6,1.341385,503936,22961
1545.72,1.342116,494694,22502
1548.8,1.345761,488378,22029
1551.88,1.337757,481832,22138
1554.95,1.330331,474989,22200
1558.02,1.339521,467818,21407
1561.08,1.336619,460730,21224
1564.15,1.343436,454170,20596
1568.22,1.335234,444181,20527
1571.27,1.341052,436947,19924
1574.32,1.333446,429598,19935
1577.36,1.340538,422039,19267
1580.4,1.349026,414375,18551
1583.43,1.337504,406354,18681
1586.46,1.340664,398475,18186
1590.49,1.340756,388982,17749
1593.51,1.332766,380708,17694
1596.53,1.339692,372727,17049
1599.54,1.339700,365060,16698
1602.55,1.331341,357543,16672
1605.55,1.324905,349495,16540
1608.55,1.321483,341154,16273
1612.54,1.349669,330877,14791
1615.53,1.320792,322904,15427
1618.51,1.335846,315116,14542
1621.49,1.338658,307217,14086
1624.47,1.324356,299481,14191
1627.44,1.327184,292112,13752
1630.41,1.315422,284245,13749
1634.36,1.328702,274079,12858
1637.32,1.317100,266916,12861
1640.27,1.313610,259612,12610
1643.22,1.309712,251804,12341
1646.16,1.315685,244348,11812
1649.1,1.310870,236703,11570
1652.04,1.300252,228171,11429
1655.95,1.320130,215408,10307
1658.88,1.322171,204937,9760
1661.8,1.293936,193395,9829
1664.72,1.308311,179728,8837
1667.63,1.275325,163642,8681
1670.54,1.263495,146312,7976
1673.44,1.261350,128451,7037
1677.31,1.240339,105080,6042
1680.21,1.247190,88906,5032
1683.1,1.189332,75033,4852
1685.99,1.198468,63520,4022
1688.87,1.207904,53714,3328
1691.75,1.171483,45653,3076
1694.62,1.263190,39137,2135
1697.49,1.271410,33776,1808
1701.31,1.237676,28175,1630