File: ML/samples/unknown/Column 1_078807_20241121_172307.csv
Method:,Column 1,,
Host Date-Time:,21/11/24 @ 17:23:7,,
Header Version:,1,,
System Temp (C):,36.75,,
Detector Temp (C):,35.37,,
Humidity (%):,0.68,,
Lamp PD:,3797,,
Shift Vector Coefficients:,-10.5391,0.0761263,-0.000134223,,
Pixel to Wavelength Coefficients:,1775.68,-0.916766,-0.000235065,,
Serial Number:,5510004,,
Scan Config Name:,Column 1,,
Scan Config Type:,Slew,,
Section 1,,
Start wavelength (nm):,900,,
End wavelength (nm):,1700,,
Pattern Pixel Width (nm):,   7.03,,,,
Exposure (ms):,  0.635,,,,
Digital Resolution:,228,,
Num Repeats:,6,,
PGA Gain:,64,,
Total Measurement Time in sec:,  2.718,,
Wavelength (nm),Absorbance (AU),Reference Signal (unitless),Sample Signal (unitless)
901.51,1.314549,108485,5258
905.376,1.303277,121306,6034
909.237,1.280859,131909,6909
913.095,1.296985,143299,7232
916.948,1.318824,156982,7534
922.079,1.298328,179937,9053
925.923,1.326875,200504,9446
929.762,1.307594,222660,10966
933.597,1.322493,244426,11632
937.427,1.321429,263972,12593
941.254,1.301253,281845,14085
945.076,1.306072,297271,14692
950.165,1.323632,315605,14980
953.978,1.309896,328029,16070
957.786,1.302397,340470,16970
961.59,1.311203,352317,17208
965.389,1.299902,363056,18200
969.185,1.306443,373162,18427
972.976,1.309132,382632,18778
976.763,1.308128,391202,19243
981.806,1.303653,400190,19889
985.583,1.293238,406088,20672
989.355,1.303773,410162,20379
993.124,1.300219,412868,20682
996.888,1.300970,414263,20716
1000.65,1.302303,415476,20713
1004.4,1.304429,415479,20612
1009.41,1.307788,414358,20398
1013.15,1.311185,412923,20169
1016.89,1.303853,411526,20443
1020.63,1.294733,409066,20752
1024.36,1.304629,406777,20171
1028.09,1.304726,404427,20050
1031.82,1.304143,401911,19952
1036.78,1.304609,398410,19757
1040.49,1.301407,396204,19793
1044.2,1.304210,394236,19568
1047.91,1.308090,392042,19286
1051.61,1.296445,389823,19698
1055.31,1.303806,388234,19288
1059,1.303073,387599,19289
1063.92,1.310302,386688,18926
1067.61,1.308552,386598,18998
1071.29,1.303590,387377,19255
1074.96,1.305520,388536,19227
1078.63,1.317717,389855,18758
1082.3,1.306701,391215,19307
1085.96,1.314667,393215,19053
1090.84,1.313132,396270,19269
1094.49,1.303498,398760,19825
1098.14,1.311961,400987,19551
1101.79,1.305789,403477,19954
1105.43,1.305670,406116,20090
1109.06,1.316162,407701,19687
1112.7,1.304711,409859,20320
1117.53,1.309121,412494,20244
1121.15,1.307961,414909,20417
1124.77,1.309621,416559,20420
1128.38,1.317626,418532,20142
1131.99,1.305956,419956,20761
1135.6,1.318575,421946,20262
1139.2,1.316848,423881,20436
1143.99,1.312147,426786,20800
1147.58,1.310657,428617,20961
1151.17,1.313982,431169,20925
1154.75,1.310589,433579,21207
1158.33,1.317840,436264,20985
1161.91,1.313767,439132,21322
1165.48,1.314478,442389,21445
1169.04,1.319263,446101,21388
1173.79,1.317791,451929,21741
1177.34,1.309809,456026,22345
1180.9,1.314478,461306,22362
1184.44,1.304421,467657,23201
1187.99,1.312439,473969,23084
1191.52,1.317424,479856,23104
1195.06,1.307233,487372,24023
1199.76,1.315021,497347,24079
1203.29,1.314579,504311,24441
1206.81,1.324516,511507,24229
1210.33,1.317188,519078,25006
1213.84,1.315865,527163,25473
1217.35,1.317980,534208,25688
1220.85,1.311993,540472,26350
1225.51,1.316700,549929,26522
1229.01,1.314645,556888,26985
1232.5,1.314955,562180,27222
1235.98,1.316801,567975,27386
1239.46,1.316610,574815,27728
1242.94,1.320494,582782,27862
1246.41,1.318496,591476,28408
1251.03,1.313278,604016,29361
1254.5,1.313718,612289,29733
1257.96,1.323815,619125,29374
1261.41,1.324599,624551,29578
1264.86,1.323092,629900,29935
1268.31,1.321672,634345,30245
1271.75,1.317338,638574,30752
1276.33,1.322961,642499,30543
1279.76,1.329486,645905,30247
1283.19,1.325563,648307,30635
1286.61,1.324802,650446,30790
1290.03,1.321785,652132,31085
1293.44,1.327233,653907,30781
1296.85,1.328893,655963,30760
1301.39,1.320617,657349,31418
1304.8,1.324811,657558,31126
1308.19,1.325038,658515,31155
1311.58,1.326890,658804,31036
1314.97,1.323848,659011,31264
1318.36,1.325785,658272,31090
1321.73,1.323905,658022,31213
1326.23,1.323999,657870,31199
1329.6,1.326464,656482,30957
1332.97,1.326853,654926,30856
1336.33,1.328753,653727,30665
1339.69,1.323904,652497,30951
1343.04,1.332259,649913,30241
1346.39,1.319363,647671,31045
1349.73,1.322112,645338,30738
1354.18,1.325591,641175,30296
1357.52,1.322446,638376,30383
1360.85,1.328933,635805,29812
1364.17,1.320187,633413,30304
1367.49,1.324013,631026,29925
1370.81,1.321105,628050,29984
1374.12,1.319289,625034,29965
1378.54,1.329406,620272,29052
1381.84,1.322779,616892,29338
1385.14,1.320953,613613,29305
1388.43,1.318201,611526,29391
1391.72,1.321089,610663,29155
1395.01,1.318350,610634,29338
1398.29,1.318916,611700,29351
1402.66,1.322495,614051,29222
1405.93,1.316516,616268,29734
1409.2,1.324555,617795,29261
1412.46,1.326739,618872,29165
1415.72,1.323015,619795,29460
1418.98,1.322387,620495,29536
1422.23,1.328023,621087,29183
1426.56,1.322223,621375,29589
1429.8,1.325751,621616,29361
1433.04,1.326716,622129,29320
1436.27,1.325925,621526,29345
1439.5,1.330339,621113,29029
1442.72,1.328756,620921,29126
1445.94,1.328658,620270,29102
1450.23,1.331462,618860,28849
1453.44,1.334242,617697,28611
1456.64,1.328148,616264,28948
1459.85,1.326437,614413,28975
1463.04,1.331607,612307,28534
1466.24,1.325523,610032,28829
1469.43,1.331572,607345,28305
1473.67,1.326620,603789,28462
1476.85,1.324095,601175,28504
1480.02,1.330408,597737,27932
1483.19,1.330185,594479,27794
1486.36,1.332662,591232,27485
1489.52,1.324927,587853,27819
1492.68,1.333703,583875,27078
1496.89,1.327789,578062,27176
1500.03,1.329845,574159,26865
1503.18,1.329304,570285,26717
1506.32,1.331510,565444,26356
1509.45,1.337146,560571,25792
1512.58,1.332743,555821,25834
1515.71,1.331276,550344,25666
1519.87,1.334754,543983,25167
1522.99,1.334920,538764,24916
1526.1,1.334154,533692,24725
1529.21,1.328049,527902,24803
1532.32,1.329510,521886,24438
1535.42,1.330286,515888,24114
1538.51,1.331914,509987,23749
1541.6,1.325488,503936,23817
1545.72,1.333176,494694,22970
1548.8,1.333266,488378,22672
1551.88,1.330212,481832,22526
1554.95,1.332272,474989,22101
1558.02,1.330387,467818,21862
1561.08,1.337521,460730,21180
1564.15,1.333554,454170,21070
1568.22,1.322928,444181,21117
1571.27,1.325635,436947,20644
1574.32,1.336419,429598,19799
1577.36,1.324975,422039,19970
1580.4,1.321014,414375,19787
1583.43,1.324632,406354,19243
1586.46,1.332127,398475,18547
1590.49,1.332251,388982,18100
1593.51,1.317382,380708,18332
1596.53,1.323516,372727,17696
1599.54,1.319277,365060,17502
1602.55,1.319825,357543,17120
1605.55,1.319193,349495,16759
1608.55,1.327151,341154,16062
1612.54,1.312382,330877,16117
1615.53,1.319527,322904,15472
1618.51,1.325430,315116,14895
1621.49,1.324135,307217,14565
1624.47,1.309762,299481,14676
1627.44,1.321973,292112,13918
1630.41,1.303458,284245,14133
1634.36,1.311192,274079,13387
1637.32,1.325246,266916,12622
1640.27,1.302290,259612,12943
1643.22,1.303632,251804,12515
1646.16,1.312535,244348,11898
1649.1,1.309372,236703,11610
1652.04,1.301508,228171,11396
1655.95,1.306524,215408,10635
1658.88,1.265672,204937,11116
1661.8,1.270206,193395,10381
1664.72,1.264099,179728,9784
1667.63,1.253757,163642,9123
1670.54,1.223719,146312,8741
1673.44,1.195719,128451,8185
1677.31,1.198698,105080,6650
1680.21,1.151664,88906,6270
1683.1,1.138219,75033,5458
1685.99,1.118155,63520,4839
1688.87,1.165185,53714,3672
1691.75,1.151209,45653,3223
1694.62,1.123355,39137,2946
1697.49,1.140152,33776,2446
1701.31,1.129925,28175,2089