File: ML/samples/unknown/Column 1_078240_20241121_165221.csv
Method:,Column 1,,
Host Date-Time:,21/11/24 @ 16:52:21,,
Header Version:,1,,
System Temp (C):,34.07,,
Detector Temp (C):,31.61,,
Humidity (%):,2.6,,
Lamp PD:,3803,,
Shift Vector Coefficients:,-10.5391,0.0761263,-0.000134223,,
Pixel to Wavelength Coefficients:,1775.68,-0.916766,-0.000235065,,
Serial Number:,5510004,,
Scan Config Name:,Column 1,,
Scan Config Type:,Slew,,
Section 1,,
Start wavelength (nm):,900,,
End wavelength (nm):,1700,,
Pattern Pixel Width (nm):,   7.03,,,,
Exposure (ms):,  0.635,,,,
Digital Resolution:,228,,
Num Repeats:,6,,
PGA Gain:,64,,
Total Measurement Time in sec:,  2.726,,
Wavelength (nm),Absorbance (AU),Reference Signal (unitless),Sample Signal (unitless)
901.51,1.313889,108485,5266
905.376,1.303133,121306,6036
909.237,1.332035,131909,6141
913.095,1.332899,143299,6658
916.948,1.312984,156982,7636
922.079,1.321431,179937,8584
925.923,1.312896,200504,9755
929.762,1.329441,222660,10428
933.597,1.325377,244426,11555
937.427,1.318096,263972,12690
941.254,1.323652,281845,13377
945.076,1.313646,297271,14438
950.165,1.324416,315605,14953
953.978,1.324014,328029,15556
957.786,1.310013,340470,16675
961.59,1.317636,352317,16955
965.389,1.307169,363056,17898
969.185,1.313069,373162,18148
972.976,1.313993,382632,18569
976.763,1.308625,391202,19221
981.806,1.304725,400190,19840
985.583,1.309614,406088,19907
989.355,1.312230,410162,19986
993.124,1.309000,412868,20268
996.888,1.313842,414263,20111
1000.65,1.304089,415476,20628
1004.4,1.313736,415479,20175
1009.41,1.311809,414358,20210
1013.15,1.321381,412923,19701
1016.89,1.308058,411526,20246
1020.63,1.318144,409066,19663
1024.36,1.304500,406777,20177
1028.09,1.313102,404427,19667
1031.82,1.309069,401911,19727
1036.78,1.310184,398410,19505
1040.49,1.316545,396204,19115
1044.2,1.316432,394236,19025
1047.91,1.312572,392042,19088
1051.61,1.320072,389823,18655
1055.31,1.322768,388234,18464
1059,1.310911,387599,18944
1063.92,1.315984,386688,18680
1067.61,1.313865,386598,18767
1071.29,1.320071,387377,18538
1074.96,1.314120,388536,18850
1078.63,1.311213,389855,19041
1082.3,1.319994,391215,18725
1085.96,1.322278,393215,18722
1090.84,1.316367,396270,19126
1094.49,1.311123,398760,19480
1098.14,1.330662,400987,18727
1101.79,1.317011,403477,19445
1105.43,1.319574,406116,19457
1109.06,1.319528,407701,19535
1112.7,1.317353,409859,19737
1117.53,1.328826,412494,19346
1121.15,1.313441,414909,20161
1124.77,1.322091,416559,19842
1128.38,1.324012,418532,19848
1131.99,1.322326,419956,19993
1135.6,1.323207,421946,20047
1139.2,1.321012,423881,20241
1143.99,1.327749,426786,20066
1147.58,1.327407,428617,20168
1151.17,1.318698,431169,20699
1154.75,1.326885,433579,20426
1158.33,1.313885,436264,21177
1161.91,1.317038,439132,21162
1165.48,1.323606,442389,20999
1169.04,1.313995,446101,21649
1173.79,1.328079,451929,21232
1177.34,1.324817,456026,21586
1180.9,1.317988,461306,22182
1184.44,1.317243,467657,22526
1187.99,1.320816,473969,22643
1191.52,1.322719,479856,22824
1195.06,1.321624,487372,23240
1199.76,1.319608,497347,23826
1203.29,1.327017,504311,23751
1206.81,1.323603,511507,24280
1210.33,1.326492,519078,24476
1213.84,1.324613,527163,24965
1217.35,1.322023,534208,25450
1220.85,1.323567,540472,25657
1225.51,1.325768,549929,25974
1229.01,1.330260,556888,26032
1232.5,1.325435,562180,26573
1235.98,1.320431,567975,27158
1239.46,1.324209,574815,27247
1242.94,1.323858,582782,27647
1246.41,1.327986,591476,27794
1251.03,1.327929,604016,28387
1254.5,1.331990,612289,28508
1257.96,1.331452,619125,28862
1261.41,1.323968,624551,29621
1264.86,1.331974,629900,29329
1268.31,1.333550,634345,29429
1271.75,1.329467,638574,29905
1276.33,1.335204,642499,29694
1279.76,1.330421,645905,30182
1283.19,1.330338,648307,30300
1286.61,1.331568,650446,30314
1290.03,1.330463,652132,30470
1293.44,1.328873,653907,30665
1296.85,1.328992,655963,30753
1301.39,1.332146,657349,30595
1304.8,1.332142,657558,30605
1308.19,1.334921,658515,30454
1311.58,1.331377,658804,30717
1314.97,1.331556,659011,30714
1318.36,1.331111,658272,30711
1321.73,1.331923,658022,30642
1326.23,1.327493,657870,30949
1329.6,1.328503,656482,30812
1332.97,1.336516,654926,30177
1336.33,1.336224,653727,30142
1339.69,1.331962,652497,30382
1343.04,1.330911,649913,30335
1346.39,1.336105,647671,29871
1349.73,1.333637,645338,29933
1354.18,1.327099,641175,30191
1357.52,1.332349,638376,29698
1360.85,1.336353,635805,29307
1364.17,1.328989,633413,29696
1367.49,1.332410,631026,29352
1370.81,1.332998,628050,29174
1374.12,1.335713,625034,28853
1378.54,1.331955,620272,28882
1381.84,1.327602,616892,29014
1385.14,1.332365,613613,28545
1388.43,1.332394,611526,28446
1391.72,1.332346,610663,28409
1395.01,1.326042,610634,28823
1398.29,1.327538,611700,28774
1402.66,1.327216,614051,28906
1405.93,1.333434,616268,28598
1409.2,1.329481,617795,28931
1412.46,1.331575,618872,28842
1415.72,1.334745,619795,28675
1418.98,1.336069,620495,28620
1422.23,1.339345,621087,28432
1426.56,1.335896,621375,28672
1429.8,1.337430,621616,28582
1433.04,1.332232,622129,28950
1436.27,1.336759,621526,28622
1439.5,1.339226,621113,28441
1442.72,1.336929,620921,28583
1445.94,1.333098,620270,28806
1450.23,1.343443,618860,28064
1453.44,1.333499,617697,28660
1456.64,1.341045,616264,28101
1459.85,1.338088,614413,28208
1463.04,1.339718,612307,28006
1466.24,1.334242,610032,28256
1469.43,1.342086,607345,27628
1473.67,1.339316,603789,27642
1476.85,1.342139,601175,27344
1480.02,1.337746,597737,27464
1483.19,1.344562,594479,26889
1486.36,1.336838,591232,27222
1489.52,1.332248,587853,27354
1492.68,1.338169,583875,26801
1496.89,1.341903,578062,26307
1500.03,1.347867,574159,25773
1503.18,1.341185,570285,25996
1506.32,1.336182,565444,26074
1509.45,1.333407,560571,26015
1512.58,1.338190,555821,25512
1515.71,1.342104,550344,25034
1519.87,1.335203,543983,25141
1522.99,1.332972,538764,25028
1526.1,1.342758,533692,24240
1529.21,1.337537,527902,24267
1532.32,1.337274,521886,24005
1535.42,1.332652,515888,23983
1538.51,1.347762,509987,22898
1541.6,1.340270,503936,23020
1545.72,1.341055,494694,22557
1548.8,1.335359,488378,22563
1551.88,1.331641,481832,22452
1554.95,1.337630,474989,21830
1558.02,1.335061,467818,21628
1561.08,1.338835,460730,21116
1564.15,1.345931,454170,20478
1568.22,1.335827,444181,20499
1571.27,1.343457,436947,19814
1574.32,1.342293,429598,19533
1577.36,1.346096,422039,19022
1580.4,1.334500,414375,19182
1583.43,1.341334,406354,18517
1586.46,1.332526,398475,18530
1590.49,1.334343,388982,18013
1593.51,1.332202,380708,17717
1596.53,1.331966,372727,17355
1599.54,1.334400,365060,16903
1602.55,1.331810,357543,16654
1605.55,1.321818,349495,16658
1608.55,1.336387,341154,15724
1612.54,1.320735,330877,15810
1615.53,1.328288,322904,15163
1618.51,1.338302,315116,14460
1621.49,1.325838,307217,14508
1624.47,1.328631,299481,14052
1627.44,1.317935,292112,14048
1630.41,1.324229,284245,13473
1634.36,1.318125,274079,13175
1637.32,1.325866,266916,12604
1640.27,1.308746,259612,12752
1643.22,1.319679,251804,12061
1646.16,1.329355,244348,11446
1649.1,1.318481,236703,11369
1652.04,1.302347,228171,11374
1655.95,1.310545,215408,10537
1658.88,1.300939,204937,10249
1661.8,1.302098,193395,9646
1664.72,1.304008,179728,8925
1667.63,1.285448,163642,8481
1670.54,1.250990,146312,8209
1673.44,1.232173,128451,7526
1677.31,1.217517,105080,6368
1680.21,1.223673,88906,5312
1683.1,1.199016,75033,4745
1685.99,1.251217,63520,3562
1688.87,1.198353,53714,3402
1691.75,1.201587,45653,2870
1694.62,1.280410,39137,2052
1697.49,1.224764,33776,2013
1701.31,1.217885,28175,1706