File: ML/samples/unknown/Column 1_078729_20241121_171921.csv
Method:,Column 1,,
Host Date-Time:,21/11/24 @ 17:19:21,,
Header Version:,1,,
System Temp (C):,36.3,,
Detector Temp (C):,34.46,,
Humidity (%):,1.27,,
Lamp PD:,3798,,
Shift Vector Coefficients:,-10.5391,0.0761263,-0.000134223,,
Pixel to Wavelength Coefficients:,1775.68,-0.916766,-0.000235065,,
Serial Number:,5510004,,
Scan Config Name:,Column 1,,
Scan Config Type:,Slew,,
Section 1,,
Start wavelength (nm):,900,,
End wavelength (nm):,1700,,
Pattern Pixel Width (nm):,   7.03,,,,
Exposure (ms):,  0.635,,,,
Digital Resolution:,228,,
Num Repeats:,6,,
PGA Gain:,64,,
Total Measurement Time in sec:,  2.726,,
Wavelength (nm),Absorbance (AU),Reference Signal (unitless),Sample Signal (unitless)
901.51,1.299691,108485,5441
905.376,1.300694,121306,6070
909.237,1.322868,131909,6272
913.095,1.300542,143299,7173
916.948,1.311734,156982,7658
922.079,1.331876,179937,8380
925.923,1.300822,200504,10030
929.762,1.313094,222660,10828
933.597,1.312564,244426,11901
937.427,1.329891,263972,12350
941.254,1.326649,281845,13285
945.076,1.311336,297271,14515
950.165,1.305908,315605,15604
953.978,1.308063,328029,16138
957.786,1.308557,340470,16731
961.59,1.307859,352317,17341
965.389,1.307460,363056,17886
969.185,1.306537,373162,18423
972.976,1.305860,382632,18920
976.763,1.302478,391202,19495
981.806,1.297754,400190,20161
985.583,1.306376,406088,20056
989.355,1.312164,410162,19989
993.124,1.303401,412868,20531
996.888,1.305480,414263,20502
1000.65,1.292476,415476,21187
1004.4,1.300235,415479,20812
1009.41,1.305050,414358,20527
1013.15,1.310969,412923,20179
1016.89,1.305193,411526,20380
1020.63,1.308468,409066,20106
1024.36,1.309675,406777,19938
1028.09,1.311801,404427,19726
1031.82,1.302622,401911,20022
1036.78,1.304060,398410,19782
1040.49,1.300268,396204,19845
1044.2,1.307775,394236,19408
1047.91,1.307101,392042,19330
1051.61,1.297461,389823,19652
1055.31,1.300867,388234,19419
1059,1.317448,387599,18661
1063.92,1.302704,386688,19260
1067.61,1.317537,386598,18609
1071.29,1.316966,387377,18671
1074.96,1.309605,388536,19047
1078.63,1.298824,389855,19592
1082.3,1.301224,391215,19552
1085.96,1.311781,393215,19180
1090.84,1.317345,396270,19083
1094.49,1.310210,398760,19521
1098.14,1.317528,400987,19302
1101.79,1.314184,403477,19572
1105.43,1.308903,406116,19941
1109.06,1.323998,407701,19335
1112.7,1.314022,409859,19889
1117.53,1.315758,412494,19937
1121.15,1.317923,414909,19954
1124.77,1.316480,416559,20100
1128.38,1.311694,418532,20419
1131.99,1.317466,419956,20218
1135.6,1.312170,421946,20563
1139.2,1.314834,423881,20531
1143.99,1.318647,426786,20491
1147.58,1.316351,428617,20688
1151.17,1.319580,431169,20657
1154.75,1.313589,433579,21061
1158.33,1.319458,436264,20907
1161.91,1.320665,439132,20986
1165.48,1.311009,442389,21617
1169.04,1.314296,446101,21634
1173.79,1.312016,451929,22032
1177.34,1.307677,456026,22455
1180.9,1.311074,461306,22538
1184.44,1.309580,467657,22927
1187.99,1.321238,473969,22621
1191.52,1.310894,479856,23454
1195.06,1.316811,487372,23499
1199.76,1.313778,497347,24148
1203.29,1.314668,504311,24436
1206.81,1.324211,511507,24246
1210.33,1.313832,519078,25200
1213.84,1.322704,527163,25075
1217.35,1.318132,534208,25679
1220.85,1.323652,540472,25652
1225.51,1.312902,549929,26755
1229.01,1.316112,556888,26894
1232.5,1.312363,562180,27385
1235.98,1.316230,567975,27422
1239.46,1.311920,574815,28029
1242.94,1.314780,582782,28231
1246.41,1.320657,591476,28267
1251.03,1.326097,604016,28507
1254.5,1.322318,612289,29150
1257.96,1.319856,619125,29643
1261.41,1.320100,624551,29886
1264.86,1.320013,629900,30148
1268.31,1.319838,634345,30373
1271.75,1.325924,638574,30150
1276.33,1.324399,642499,30442
1279.76,1.322550,645905,30734
1283.19,1.322103,648307,30880
1286.61,1.323464,650446,30885
1290.03,1.326307,652132,30763
1293.44,1.321570,653907,31185
1296.85,1.322460,655963,31219
1301.39,1.331521,657349,30639
1304.8,1.326026,657558,31039
1308.19,1.321705,658515,31395
1311.58,1.328110,658804,30949
1314.97,1.329145,659011,30885
1318.36,1.322209,658272,31347
1321.73,1.324894,658022,31142
1326.23,1.323596,657870,31228
1329.6,1.327686,656482,30870
1332.97,1.326867,654926,30855
1336.33,1.325410,653727,30902
1339.69,1.324494,652497,30909
1343.04,1.326340,649913,30656
1346.39,1.326912,647671,30510
1349.73,1.326942,645338,30398
1354.18,1.324032,641175,30405
1357.52,1.323061,638376,30340
1360.85,1.319779,635805,30447
1364.17,1.325479,633413,29937
1367.49,1.324987,631026,29858
1370.81,1.320844,628050,30002
1374.12,1.321542,625034,29810
1378.54,1.322628,620272,29509
1381.84,1.326943,616892,29058
1385.14,1.316222,613613,29626
1388.43,1.324451,611526,28971
1391.72,1.327799,610663,28708
1395.01,1.322485,610634,29060
1398.29,1.328641,611700,28701
1402.66,1.322212,614051,29241
1405.93,1.326863,616268,29034
1409.2,1.324511,617795,29264
1412.46,1.323815,618872,29362
1415.72,1.329625,619795,29015
1418.98,1.330475,620495,28991
1422.23,1.332615,621087,28876
1426.56,1.328388,621375,29172
1429.8,1.328541,621616,29173
1433.04,1.328617,622129,29192
1436.27,1.331691,621526,28958
1439.5,1.333371,621113,28827
1442.72,1.330608,620921,29002
1445.94,1.331818,620270,28891
1450.23,1.328835,618860,29024
1453.44,1.330238,617697,28876
1456.64,1.328884,616264,28899
1459.85,1.328962,614413,28807
1463.04,1.330482,612307,28608
1466.24,1.330889,610032,28475
1469.43,1.328058,607345,28535
1473.67,1.333882,603789,27990
1476.85,1.334067,601175,27857
1480.02,1.326615,597737,28177
1483.19,1.328128,594479,27926
1486.36,1.332031,591232,27525
1489.52,1.329668,587853,27517
1492.68,1.337618,583875,26835
1496.89,1.335317,578062,26709
1500.03,1.336968,574159,26428
1503.18,1.335509,570285,26338
1506.32,1.339509,565444,25875
1509.45,1.333257,560571,26024
1512.58,1.331652,555821,25899
1515.71,1.326497,550344,25950
1519.87,1.333410,543983,25245
1522.99,1.340005,538764,24626
1526.1,1.331563,533692,24873
1529.21,1.325709,527902,24937
1532.32,1.331701,521886,24315
1535.42,1.326217,515888,24341
1538.51,1.332243,509987,23731
1541.6,1.331936,503936,23466
1545.72,1.337413,494694,22747
1548.8,1.331088,488378,22786
1551.88,1.334766,481832,22291
1554.95,1.323672,474989,22543
1558.02,1.322396,467818,22268
1561.08,1.325668,460730,21766
1564.15,1.330739,454170,21207
1568.22,1.324040,444181,21063
1571.27,1.324731,436947,20687
1574.32,1.326551,429598,20254
1577.36,1.329566,422039,19760
1580.4,1.333753,414375,19215
1583.43,1.330769,406354,18973
1586.46,1.325182,398475,18846
1590.49,1.321984,388982,18533
1593.51,1.322889,380708,18101
1596.53,1.319218,372727,17872
1599.54,1.324896,365060,17277
1602.55,1.317977,357543,17193
1605.55,1.323411,349495,16597
1608.55,1.331035,341154,15919
1612.54,1.316498,330877,15965
1615.53,1.322258,322904,15375
1618.51,1.320386,315116,15069
1621.49,1.322706,307217,14613
1624.47,1.323714,299481,14212
1627.44,1.319732,292112,13990
1630.41,1.303151,284245,14143
1634.36,1.314776,274079,13277
1637.32,1.313334,266916,12973
1640.27,1.314679,259612,12579
1643.22,1.306836,251804,12423
1646.16,1.319044,244348,11721
1649.1,1.297527,236703,11931
1652.04,1.291972,228171,11649
1655.95,1.305586,215408,10658
1658.88,1.292961,204937,10439
1661.8,1.291249,193395,9890
1664.72,1.261091,179728,9852
1667.63,1.265384,163642,8882
1670.54,1.244896,146312,8325
1673.44,1.215586,128451,7819
1677.31,1.184627,105080,6869
1680.21,1.173248,88906,5966
1683.1,1.180735,75033,4949
1685.99,1.149312,63520,4504
1688.87,1.179126,53714,3556
1691.75,1.150805,45653,3226
1694.62,1.163643,39137,2685
1697.49,1.162185,33776,2325
1701.31,1.094029,28175,2269