File: ML/samples/unknown/Column 1_078850_20241121_172511.csv
Method:,Column 1,,
Host Date-Time:,21/11/24 @ 17:25:11,,
Header Version:,1,,
System Temp (C):,37.53,,
Detector Temp (C):,35.87,,
Humidity (%):,0.78,,
Lamp PD:,3796,,
Shift Vector Coefficients:,-10.5391,0.0761263,-0.000134223,,
Pixel to Wavelength Coefficients:,1775.68,-0.916766,-0.000235065,,
Serial Number:,5510004,,
Scan Config Name:,Column 1,,
Scan Config Type:,Slew,,
Section 1,,
Start wavelength (nm):,900,,
End wavelength (nm):,1700,,
Pattern Pixel Width (nm):,   7.03,,,,
Exposure (ms):,  0.635,,,,
Digital Resolution:,228,,
Num Repeats:,6,,
PGA Gain:,64,,
Total Measurement Time in sec:,  2.716,,
Wavelength (nm),Absorbance (AU),Reference Signal (unitless),Sample Signal (unitless)
901.51,1.318199,108485,5214
905.376,1.344310,121306,5490
909.237,1.310311,131909,6456
913.095,1.357385,143299,6293
916.948,1.320036,156982,7513
922.079,1.337038,179937,8281
925.923,1.335747,200504,9255
929.762,1.338319,222660,10217
933.597,1.335107,244426,11299
937.427,1.319845,263972,12639
941.254,1.324627,281845,13347
945.076,1.309902,297271,14563
950.165,1.317472,315605,15194
953.978,1.319708,328029,15711
957.786,1.313596,340470,16538
961.59,1.311885,352317,17181
965.389,1.314510,363056,17598
969.185,1.307268,373162,18392
972.976,1.306802,382632,18879
976.763,1.299813,391202,19615
981.806,1.310010,400190,19600
985.583,1.309396,406088,19917
989.355,1.310863,410162,20049
993.124,1.304799,412868,20465
996.888,1.317159,414263,19958
1000.65,1.311350,415476,20286
1004.4,1.301657,415479,20744
1009.41,1.307746,414358,20400
1013.15,1.313820,412923,20047
1016.89,1.304214,411526,20426
1020.63,1.312351,409066,19927
1024.36,1.307806,406777,20024
1028.09,1.311141,404427,19756
1031.82,1.313272,401911,19537
1036.78,1.304785,398410,19749
1040.49,1.302858,396204,19727
1044.2,1.308694,394236,19367
1047.91,1.315128,392042,18976
1051.61,1.313442,389823,18942
1055.31,1.314843,388234,18804
1059,1.312450,387599,18877
1063.92,1.311152,386688,18889
1067.61,1.310522,386598,18912
1071.29,1.316199,387377,18704
1074.96,1.312671,388536,18913
1078.63,1.309143,389855,19132
1082.3,1.308662,391215,19220
1085.96,1.315762,393215,19005
1090.84,1.313177,396270,19267
1094.49,1.307880,398760,19626
1098.14,1.309613,400987,19657
1101.79,1.317413,403477,19427
1105.43,1.313589,406116,19727
1109.06,1.318041,407701,19602
1112.7,1.317728,409859,19720
1117.53,1.307173,412494,20335
1121.15,1.324347,414909,19661
1124.77,1.318256,416559,20018
1128.38,1.324976,418532,19804
1131.99,1.316222,419956,20276
1135.6,1.316927,421946,20339
1139.2,1.316105,423881,20471
1143.99,1.313087,426786,20755
1147.58,1.318244,428617,20598
1151.17,1.317943,431169,20735
1154.75,1.312827,433579,21098
1158.33,1.322146,436264,20778
1161.91,1.322969,439132,20875
1165.48,1.309725,442389,21681
1169.04,1.320402,446101,21332
1173.79,1.319893,451929,21636
1177.34,1.310140,456026,22328
1180.9,1.317519,461306,22206
1184.44,1.317224,467657,22527
1187.99,1.319418,473969,22716
1191.52,1.316917,479856,23131
1195.06,1.326908,487372,22959
1199.76,1.321545,497347,23720
1203.29,1.316771,504311,24318
1206.81,1.312007,511507,24937
1210.33,1.320099,519078,24839
1213.84,1.319615,527163,25254
1217.35,1.321000,534208,25510
1220.85,1.319809,540472,25880
1225.51,1.320533,549929,26289
1229.01,1.324147,556888,26401
1232.5,1.316714,562180,27112
1235.98,1.320639,567975,27145
1239.46,1.319265,574815,27559
1242.94,1.325526,582782,27541
1246.41,1.323989,591476,28051
1251.03,1.321174,604016,28832
1254.5,1.322750,612289,29121
1257.96,1.323416,619125,29401
1261.41,1.325466,624551,29519
1264.86,1.322483,629900,29977
1268.31,1.325117,634345,30006
1271.75,1.322867,638574,30363
1276.33,1.330882,642499,29991
1279.76,1.326339,645905,30467
1283.19,1.324628,648307,30701
1286.61,1.328300,650446,30543
1290.03,1.333280,652132,30273
1293.44,1.322421,653907,31124
1296.85,1.321793,655963,31267
1301.39,1.328555,657349,30849
1304.8,1.329948,657558,30760
1308.19,1.331046,658515,30727
1311.58,1.322366,658804,31361
1314.97,1.329061,659011,30891
1318.36,1.327969,658272,30934
1321.73,1.332178,658022,30624
1326.23,1.328955,657870,30845
1329.6,1.335021,656482,30353
1332.97,1.328319,654926,30752
1336.33,1.326479,653727,30826
1339.69,1.331063,652497,30445
1343.04,1.329368,649913,30443
1346.39,1.330356,647671,30269
1349.73,1.327743,645338,30342
1354.18,1.327545,641175,30160
1357.52,1.325904,638376,30142
1360.85,1.325566,635805,30044
1364.17,1.329135,633413,29686
1367.49,1.325147,631026,29847
1370.81,1.328850,628050,29454
1374.12,1.327069,625034,29433
1378.54,1.328988,620272,29080
1381.84,1.323875,616892,29264
1385.14,1.327598,613613,28860
1388.43,1.328911,611526,28675
1391.72,1.321849,610663,29104
1395.01,1.323323,610634,29004
1398.29,1.325851,611700,28886
1402.66,1.327126,614051,28912
1405.93,1.328827,616268,28903
1409.2,1.330608,617795,28856
1412.46,1.327037,618872,29145
1415.72,1.332810,619795,28803
1418.98,1.327995,620495,29157
1422.23,1.330605,621087,29010
1426.56,1.332171,621375,28919
1429.8,1.331694,621616,28962
1433.04,1.333298,622129,28879
1436.27,1.329880,621526,29079
1439.5,1.333793,621113,28799
1442.72,1.329845,620921,29053
1445.94,1.331593,620270,28906
1450.23,1.328521,618860,29045
1453.44,1.330028,617697,28890
1456.64,1.329862,616264,28834
1459.85,1.332489,614413,28574
1463.04,1.329754,612307,28656
1466.24,1.330752,610032,28484
1469.43,1.338330,607345,27868
1473.67,1.339284,603789,27644
1476.85,1.336396,601175,27708
1480.02,1.331311,597737,27874
1483.19,1.332222,594479,27664
1486.36,1.339719,591232,27042
1489.52,1.330758,587853,27448
1492.68,1.334281,583875,27042
1496.89,1.334651,578062,26750
1500.03,1.338120,574159,26358
1503.18,1.334768,570285,26383
1506.32,1.332500,565444,26296
1509.45,1.330943,560571,26163
1512.58,1.341746,555821,25304
1515.71,1.336126,550344,25381
1519.87,1.338236,543983,24966
1522.99,1.330740,538764,25157
1526.1,1.340417,533692,24371
1529.21,1.328505,527902,24777
1532.32,1.331952,521886,24301
1535.42,1.336599,515888,23766
1538.51,1.333141,509987,23682
1541.6,1.336831,503936,23203
1545.72,1.332194,494694,23022
1548.8,1.337733,488378,22440
1551.88,1.336875,481832,22183
1554.95,1.325816,474989,22432
1558.02,1.340455,467818,21361
1561.08,1.328490,460730,21625
1564.15,1.337197,454170,20894
1568.22,1.327996,444181,20872
1571.27,1.327998,436947,20532
1574.32,1.330537,429598,20069
1577.36,1.328380,422039,19814
1580.4,1.331454,414375,19317
1583.43,1.322650,406354,19331
1586.46,1.331706,398475,18565
1590.49,1.319181,388982,18653
1593.51,1.328954,380708,17850
1596.53,1.321728,372727,17769
1599.54,1.331201,365060,17028
1602.55,1.321324,357543,17061
1605.55,1.331120,349495,16305
1608.55,1.320630,341154,16305
1612.54,1.331413,330877,15426
1615.53,1.327344,322904,15196
1618.51,1.330828,315116,14711
1621.49,1.335585,307217,14186
1624.47,1.320335,299481,14323
1627.44,1.319763,292112,13989
1630.41,1.319899,284245,13608
1634.36,1.320339,274079,13108
1637.32,1.315112,266916,12920
1640.27,1.314610,259612,12581
1643.22,1.316772,251804,12142
1646.16,1.304757,244348,12113
1649.1,1.294119,236703,12025
1652.04,1.308849,228171,11205
1655.95,1.296713,215408,10878
1658.88,1.291218,204937,10481
1661.8,1.290415,193395,9909
1664.72,1.279874,179728,9435
1667.63,1.254376,163642,9110
1670.54,1.228816,146312,8639
1673.44,1.201434,128451,8078
1677.31,1.188947,105080,6801
1680.21,1.161683,88906,6127
1683.1,1.139494,75033,5442
1685.99,1.175033,63520,4245
1688.87,1.158845,53714,3726
1691.75,1.121147,45653,3454
1694.62,1.235988,39137,2273
1697.49,1.136439,33776,2467
1701.31,1.248467,28175,1590