File: ML/samples/unknown/Column 1_078016_20241121_164122.csv
Method:,Column 1,,
Host Date-Time:,21/11/24 @ 16:41:22,,
Header Version:,1,,
System Temp (C):,29.56,,
Detector Temp (C):,24.81,,
Humidity (%):,7.11,,
Lamp PD:,3814,,
Shift Vector Coefficients:,-10.5391,0.0761263,-0.000134223,,
Pixel to Wavelength Coefficients:,1775.68,-0.916766,-0.000235065,,
Serial Number:,5510004,,
Scan Config Name:,Column 1,,
Scan Config Type:,Slew,,
Section 1,,
Start wavelength (nm):,900,,
End wavelength (nm):,1700,,
Pattern Pixel Width (nm):,   7.03,,,,
Exposure (ms):,  0.635,,,,
Digital Resolution:,228,,
Num Repeats:,6,,
PGA Gain:,64,,
Total Measurement Time in sec:,  2.708,,
Wavelength (nm),Absorbance (AU),Reference Signal (unitless),Sample Signal (unitless)
901.51,1.318365,108485,5212
905.376,1.323008,121306,5766
909.237,1.310984,131909,6446
913.095,1.333879,143299,6643
916.948,1.326794,156982,7397
922.079,1.293937,179937,9145
925.923,1.297243,200504,10113
929.762,1.312092,222660,10853
933.597,1.318331,244426,11744
937.427,1.314484,263972,12796
941.254,1.330556,281845,13166
945.076,1.312504,297271,14476
950.165,1.325317,315605,14922
953.978,1.309113,328029,16099
957.786,1.310378,340470,16661
961.59,1.307484,352317,17356
965.389,1.313820,363056,17626
969.185,1.312973,373162,18152
972.976,1.311358,382632,18682
976.763,1.305743,391202,19349
981.806,1.311831,400190,19518
985.583,1.310160,406088,19882
989.355,1.311014,410162,20042
993.124,1.307866,412868,20321
996.888,1.307689,414263,20398
1000.65,1.314594,415476,20135
1004.4,1.319085,415479,19928
1009.41,1.313618,414358,20126
1013.15,1.316820,412923,19909
1016.89,1.310036,411526,20154
1020.63,1.307497,409066,20151
1024.36,1.312406,406777,19813
1028.09,1.318144,404427,19440
1031.82,1.312539,401911,19570
1036.78,1.312775,398410,19389
1040.49,1.311799,396204,19325
1044.2,1.304276,394236,19565
1047.91,1.316963,392042,18896
1051.61,1.312594,389823,18979
1055.31,1.313667,388234,18855
1059,1.315335,387599,18752
1063.92,1.301826,386688,19299
1067.61,1.318588,386598,18564
1071.29,1.315596,387377,18730
1074.96,1.313268,388536,18887
1078.63,1.313844,389855,18926
1082.3,1.316644,391215,18870
1085.96,1.322580,393215,18709
1090.84,1.321644,396270,18895
1094.49,1.314278,398760,19339
1098.14,1.314792,400987,19424
1101.79,1.321478,403477,19246
1105.43,1.317770,406116,19538
1109.06,1.322562,407701,19399
1112.7,1.319913,409859,19621
1117.53,1.313238,412494,20053
1121.15,1.322408,414909,19749
1124.77,1.321085,416559,19888
1128.38,1.325700,418532,19771
1131.99,1.317101,419956,20235
1135.6,1.321888,421946,20108
1139.2,1.319555,423881,20309
1143.99,1.324450,426786,20219
1147.58,1.322163,428617,20413
1151.17,1.322978,431169,20496
1154.75,1.318671,433579,20816
1158.33,1.319873,436264,20887
1161.91,1.318107,439132,21110
1165.48,1.321419,442389,21105
1169.04,1.316874,446101,21506
1173.79,1.325998,451929,21334
1177.34,1.313989,456026,22131
1180.9,1.318380,461306,22162
1184.44,1.315646,467657,22609
1187.99,1.322064,473969,22578
1191.52,1.320821,479856,22924
1195.06,1.317496,487372,23462
1199.76,1.326276,497347,23463
1203.29,1.327071,504311,23748
1206.81,1.330981,511507,23871
1210.33,1.319155,519078,24893
1213.84,1.325693,527163,24903
1217.35,1.325604,534208,25241
1220.85,1.347346,540472,24290
1225.51,1.329209,549929,25769
1229.01,1.332518,556888,25897
1232.5,1.323527,562180,26690
1235.98,1.329627,567975,26589
1239.46,1.320954,574815,27452
1242.94,1.324723,582782,27592
1246.41,1.322104,591476,28173
1251.03,1.324166,604016,28634
1254.5,1.325443,612289,28941
1257.96,1.322678,619125,29451
1261.41,1.328493,624551,29314
1264.86,1.326735,629900,29685
1268.31,1.331944,634345,29538
1271.75,1.337056,638574,29387
1276.33,1.331374,642499,29957
1279.76,1.335384,645905,29839
1283.19,1.328864,648307,30403
1286.61,1.335193,650446,30062
1290.03,1.331405,652132,30404
1293.44,1.331330,653907,30492
1296.85,1.334034,655963,30398
1301.39,1.329273,657349,30798
1304.8,1.336836,657558,30276
1308.19,1.338933,658515,30174
1311.58,1.334015,658804,30531
1314.97,1.335091,659011,30465
1318.36,1.330617,658272,30746
1321.73,1.334582,658022,30455
1326.23,1.336225,657870,30333
1329.6,1.332155,656482,30554
1332.97,1.335610,654926,30240
1336.33,1.330257,653727,30559
1339.69,1.331705,652497,30400
1343.04,1.335199,649913,30037
1346.39,1.334060,647671,30012
1349.73,1.333942,645338,29912
1354.18,1.329161,641175,30048
1357.52,1.334622,638376,29543
1360.85,1.331959,635805,29605
1364.17,1.327427,633413,29803
1367.49,1.330608,631026,29474
1370.81,1.332314,628050,29220
1374.12,1.328029,625034,29368
1378.54,1.333175,620272,28801
1381.84,1.326018,616892,29120
1385.14,1.329619,613613,28726
1388.43,1.324766,611526,28950
1391.72,1.330530,610663,28528
1395.01,1.328944,610634,28631
1398.29,1.337569,611700,28117
1402.66,1.329567,614051,28750
1405.93,1.333009,616268,28626
1409.2,1.331678,617795,28785
1412.46,1.338466,618872,28388
1415.72,1.338151,619795,28451
1418.98,1.334750,620495,28707
1422.23,1.337470,621087,28555
1426.56,1.332171,621375,28919
1429.8,1.337278,621616,28592
1433.04,1.339371,622129,28478
1436.27,1.339377,621526,28450
1439.5,1.334608,621113,28745
1442.72,1.335563,620921,28673
1445.94,1.339232,620270,28402
1450.23,1.337144,618860,28474
1453.44,1.335839,617697,28506
1456.64,1.342609,616264,28000
1459.85,1.334058,614413,28471
1463.04,1.336689,612307,28202
1466.24,1.338412,610032,27986
1469.43,1.333849,607345,28157
1473.67,1.334566,603789,27946
1476.85,1.339510,601175,27510
1480.02,1.337889,597737,27455
1483.19,1.342708,594479,27004
1486.36,1.343542,591232,26805
1489.52,1.339113,587853,26925
1492.68,1.341242,583875,26612
1496.89,1.340469,578062,26394
1500.03,1.348812,574159,25717
1503.18,1.338737,570285,26143
1506.32,1.334752,565444,26160
1509.45,1.339713,560571,25640
1512.58,1.346197,555821,25046
1515.71,1.342312,550344,25022
1519.87,1.348962,543983,24357
1522.99,1.341223,538764,24557
1526.1,1.342006,533692,24282
1529.21,1.344319,527902,23891
1532.32,1.334461,521886,24161
1535.42,1.339312,515888,23618
1538.51,1.344794,509987,23055
1541.6,1.341006,503936,22981
1545.72,1.334482,494694,22901
1548.8,1.339479,488378,22350
1551.88,1.333074,481832,22378
1554.95,1.341868,474989,21618
1558.02,1.350242,467818,20885
1561.08,1.337172,460730,21197
1564.15,1.344618,454170,20540
1568.22,1.335129,444181,20532
1571.27,1.333554,436947,20271
1574.32,1.339457,429598,19661
1577.36,1.343774,422039,19124
1580.4,1.338663,414375,18999
1583.43,1.333363,406354,18860
1586.46,1.337713,398475,18310
1590.49,1.337343,388982,17889
1593.51,1.338523,380708,17461
1596.53,1.334803,372727,17242
1599.54,1.327569,365060,17171
1602.55,1.326342,357543,16865
1605.55,1.336912,349495,16089
1608.55,1.337881,341154,15670
1612.54,1.324210,330877,15684
1615.53,1.334781,322904,14938
1618.51,1.322611,315116,14992
1621.49,1.327788,307217,14443
1624.47,1.322158,299481,14263
1627.44,1.330671,292112,13642
1630.41,1.324454,284245,13466
1634.36,1.323065,274079,13026
1637.32,1.323872,266916,12662
1640.27,1.322060,259612,12367
1643.22,1.321773,251804,12003
1646.16,1.319823,244348,11700
1649.1,1.318062,236703,11380
1652.04,1.323432,228171,10835
1655.95,1.335919,215408,9939
1658.88,1.311751,204937,9997
1661.8,1.332396,193395,8996
1664.72,1.354959,179728,7937
1667.63,1.337273,163642,7527
1670.54,1.378741,146312,6117
1673.44,1.367744,128451,5508
1677.31,1.326739,105080,4952
1680.21,1.346871,88906,4000
1683.1,1.404989,75033,2953
1685.99,1.452081,63520,2243
1688.87,1.386088,53714,2208
1691.75,1.269595,45653,2454
1694.62,1.250362,39137,2199
1697.49,1.337716,33776,1552
1701.31,1.306537,28175,1391