File: ML/samples/unknown/Column 1_078554_20241121_170823.csv
Method:,Column 1,,
Host Date-Time:,21/11/24 @ 17:8:23,,
Header Version:,1,,
System Temp (C):,35.63,,
Detector Temp (C):,34.47,,
Humidity (%):,1.37,,
Lamp PD:,3799,,
Shift Vector Coefficients:,-10.5391,0.0761263,-0.000134223,,
Pixel to Wavelength Coefficients:,1775.68,-0.916766,-0.000235065,,
Serial Number:,5510004,,
Scan Config Name:,Column 1,,
Scan Config Type:,Slew,,
Section 1,,
Start wavelength (nm):,900,,
End wavelength (nm):,1700,,
Pattern Pixel Width (nm):,   7.03,,,,
Exposure (ms):,  0.635,,,,
Digital Resolution:,228,,
Num Repeats:,6,,
PGA Gain:,64,,
Total Measurement Time in sec:,  2.726,,
Wavelength (nm),Absorbance (AU),Reference Signal (unitless),Sample Signal (unitless)
901.51,1.295876,108485,5489
905.376,1.322180,121306,5777
909.237,1.298368,131909,6636
913.095,1.301269,143299,7161
916.948,1.313325,156982,7630
922.079,1.311082,179937,8791
925.923,1.311252,200504,9792
929.762,1.316113,222660,10753
933.597,1.326733,244426,11519
937.427,1.323988,263972,12519
941.254,1.319323,281845,13511
945.076,1.317513,297271,14310
950.165,1.311708,315605,15397
953.978,1.305299,328029,16241
957.786,1.316547,340470,16426
961.59,1.309666,352317,17269
965.389,1.299330,363056,18224
969.185,1.309043,373162,18317
972.976,1.309410,382632,18766
976.763,1.302500,391202,19494
981.806,1.304090,400190,19869
985.583,1.306831,406088,20035
989.355,1.316203,410162,19804
993.124,1.298228,412868,20777
996.888,1.306689,414263,20445
1000.65,1.301863,415476,20734
1004.4,1.301050,415479,20773
1009.41,1.296047,414358,20957
1013.15,1.294996,412923,20935
1016.89,1.303195,411526,20474
1020.63,1.302632,409066,20378
1024.36,1.302396,406777,20275
1028.09,1.315449,404427,19561
1031.82,1.299037,401911,20188
1036.78,1.298043,398410,20058
1040.49,1.299393,396204,19885
1044.2,1.301070,394236,19710
1047.91,1.303833,392042,19476
1051.61,1.304501,389823,19336
1055.31,1.310134,388234,19009
1059,1.314410,387599,18792
1063.92,1.311359,386688,18880
1067.61,1.309971,386598,18936
1071.29,1.301004,387377,19370
1074.96,1.298951,388536,19520
1078.63,1.305706,389855,19284
1082.3,1.307263,391215,19282
1085.96,1.306918,393215,19396
1090.84,1.310346,396270,19393
1094.49,1.297753,398760,20089
1098.14,1.307585,400987,19749
1101.79,1.310208,403477,19752
1105.43,1.313809,406116,19717
1109.06,1.305248,407701,20188
1112.7,1.315027,409859,19843
1117.53,1.311358,412494,20140
1121.15,1.308962,414909,20370
1124.77,1.320954,416559,19894
1128.38,1.308727,418532,20559
1131.99,1.300964,419956,21001
1135.6,1.308155,421946,20754
1139.2,1.315702,423881,20490
1143.99,1.311312,426786,20840
1147.58,1.320273,428617,20502
1151.17,1.312304,431169,21006
1154.75,1.311512,433579,21162
1158.33,1.318628,436264,20947
1161.91,1.309430,439132,21536
1165.48,1.318445,442389,21250
1169.04,1.305061,446101,22099
1173.79,1.316136,451929,21824
1177.34,1.312421,456026,22211
1180.9,1.313508,461306,22412
1184.44,1.309164,467657,22949
1187.99,1.314513,473969,22974
1191.52,1.311172,479856,23439
1195.06,1.319909,487372,23332
1199.76,1.318007,497347,23914
1203.29,1.318220,504311,24237
1206.81,1.314558,511507,24791
1210.33,1.314557,519078,25158
1213.84,1.316308,527163,25447
1217.35,1.317777,534208,25700
1220.85,1.313909,540472,26234
1225.51,1.316160,549929,26555
1229.01,1.323260,556888,26455
1232.5,1.312616,562180,27369
1235.98,1.312697,567975,27646
1239.46,1.315265,574815,27814
1242.94,1.314995,582782,28217
1246.41,1.317565,591476,28469
1251.03,1.324470,604016,28614
1254.5,1.321202,612289,29225
1257.96,1.323372,619125,29404
1261.41,1.320304,624551,29872
1264.86,1.319797,629900,30163
1268.31,1.319266,634345,30413
1271.75,1.319107,638574,30627
1276.33,1.321456,642499,30649
1279.76,1.323257,645905,30684
1283.19,1.327609,648307,30491
1286.61,1.325423,650446,30746
1290.03,1.324827,652132,30868
1293.44,1.325797,653907,30883
1296.85,1.327019,655963,30893
1301.39,1.325497,657349,31067
1304.8,1.322806,657558,31270
1308.19,1.326364,658515,31060
1311.58,1.329600,658804,30843
1314.97,1.322988,659011,31326
1318.36,1.326806,658272,31017
1321.73,1.327327,658022,30968
1326.23,1.327059,657870,30980
1329.6,1.330792,656482,30650
1332.97,1.331750,654926,30510
1336.33,1.331838,653727,30448
1339.69,1.330321,652497,30497
1343.04,1.326510,649913,30644
1346.39,1.329439,647671,30333
1349.73,1.325715,645338,30484
1354.18,1.322008,641175,30547
1357.52,1.324337,638376,30251
1360.85,1.329414,635805,29779
1364.17,1.327908,633413,29770
1367.49,1.325685,631026,29810
1370.81,1.319558,628050,30091
1374.12,1.319782,625034,29931
1378.54,1.320484,620272,29655
1381.84,1.319431,616892,29565
1385.14,1.331286,613613,28616
1388.43,1.320660,611526,29225
1391.72,1.315685,610663,29520
1395.01,1.325680,610634,28847
1398.29,1.321796,611700,29157
1402.66,1.332416,614051,28562
1405.93,1.323673,616268,29248
1409.2,1.332675,617795,28719
1412.46,1.323239,618872,29401
1415.72,1.326612,619795,29217
1418.98,1.332939,620495,28827
1422.23,1.329991,621087,29051
1426.56,1.325213,621375,29386
1429.8,1.324983,621616,29413
1433.04,1.323823,622129,29516
1436.27,1.329686,621526,29092
1439.5,1.322481,621113,29559
1442.72,1.325798,620921,29325
1445.94,1.332119,620270,28871
1450.23,1.322345,618860,29461
1453.44,1.330705,617697,28845
1456.64,1.330133,616264,28816
1459.85,1.331912,614413,28612
1463.04,1.327803,612307,28785
1466.24,1.327425,610032,28703
1469.43,1.329811,607345,28420
1473.67,1.332163,603789,28101
1476.85,1.324522,601175,28476
1480.02,1.327371,597737,28128
1483.19,1.324257,594479,28176
1486.36,1.324957,591232,27977
1489.52,1.323229,587853,27928
1492.68,1.328157,583875,27426
1496.89,1.329936,578062,27042
1500.03,1.336804,574159,26438
1503.18,1.328330,570285,26777
1506.32,1.334768,565444,26159
1509.45,1.335549,560571,25887
1512.58,1.328311,555821,26099
1515.71,1.329520,550344,25770
1519.87,1.335272,543983,25137
1522.99,1.333615,538764,24991
1526.1,1.332664,533692,24810
1529.21,1.337001,527902,24297
1532.32,1.345050,521886,23579
1535.42,1.329117,515888,24179
1538.51,1.323816,509987,24196
1541.6,1.334368,503936,23335
1545.72,1.330537,494694,23110
1548.8,1.325953,488378,23057
1551.88,1.335253,481832,22266
1554.95,1.333906,474989,22018
1558.02,1.321208,467818,22329
1561.08,1.325947,460730,21752
1564.15,1.322604,454170,21608
1568.22,1.332009,444181,20680
1571.27,1.327511,436947,20555
1574.32,1.325716,429598,20293
1577.36,1.321552,422039,20128
1580.4,1.322927,414375,19700
1583.43,1.324361,406354,19255
1586.46,1.316061,398475,19246
1590.49,1.327289,388982,18308
1593.51,1.320330,380708,18208
1596.53,1.320166,372727,17833
1599.54,1.323290,365060,17341
1602.55,1.324594,357543,16933
1605.55,1.315426,349495,16905
1608.55,1.316336,341154,16467
1612.54,1.316443,330877,15967
1615.53,1.315226,322904,15626
1618.51,1.312730,315116,15337
1621.49,1.313822,307217,14915
1624.47,1.318943,299481,14369
1627.44,1.312711,292112,14218
1630.41,1.317194,284245,13693
1634.36,1.301980,274079,13674
1637.32,1.302425,266916,13303
1640.27,1.301887,259612,12955
1643.22,1.292498,251804,12840
1646.16,1.314804,244348,11836
1649.1,1.302322,236703,11800
1652.04,1.297563,228171,11500
1655.95,1.294999,215408,10921
1658.88,1.284883,204937,10635
1661.8,1.286532,193395,9998
1664.72,1.268965,179728,9675
1667.63,1.236949,163642,9483
1670.54,1.229622,146312,8623
1673.44,1.207497,128451,7966
1677.31,1.183742,105080,6883
1680.21,1.163388,88906,6103
1683.1,1.167852,75033,5098
1685.99,1.161734,63520,4377
1688.87,1.142040,53714,3873
1691.75,1.125824,45653,3417
1694.62,1.180127,39137,2585
1697.49,1.127898,33776,2516
1701.31,1.147750,28175,2005