File: ML/samples/unknown/Column 1_078429_20241121_170214.csv
Method:,Column 1,,
Host Date-Time:,21/11/24 @ 17:2:14,,
Header Version:,1,,
System Temp (C):,34.8,,
Detector Temp (C):,33.78,,
Humidity (%):,2.3,,
Lamp PD:,3802,,
Shift Vector Coefficients:,-10.5391,0.0761263,-0.000134223,,
Pixel to Wavelength Coefficients:,1775.68,-0.916766,-0.000235065,,
Serial Number:,5510004,,
Scan Config Name:,Column 1,,
Scan Config Type:,Slew,,
Section 1,,
Start wavelength (nm):,900,,
End wavelength (nm):,1700,,
Pattern Pixel Width (nm):,   7.03,,,,
Exposure (ms):,  0.635,,,,
Digital Resolution:,228,,
Num Repeats:,6,,
PGA Gain:,64,,
Total Measurement Time in sec:,  2.737,,
Wavelength (nm),Absorbance (AU),Reference Signal (unitless),Sample Signal (unitless)
901.51,1.327374,108485,5105
905.376,1.314874,121306,5875
909.237,1.341328,131909,6011
913.095,1.309659,143299,7024
916.948,1.314123,156982,7616
922.079,1.309455,179937,8824
925.923,1.321711,200504,9559
929.762,1.328651,222660,10447
933.597,1.317666,244426,11762
937.427,1.322465,263972,12563
941.254,1.309848,281845,13809
945.076,1.326652,297271,14012
950.165,1.321781,315605,15044
953.978,1.307605,328029,16155
957.786,1.308921,340470,16717
961.59,1.319664,352317,16876
965.389,1.319549,363056,17395
969.185,1.304984,373162,18489
972.976,1.307539,382632,18847
976.763,1.307542,391202,19269
981.806,1.306699,400190,19750
985.583,1.316165,406088,19609
989.355,1.299975,410162,20558
993.124,1.313307,412868,20068
996.888,1.307135,414263,20424
1000.65,1.316930,415476,20027
1004.4,1.314123,415479,20157
1009.41,1.305791,414358,20492
1013.15,1.311400,412923,20159
1016.89,1.305087,411526,20385
1020.63,1.309333,409066,20066
1024.36,1.310394,406777,19905
1028.09,1.299815,404427,20278
1031.82,1.307092,401911,19817
1036.78,1.313290,398410,19366
1040.49,1.313443,396204,19252
1044.2,1.314064,394236,19129
1047.91,1.303877,392042,19474
1051.61,1.311178,389823,19041
1055.31,1.308561,388234,19078
1059,1.314895,387599,18771
1063.92,1.311727,386688,18864
1067.61,1.300422,386598,19357
1071.29,1.314878,387377,18761
1074.96,1.308443,388536,19098
1078.63,1.313638,389855,18935
1082.3,1.309522,391215,19182
1085.96,1.303350,393215,19556
1090.84,1.311782,396270,19329
1094.49,1.322484,398760,18977
1098.14,1.312295,400987,19536
1101.79,1.308211,403477,19843
1105.43,1.318705,406116,19496
1109.06,1.313720,407701,19798
1112.7,1.313956,409859,19892
1117.53,1.320181,412494,19735
1121.15,1.323531,414909,19698
1124.77,1.310068,416559,20399
1128.38,1.314425,418532,20291
1131.99,1.299952,419956,21050
1135.6,1.314733,421946,20442
1139.2,1.306599,423881,20924
1143.99,1.310272,426786,20890
1147.58,1.328053,428617,20138
1151.17,1.322259,431169,20530
1154.75,1.314684,433579,21008
1158.33,1.313147,436264,21213
1161.91,1.321121,439132,20964
1165.48,1.319387,442389,21204
1169.04,1.321829,446101,21262
1173.79,1.309324,451929,22169
1177.34,1.312070,456026,22229
1180.9,1.318380,461306,22162
1184.44,1.316261,467657,22577
1187.99,1.312288,473969,23092
1191.52,1.320366,479856,22948
1195.06,1.315206,487372,23586
1199.76,1.324097,497347,23581
1203.29,1.321385,504311,24061
1206.81,1.314558,511507,24791
1210.33,1.316702,519078,25034
1213.84,1.318756,527163,25304
1217.35,1.322210,534208,25439
1220.85,1.321760,540472,25764
1225.51,1.317192,549929,26492
1229.01,1.321687,556888,26551
1232.5,1.319413,562180,26944
1235.98,1.329333,567975,26607
1239.46,1.318100,574815,27633
1242.94,1.323780,582782,27652
1246.41,1.320105,591476,28303
1251.03,1.327333,604016,28426
1254.5,1.329983,612289,28640
1257.96,1.323195,619125,29416
1261.41,1.327014,624551,29414
1264.86,1.330496,629900,29429
1268.31,1.328912,634345,29745
1271.75,1.332119,638574,29723
1276.33,1.330303,642499,30031
1279.76,1.322733,645905,30721
1283.19,1.330811,648307,30267
1286.61,1.325748,650446,30723
1290.03,1.324926,652132,30861
1293.44,1.329709,653907,30606
1296.85,1.327624,655963,30850
1301.39,1.331833,657349,30617
1304.8,1.331050,657558,30682
1308.19,1.332050,658515,30656
1311.58,1.325019,658804,31170
1314.97,1.328036,659011,30964
1318.36,1.326442,658272,31043
1321.73,1.325494,658022,31099
1326.23,1.328589,657870,30871
1329.6,1.337101,656482,30208
1332.97,1.331850,654926,30503
1336.33,1.330144,653727,30567
1339.69,1.333351,652497,30285
1343.04,1.336024,649913,29980
1346.39,1.332528,647671,30118
1349.73,1.330068,645338,30180
1354.18,1.326898,641175,30205
1357.52,1.328738,638376,29946
1360.85,1.333193,635805,29521
1364.17,1.325348,633413,29946
1367.49,1.331995,631026,29380
1370.81,1.329071,628050,29439
1374.12,1.332309,625034,29080
1378.54,1.326724,620272,29232
1381.84,1.329823,616892,28866
1385.14,1.332136,613613,28560
1388.43,1.329139,611526,28660
1391.72,1.321968,610663,29096
1395.01,1.322784,610634,29040
1398.29,1.324935,611700,28947
1402.66,1.327322,614051,28899
1405.93,1.327746,616268,28975
1409.2,1.326668,617795,29119
1412.46,1.333719,618872,28700
1415.72,1.333037,619795,28788
1418.98,1.332307,620495,28869
1422.23,1.328365,621087,29160
1426.56,1.328998,621375,29131
1429.8,1.332865,621616,28884
1433.04,1.333644,622129,28856
1436.27,1.333946,621526,28808
1439.5,1.339409,621113,28429
1442.72,1.339015,620921,28446
1445.94,1.332224,620270,28864
1450.23,1.330965,618860,28882
1453.44,1.332364,617697,28735
1456.64,1.341292,616264,28085
1459.85,1.330382,614413,28713
1463.04,1.336797,612307,28195
1466.24,1.332157,610032,28392
1469.43,1.336991,607345,27954
1473.67,1.333464,603789,28017
1476.85,1.334847,601175,27807
1480.02,1.341622,597737,27220
1483.19,1.328034,594479,27932
1486.36,1.341151,591232,26953
1489.52,1.333950,587853,27247
1492.68,1.332726,583875,27139
1496.89,1.336783,578062,26619
1500.03,1.339671,574159,26264
1503.18,1.342658,570285,25908
1506.32,1.339442,565444,25879
1509.45,1.344824,560571,25340
1512.58,1.336000,555821,25641
1515.71,1.340010,550344,25155
1519.87,1.343187,543983,24683
1522.99,1.339864,538764,24634
1526.1,1.336585,533692,24587
1529.21,1.339744,527902,24144
1532.32,1.335541,521886,24101
1535.42,1.335504,515888,23826
1538.51,1.346171,509987,22982
1541.6,1.336869,503936,23201
1545.72,1.332212,494694,23021
1548.8,1.332826,488378,22695
1551.88,1.341996,481832,21923
1554.95,1.344669,474989,21479
1558.02,1.336227,467818,21570
1561.08,1.332505,460730,21426
1564.15,1.335599,454170,20971
1568.22,1.335764,444181,20502
1571.27,1.333297,436947,20283
1574.32,1.339412,429598,19663
1577.36,1.336321,422039,19455
1580.4,1.334998,414375,19160
1583.43,1.339065,406354,18614
1586.46,1.329303,398475,18668
1590.49,1.331915,388982,18114
1593.51,1.330831,380708,17773
1596.53,1.330542,372727,17412
1599.54,1.334503,365060,16899
1602.55,1.330898,357543,16689
1605.55,1.334677,349495,16172
1608.55,1.325801,341154,16112
1612.54,1.319062,330877,15871
1615.53,1.324638,322904,15291
1618.51,1.318373,315116,15139
1621.49,1.316714,307217,14816
1624.47,1.323775,299481,14210
1627.44,1.322847,292112,13890
1630.41,1.312369,284245,13846
1634.36,1.311160,274079,13388
1637.32,1.320184,266916,12770
1640.27,1.303399,259612,12910
1643.22,1.314063,251804,12218
1646.16,1.308249,244348,12016
1649.1,1.299058,236703,11889
1652.04,1.305374,228171,11295
1655.95,1.301167,215408,10767
1658.88,1.295590,204937,10376
1661.8,1.292965,193395,9851
1664.72,1.290073,179728,9216
1667.63,1.267099,163642,8847
1670.54,1.248984,146312,8247
1673.44,1.223999,128451,7669
1677.31,1.239406,105080,6055
1680.21,1.181256,88906,5857
1683.1,1.176109,75033,5002
1685.99,1.191718,63520,4085
1688.87,1.200016,53714,3389
1691.75,1.200379,45653,2878
1694.62,1.168850,39137,2653
1697.49,1.205356,33776,2105
1701.31,1.114807,28175,2163