File: ML/samples/unknown/Column 1_078915_20241121_172819.csv
Method:,Column 1,,
Host Date-Time:,21/11/24 @ 17:28:19,,
Header Version:,1,,
System Temp (C):,36.82,,
Detector Temp (C):,36.33,,
Humidity (%):,0.09,,
Lamp PD:,3796,,
Shift Vector Coefficients:,-10.5391,0.0761263,-0.000134223,,
Pixel to Wavelength Coefficients:,1775.68,-0.916766,-0.000235065,,
Serial Number:,5510004,,
Scan Config Name:,Column 1,,
Scan Config Type:,Slew,,
Section 1,,
Start wavelength (nm):,900,,
End wavelength (nm):,1700,,
Pattern Pixel Width (nm):,   7.03,,,,
Exposure (ms):,  0.635,,,,
Digital Resolution:,228,,
Num Repeats:,6,,
PGA Gain:,64,,
Total Measurement Time in sec:,  2.725,,
Wavelength (nm),Absorbance (AU),Reference Signal (unitless),Sample Signal (unitless)
901.51,1.326269,108485,5118
905.376,1.334997,121306,5609
909.237,1.301587,131909,6587
913.095,1.322969,143299,6812
916.948,1.313268,156982,7631
922.079,1.314156,179937,8729
925.923,1.331869,200504,9338
929.762,1.330985,222660,10391
933.597,1.317408,244426,11769
937.427,1.336910,263972,12152
941.254,1.322711,281845,13406
945.076,1.318850,297271,14266
950.165,1.322243,315605,15028
953.978,1.315171,328029,15876
957.786,1.305093,340470,16865
961.59,1.316331,352317,17006
965.389,1.304147,363056,18023
969.185,1.313787,373162,18118
972.976,1.315563,382632,18502
976.763,1.309009,391202,19204
981.806,1.301475,400190,19989
985.583,1.299800,406088,20362
989.355,1.303219,410162,20405
993.124,1.301796,412868,20607
996.888,1.300698,414263,20729
1000.65,1.307895,415476,20448
1004.4,1.303104,415479,20675
1009.41,1.309345,414358,20325
1013.15,1.306175,412923,20403
1016.89,1.301269,411526,20565
1020.63,1.307820,409066,20136
1024.36,1.313899,406777,19745
1028.09,1.304141,404427,20077
1031.82,1.305190,401911,19904
1036.78,1.308362,398410,19587
1040.49,1.306728,396204,19552
1044.2,1.307686,394236,19412
1047.91,1.307056,392042,19332
1051.61,1.307951,389823,19183
1055.31,1.299460,388234,19482
1059,1.306146,387599,19153
1063.92,1.311704,386688,18865
1067.61,1.309078,386598,18975
1071.29,1.307010,387377,19104
1074.96,1.309354,388536,19058
1078.63,1.324577,389855,18464
1082.3,1.311678,391215,19087
1085.96,1.313438,393215,19107
1090.84,1.317458,396270,19078
1094.49,1.322324,398760,18984
1098.14,1.319829,400987,19200
1101.79,1.308584,403477,19826
1105.43,1.320066,406116,19435
1109.06,1.320040,407701,19512
1112.7,1.314655,409859,19860
1117.53,1.316586,412494,19899
1121.15,1.309944,414909,20324
1124.77,1.308304,416559,20482
1128.38,1.319723,418532,20045
1131.99,1.318562,419956,20167
1135.6,1.315286,421946,20416
1139.2,1.319855,423881,20295
1143.99,1.314135,426786,20705
1147.58,1.309705,428617,21007
1151.17,1.318866,431169,20691
1154.75,1.318796,433579,20810
1158.33,1.315858,436264,21081
1161.91,1.323031,439132,20872
1165.48,1.318588,442389,21243
1169.04,1.312254,446101,21736
1173.79,1.316454,451929,21808
1177.34,1.310646,456026,22302
1180.9,1.307772,461306,22710
1184.44,1.318073,467657,22483
1187.99,1.313230,473969,23042
1191.52,1.307555,479856,23635
1195.06,1.321120,487372,23267
1199.76,1.325961,497347,23480
1203.29,1.322777,504311,23984
1206.81,1.317952,511507,24598
1210.33,1.321605,519078,24753
1213.84,1.319890,527163,25238
1217.35,1.321187,534208,25499
1220.85,1.322756,540472,25705
1225.51,1.323733,549929,26096
1229.01,1.326142,556888,26280
1232.5,1.315610,562180,27181
1235.98,1.316563,567975,27401
1239.46,1.315921,574815,27772
1242.94,1.316012,582782,28151
1246.41,1.316894,591476,28513
1251.03,1.326768,604016,28463
1254.5,1.326630,612289,28862
1257.96,1.321824,619125,29509
1261.41,1.324423,624551,29590
1264.86,1.323092,629900,29935
1268.31,1.326814,634345,29889
1271.75,1.324730,638574,30233
1276.33,1.320805,642499,30695
1279.76,1.325926,645905,30496
1283.19,1.324614,648307,30702
1286.61,1.328513,650446,30528
1290.03,1.325306,652132,30834
1293.44,1.326557,653907,30829
1296.85,1.327005,655963,30894
1301.39,1.326238,657349,31014
1304.8,1.329651,657558,30781
1308.19,1.325219,658515,31142
1311.58,1.330572,658804,30774
1314.97,1.332590,659011,30641
1318.36,1.332173,658272,30636
1321.73,1.322322,658022,31327
1326.23,1.329857,657870,30781
1329.6,1.335737,656482,30303
1332.97,1.323781,654926,31075
1336.33,1.321075,653727,31212
1339.69,1.327667,652497,30684
1343.04,1.325476,649913,30717
1346.39,1.330084,647671,30288
1349.73,1.324733,645338,30553
1354.18,1.328670,641175,30082
1357.52,1.324423,638376,30245
1360.85,1.325032,635805,30081
1364.17,1.320560,633413,30278
1367.49,1.326327,631026,29766
1370.81,1.330875,628050,29317
1374.12,1.324817,625034,29586
1378.54,1.323099,620272,29477
1381.84,1.325749,616892,29138
1385.14,1.328321,613613,28812
1388.43,1.326284,611526,28849
1391.72,1.326892,610663,28768
1395.01,1.328944,610634,28631
1398.29,1.322377,611700,29118
1402.66,1.327126,614051,28912
1405.93,1.326683,616268,29046
1409.2,1.328731,617795,28981
1412.46,1.323327,618872,29395
1415.72,1.331771,619795,28872
1418.98,1.330176,620495,29011
1422.23,1.326166,621087,29308
1426.56,1.330597,621375,29024
1429.8,1.327738,621616,29227
1433.04,1.334518,622129,28798
1436.27,1.329283,621526,29119
1439.5,1.334623,621113,28744
1442.72,1.332770,620921,28858
1445.94,1.322361,620270,29527
1450.23,1.333438,618860,28718
1453.44,1.332379,617697,28734
1456.64,1.329741,616264,28842
1459.85,1.327442,614413,28908
1463.04,1.333162,612307,28432
1466.24,1.330919,610032,28473
1469.43,1.333094,607345,28206
1473.67,1.331885,603789,28119
1476.85,1.330094,601175,28113
1480.02,1.334972,597737,27640
1483.19,1.326963,594479,28001
1486.36,1.333817,591232,27412
1489.52,1.331249,587853,27417
1492.68,1.336891,583875,26880
1496.89,1.334342,578062,26769
1500.03,1.334347,574159,26588
1503.18,1.336880,570285,26255
1506.32,1.336082,565444,26080
1509.45,1.336405,560571,25836
1512.58,1.339059,555821,25461
1515.71,1.336416,550344,25364
1519.87,1.336830,543983,25047
1522.99,1.335880,538764,24861
1526.1,1.331056,533692,24902
1529.21,1.360278,527902,23029
1532.32,1.337908,521886,23970
1535.42,1.335012,515888,23853
1538.51,1.335126,509987,23574
1541.6,1.335336,503936,23283
1545.72,1.330631,494694,23105
1548.8,1.330003,488378,22843
1551.88,1.326143,481832,22738
1554.95,1.330859,474989,22173
1558.02,1.330685,467818,21847
1561.08,1.336722,460730,21219
1564.15,1.329084,454170,21288
1568.22,1.326915,444181,20924
1571.27,1.333254,436947,20285
1574.32,1.326723,429598,20246
1577.36,1.330732,422039,19707
1580.4,1.326714,414375,19529
1583.43,1.321506,406354,19382
1586.46,1.332151,398475,18546
1590.49,1.320417,388982,18600
1593.51,1.328030,380708,17888
1596.53,1.323148,372727,17711
1599.54,1.326104,365060,17229
1602.55,1.314831,357543,17318
1605.55,1.329419,349495,16369
1608.55,1.320869,341154,16296
1612.54,1.309295,330877,16232
1615.53,1.326088,322904,15240
1618.51,1.315657,315116,15234
1621.49,1.319537,307217,14720
1624.47,1.317494,299481,14417
1627.44,1.322253,292112,13909
1630.41,1.324486,284245,13465
1634.36,1.339232,274079,12550
1637.32,1.322502,266916,12702
1640.27,1.302156,259612,12947
1643.22,1.293141,251804,12821
1646.16,1.310714,244348,11948
1649.1,1.309970,236703,11594
1652.04,1.301966,228171,11384
1655.95,1.299959,215408,10797
1658.88,1.301787,204937,10229
1661.8,1.271295,193395,10355
1664.72,1.257273,179728,9939
1667.63,1.242619,163642,9360
1670.54,1.230075,146312,8614
1673.44,1.174290,128451,8599
1677.31,1.161602,105080,7243
1680.21,1.142005,88906,6411
1683.1,1.149504,75033,5318
1685.99,1.105856,63520,4978
1688.87,1.088812,53714,4378
1691.75,1.169370,45653,3091
1694.62,1.092900,39137,3160
1697.49,1.148397,33776,2400
1701.31,1.071648,28175,2389