File: ML/samples/unknown/Column 1_078461_20241121_170348.csv
Method:,Column 1,,
Host Date-Time:,21/11/24 @ 17:3:48,,
Header Version:,1,,
System Temp (C):,34.73,,
Detector Temp (C):,33.78,,
Humidity (%):,1.86,,
Lamp PD:,3801,,
Shift Vector Coefficients:,-10.5391,0.0761263,-0.000134223,,
Pixel to Wavelength Coefficients:,1775.68,-0.916766,-0.000235065,,
Serial Number:,5510004,,
Scan Config Name:,Column 1,,
Scan Config Type:,Slew,,
Section 1,,
Start wavelength (nm):,900,,
End wavelength (nm):,1700,,
Pattern Pixel Width (nm):,   7.03,,,,
Exposure (ms):,  0.635,,,,
Digital Resolution:,228,,
Num Repeats:,6,,
PGA Gain:,64,,
Total Measurement Time in sec:,  2.700,,
Wavelength (nm),Absorbance (AU),Reference Signal (unitless),Sample Signal (unitless)
901.51,1.307991,108485,5338
905.376,1.324290,121306,5749
909.237,1.319695,131909,6318
913.095,1.316639,143299,6912
916.948,1.318767,156982,7535
922.079,1.321836,179937,8576
925.923,1.324765,200504,9492
929.762,1.348642,222660,9977
933.597,1.320928,244426,11674
937.427,1.328978,263972,12376
941.254,1.318135,281845,13548
945.076,1.334282,297271,13768
950.165,1.322329,315605,15025
953.978,1.317145,328029,15804
957.786,1.315781,340470,16455
961.59,1.321237,352317,16815
965.389,1.308092,363056,17860
969.185,1.308190,373162,18353
972.976,1.311126,382632,18692
976.763,1.315480,391202,18920
981.806,1.311942,400190,19513
985.583,1.308547,406088,19956
989.355,1.303006,410162,20415
993.124,1.313242,412868,20071
996.888,1.315964,414263,20013
1000.65,1.309683,415476,20364
1004.4,1.309409,415479,20377
1009.41,1.315565,414358,20036
1013.15,1.312068,412923,20128
1016.89,1.305940,411526,20345
1020.63,1.311589,409066,19962
1024.36,1.314163,406777,19733
1028.09,1.308577,404427,19873
1031.82,1.309950,401911,19687
1036.78,1.316080,398410,19242
1040.49,1.306972,396204,19541
1044.2,1.311732,394236,19232
1047.91,1.318851,392042,18814
1051.61,1.309380,389823,19120
1055.31,1.309700,388234,19028
1059,1.310476,387599,18963
1063.92,1.310830,386688,18903
1067.61,1.322465,386598,18399
1071.29,1.313745,387377,18810
1074.96,1.306469,388536,19185
1078.63,1.325142,389855,18440
1082.3,1.307016,391215,19293
1085.96,1.316540,393215,18971
1090.84,1.321575,396270,18898
1094.49,1.319496,398760,19108
1098.14,1.327358,400987,18870
1101.79,1.317123,403477,19440
1105.43,1.327412,406116,19109
1109.06,1.317001,407701,19649
1112.7,1.321843,409859,19534
1117.53,1.314713,412494,19985
1121.15,1.324281,414909,19664
1124.77,1.319103,416559,19979
1128.38,1.319116,418532,20073
1131.99,1.324002,419956,19916
1135.6,1.318982,421946,20243
1139.2,1.323335,423881,20133
1143.99,1.320282,426786,20414
1147.58,1.325001,428617,20280
1151.17,1.329382,431169,20196
1154.75,1.320637,433579,20722
1158.33,1.322459,436264,20763
1161.91,1.313849,439132,21318
1165.48,1.310607,442389,21637
1169.04,1.325851,446101,21066
1173.79,1.319332,451929,21664
1177.34,1.326915,456026,21482
1180.9,1.322574,461306,21949
1184.44,1.321973,467657,22282
1187.99,1.322488,473969,22556
1191.52,1.324225,479856,22745
1195.06,1.319685,487372,23344
1199.76,1.319444,497347,23835
1203.29,1.326030,504311,23805
1206.81,1.322674,511507,24332
1210.33,1.319854,519078,24853
1213.84,1.322721,527163,25074
1217.35,1.325449,534208,25250
1220.85,1.327068,540472,25451
1225.51,1.324266,549929,26064
1229.01,1.317082,556888,26834
1232.5,1.326367,562180,26516
1235.98,1.326681,567975,26770
1239.46,1.326158,574815,27125
1242.94,1.325889,582782,27518
1246.41,1.320565,591476,28273
1251.03,1.330245,604016,28236
1254.5,1.323825,612289,29049
1257.96,1.328124,619125,29084
1261.41,1.330259,624551,29195
1264.86,1.325580,629900,29764
1268.31,1.329204,634345,29725
1271.75,1.330937,638574,29804
1276.33,1.338389,642499,29477
1279.76,1.329860,645905,30221
1283.19,1.330496,648307,30289
1286.61,1.331282,650446,30334
1290.03,1.330805,652132,30446
1293.44,1.328944,653907,30660
1296.85,1.324370,655963,31082
1301.39,1.332586,657349,30564
1304.8,1.329524,657558,30790
1308.19,1.333554,658515,30550
1311.58,1.335668,658804,30415
1314.97,1.332080,659011,30677
1318.36,1.332301,658272,30627
1321.73,1.339732,658022,30096
1326.23,1.334353,657870,30464
1329.6,1.330056,656482,30702
1332.97,1.333933,654926,30357
1336.33,1.333939,653727,30301
1339.69,1.335781,652497,30116
1343.04,1.330282,649913,30379
1346.39,1.333062,647671,30081
1349.73,1.333884,645338,29916
1354.18,1.334147,641175,29705
1357.52,1.330205,638376,29845
1360.85,1.332884,635805,29542
1364.17,1.329487,633413,29662
1367.49,1.329651,631026,29539
1370.81,1.326438,628050,29618
1374.12,1.328695,625034,29323
1378.54,1.330514,620272,28978
1381.84,1.328351,616892,28964
1385.14,1.330088,613613,28695
1388.43,1.333142,611526,28397
1391.72,1.335106,610663,28229
1395.01,1.322635,610634,29050
1398.29,1.327644,611700,28767
1402.66,1.332781,614051,28538
1405.93,1.335886,616268,28437
1409.2,1.332191,617795,28751
1412.46,1.334097,618872,28675
1415.72,1.336095,619795,28586
1418.98,1.334887,620495,28698
1422.23,1.334484,621087,28752
1426.56,1.332531,621375,28895
1429.8,1.339638,621616,28437
1433.04,1.339173,622129,28491
1436.27,1.333434,621526,28842
1439.5,1.339577,621113,28418
1442.72,1.340192,620921,28369
1445.94,1.334003,620270,28746
1450.23,1.334256,618860,28664
1453.44,1.330013,617697,28891
1456.64,1.332506,616264,28659
1459.85,1.334180,614413,28463
1463.04,1.338974,612307,28054
1466.24,1.329214,610032,28585
1469.43,1.338595,607345,27851
1473.67,1.330713,603789,28195
1476.85,1.340332,601175,27458
1480.02,1.339108,597737,27378
1483.19,1.342098,594479,27042
1486.36,1.342426,591232,26874
1489.52,1.341977,587853,26748
1492.68,1.344453,583875,26416
1496.89,1.338696,578062,26502
1500.03,1.342225,574159,26110
1503.18,1.334982,570285,26370
1506.32,1.344014,565444,25608
1509.45,1.343045,560571,25444
1512.58,1.332844,555821,25828
1515.71,1.339475,550344,25186
1519.87,1.342063,543983,24747
1522.99,1.336439,538764,24829
1526.1,1.343619,533692,24192
1529.21,1.337824,527902,24251
1532.32,1.336208,521886,24064
1535.42,1.337606,515888,23711
1538.51,1.343684,509987,23114
1541.6,1.331696,503936,23479
1545.72,1.335374,494694,22854
1548.8,1.335629,488378,22549
1551.88,1.339330,481832,22058
1554.95,1.344528,474989,21486
1558.02,1.332797,467818,21741
1561.08,1.332708,460730,21416
1564.15,1.334420,454170,21028
1568.22,1.344321,444181,20102
1571.27,1.341379,436947,19909
1574.32,1.342627,429598,19518
1577.36,1.333540,422039,19580
1580.4,1.342959,414375,18812
1583.43,1.332535,406354,18896
1586.46,1.320825,398475,19036
1590.49,1.324946,388982,18407
1593.51,1.336587,380708,17539
1596.53,1.324474,372727,17657
1599.54,1.328125,365060,17149
1602.55,1.343652,357543,16206
1605.55,1.341280,349495,15928
1608.55,1.335615,341154,15752
1612.54,1.323131,330877,15723
1615.53,1.324922,322904,15281
1618.51,1.326773,315116,14849
1621.49,1.323390,307217,14590
1624.47,1.312225,299481,14593
1627.44,1.317379,292112,14066
1630.41,1.330364,284245,13284
1634.36,1.318686,274079,13158
1637.32,1.330473,266916,12471
1640.27,1.326543,259612,12240
1643.22,1.310663,251804,12314
1646.16,1.311332,244348,11931
1649.1,1.307691,236703,11655
1652.04,1.312937,228171,11100
1655.95,1.319540,215408,10321
1658.88,1.286437,204937,10597
1661.8,1.304853,193395,9585
1664.72,1.302259,179728,8961
1667.63,1.263043,163642,8930
1670.54,1.255617,146312,8122
1673.44,1.236523,128451,7451
1677.31,1.216155,105080,6388
1680.21,1.192675,88906,5705
1683.1,1.179421,75033,4964
1685.99,1.161635,63520,4378
1688.87,1.248932,53714,3028
1691.75,1.189353,45653,2952
1694.62,1.232752,39137,2290
1697.49,1.106018,33776,2646
1701.31,1.182223,28175,1852