File: ML/samples/unknown/Column 1_078061_20241121_164334.csv
Method:,Column 1,,
Host Date-Time:,21/11/24 @ 16:43:34,,
Header Version:,1,,
System Temp (C):,31.24,,
Detector Temp (C):,26.01,,
Humidity (%):,5.37,,
Lamp PD:,3809,,
Shift Vector Coefficients:,-10.5391,0.0761263,-0.000134223,,
Pixel to Wavelength Coefficients:,1775.68,-0.916766,-0.000235065,,
Serial Number:,5510004,,
Scan Config Name:,Column 1,,
Scan Config Type:,Slew,,
Section 1,,
Start wavelength (nm):,900,,
End wavelength (nm):,1700,,
Pattern Pixel Width (nm):,   7.03,,,,
Exposure (ms):,  0.635,,,,
Digital Resolution:,228,,
Num Repeats:,6,,
PGA Gain:,64,,
Total Measurement Time in sec:,  2.708,,
Wavelength (nm),Absorbance (AU),Reference Signal (unitless),Sample Signal (unitless)
901.51,1.312818,108485,5279
905.376,1.316726,121306,5850
909.237,1.321417,131909,6293
913.095,1.304374,143299,7110
916.948,1.306604,156982,7749
922.079,1.330066,179937,8415
925.923,1.304868,200504,9937
929.762,1.317164,222660,10727
933.597,1.312929,244426,11891
937.427,1.312520,263972,12854
941.254,1.305810,281845,13938
945.076,1.304390,297271,14749
950.165,1.304741,315605,15646
953.978,1.307337,328029,16165
957.786,1.301809,340470,16993
961.59,1.312999,352317,17137
965.389,1.315202,363056,17570
969.185,1.309162,373162,18312
972.976,1.310568,382632,18716
976.763,1.311209,391202,19107
981.806,1.307690,400190,19705
985.583,1.310728,406088,19856
989.355,1.310192,410162,20080
993.124,1.310073,412868,20218
996.888,1.307859,414263,20390
1000.65,1.296079,415476,21012
1004.4,1.311010,415479,20302
1009.41,1.301804,414358,20681
1013.15,1.312846,412923,20092
1016.89,1.311093,411526,20105
1020.63,1.313552,409066,19872
1024.36,1.313833,406777,19748
1028.09,1.304444,404427,20063
1031.82,1.312295,401911,19581
1036.78,1.314211,398410,19325
1040.49,1.306439,396204,19565
1044.2,1.307060,394236,19440
1047.91,1.306607,392042,19352
1051.61,1.317241,389823,18777
1055.31,1.310614,388234,18988
1059,1.313463,387599,18833
1063.92,1.310945,386688,18898
1067.61,1.307981,386598,19023
1071.29,1.305331,387377,19178
1074.96,1.315412,388536,18794
1078.63,1.321157,389855,18610
1082.3,1.321294,391215,18669
1085.96,1.310448,393215,19239
1090.84,1.316367,396270,19126
1094.49,1.328267,398760,18726
1098.14,1.316225,400987,19360
1101.79,1.320960,403477,19269
1105.43,1.314228,406116,19698
1109.06,1.316670,407701,19664
1112.7,1.328023,409859,19258
1117.53,1.320401,412494,19725
1121.15,1.310371,414909,20304
1124.77,1.324021,416559,19754
1128.38,1.322941,418532,19897
1131.99,1.314021,419956,20379
1135.6,1.319540,421946,20217
1139.2,1.319491,423881,20312
1143.99,1.322800,426786,20296
1147.58,1.320210,428617,20505
1151.17,1.321646,431169,20559
1154.75,1.325166,433579,20507
1158.33,1.322208,436264,20775
1161.91,1.324094,439132,20821
1165.48,1.325305,442389,20917
1169.04,1.322463,446101,21231
1173.79,1.314944,451929,21884
1177.34,1.314617,456026,22099
1180.9,1.315782,461306,22295
1184.44,1.319195,467657,22425
1187.99,1.315554,473969,22919
1191.52,1.321275,479856,22900
1195.06,1.314617,487372,23618
1199.76,1.309555,497347,24384
1203.29,1.322777,504311,23984
1206.81,1.323979,511507,24259
1210.33,1.321991,519078,24731
1213.84,1.325205,527163,24931
1217.35,1.325810,534208,25229
1220.85,1.333186,540472,25095
1225.51,1.326136,549929,25952
1229.01,1.321327,556888,26573
1232.5,1.319268,562180,26953
1235.98,1.325013,567975,26873
1239.46,1.322444,574815,27358
1242.94,1.326853,582782,27457
1246.41,1.325602,591476,27947
1251.03,1.328296,604016,28363
1254.5,1.323482,612289,29072
1257.96,1.322251,619125,29480
1261.41,1.328967,624551,29282
1264.86,1.323513,629900,29906
1268.31,1.328780,634345,29754
1271.75,1.330616,638574,29826
1276.33,1.326846,642499,30271
1279.76,1.330709,645905,30162
1283.19,1.324741,648307,30693
1286.61,1.329881,650446,30432
1290.03,1.333108,652132,30285
1293.44,1.332728,653907,30394
1296.85,1.324231,655963,31092
1301.39,1.329203,657349,30803
1304.8,1.330994,657558,30686
1308.19,1.328031,658515,30941
1311.58,1.334371,658804,30506
1314.97,1.331726,659011,30702
1318.36,1.337737,658272,30246
1321.73,1.332902,658022,30573
1326.23,1.335481,657870,30385
1329.6,1.329138,656482,30767
1332.97,1.334907,654926,30289
1336.33,1.331111,653727,30499
1339.69,1.335493,652497,30136
1343.04,1.330511,649913,30363
1346.39,1.328124,647671,30425
1349.73,1.328402,645338,30296
1354.18,1.330044,641175,29987
1357.52,1.335358,638376,29493
1360.85,1.330962,635805,29673
1364.17,1.329135,633413,29686
1367.49,1.324638,631026,29882
1370.81,1.330327,628050,29354
1374.12,1.325537,625034,29537
1378.54,1.330649,620272,28969
1381.84,1.332751,616892,28672
1385.14,1.321086,613613,29296
1388.43,1.326525,611526,28833
1391.72,1.327617,610663,28720
1395.01,1.329871,610634,28570
1398.29,1.331556,611700,28509
1402.66,1.332021,614051,28588
1405.93,1.329473,616268,28860
1409.2,1.326280,617795,29145
1412.46,1.330147,618872,28937
1415.72,1.331005,619795,28923
1418.98,1.330550,620495,28986
1422.23,1.335573,621087,28680
1426.56,1.330971,621375,28999
1429.8,1.328854,621616,29152
1433.04,1.336241,622129,28684
1436.27,1.334112,621526,28797
1439.5,1.327104,621113,29246
1442.72,1.332875,620921,28851
1445.94,1.333309,620270,28792
1450.23,1.330770,618860,28895
1453.44,1.335504,617697,28528
1456.64,1.336494,616264,28397
1459.85,1.346043,614413,27696
1463.04,1.335812,612307,28259
1466.24,1.339375,610032,27924
1469.43,1.331450,607345,28313
1473.67,1.339096,603789,27656
1476.85,1.340554,601175,27444
1480.02,1.336199,597737,27562
1483.19,1.339631,594479,27196
1486.36,1.339815,591232,27036
1489.52,1.336315,587853,27099
1492.68,1.342484,583875,26536
1496.89,1.339401,578062,26459
1500.03,1.339655,574159,26265
1503.18,1.346598,570285,25674
1506.32,1.342676,565444,25687
1509.45,1.341444,560571,25538
1512.58,1.333147,555821,25810
1515.71,1.340528,550344,25125
1519.87,1.333014,543983,25268
1522.99,1.332435,538764,25059
1526.1,1.334295,533692,24717
1529.21,1.335840,527902,24362
1532.32,1.342168,521886,23736
1535.42,1.337203,515888,23733
1538.51,1.335919,509987,23531
1541.6,1.342047,503936,22926
1545.72,1.337451,494694,22745
1548.8,1.335860,488378,22537
1551.88,1.338071,481832,22122
1554.95,1.347693,474989,21330
1558.02,1.340516,467818,21358
1561.08,1.338711,460730,21122
1564.15,1.336947,454170,20906
1568.22,1.344321,444181,20102
1571.27,1.341248,436947,19915
1574.32,1.332358,429598,19985
1577.36,1.326521,422039,19899
1580.4,1.332985,414375,19249
1583.43,1.335093,406354,18785
1586.46,1.336126,398475,18377
1590.49,1.332323,388982,18097
1593.51,1.329221,380708,17839
1596.53,1.322144,372727,17752
1599.54,1.338557,365060,16742
1602.55,1.322598,357543,17011
1605.55,1.327671,349495,16435
1608.55,1.325909,341154,16108
1612.54,1.325235,330877,15647
1615.53,1.339428,322904,14779
1618.51,1.318373,315116,15139
1621.49,1.320808,307217,14677
1624.47,1.330427,299481,13994
1627.44,1.321598,292112,13930
1630.41,1.323005,284245,13511
1634.36,1.324735,274079,12976
1637.32,1.320422,266916,12763
1640.27,1.328143,259612,12195
1643.22,1.320364,251804,12042
1646.16,1.324113,244348,11585
1649.1,1.316120,236703,11431
1652.04,1.325924,228171,10773
1655.95,1.318447,215408,10347
1658.88,1.316380,204937,9891
1661.8,1.328790,193395,9071
1664.72,1.326374,179728,8477
1667.63,1.313528,163642,7950
1670.54,1.325048,146312,6922
1673.44,1.309535,128451,6298
1677.31,1.277775,105080,5543
1680.21,1.310542,88906,4349
1683.1,1.260144,75033,4122
1685.99,1.325355,63520,3003
1688.87,1.310793,53714,2626
1691.75,1.307094,45653,2251
1694.62,1.279776,39137,2055
1697.49,1.286315,33776,1747
1701.31,1.362437,28175,1223