File: ML/samples/unknown/Column 1_078377_20241121_165942.csv
Method:,Column 1,,
Host Date-Time:,21/11/24 @ 16:59:42,,
Header Version:,1,,
System Temp (C):,34.58,,
Detector Temp (C):,33.77,,
Humidity (%):,1.81,,
Lamp PD:,3803,,
Shift Vector Coefficients:,-10.5391,0.0761263,-0.000134223,,
Pixel to Wavelength Coefficients:,1775.68,-0.916766,-0.000235065,,
Serial Number:,5510004,,
Scan Config Name:,Column 1,,
Scan Config Type:,Slew,,
Section 1,,
Start wavelength (nm):,900,,
End wavelength (nm):,1700,,
Pattern Pixel Width (nm):,   7.03,,,,
Exposure (ms):,  0.635,,,,
Digital Resolution:,228,,
Num Repeats:,6,,
PGA Gain:,64,,
Total Measurement Time in sec:,  2.726,,
Wavelength (nm),Absorbance (AU),Reference Signal (unitless),Sample Signal (unitless)
901.51,1.307828,108485,5340
905.376,1.312736,121306,5904
909.237,1.317364,131909,6352
913.095,1.331142,143299,6685
916.948,1.325446,156982,7420
922.079,1.352085,179937,7999
925.923,1.308070,200504,9864
929.762,1.316517,222660,10743
933.597,1.335146,244426,11298
937.427,1.319227,263972,12657
941.254,1.317815,281845,13558
945.076,1.320864,297271,14200
950.165,1.323922,315605,14970
953.978,1.308197,328029,16133
957.786,1.311500,340470,16618
961.59,1.316945,352317,16982
965.389,1.323059,363056,17255
969.185,1.316311,373162,18013
972.976,1.316126,382632,18478
976.763,1.319353,391202,18752
981.806,1.315294,400190,19363
985.583,1.310772,406088,19854
989.355,1.312556,410162,19971
993.124,1.312183,412868,20120
996.888,1.314210,414263,20094
1000.65,1.303815,415476,20641
1004.4,1.310861,415479,20309
1009.41,1.316346,414358,20000
1013.15,1.313343,412923,20069
1016.89,1.309778,411526,20166
1020.63,1.307260,409066,20162
1024.36,1.314295,406777,19727
1028.09,1.319845,404427,19364
1031.82,1.317561,401911,19345
1036.78,1.308185,398410,19595
1040.49,1.316363,396204,19123
1044.2,1.312591,394236,19194
1047.91,1.318090,392042,18847
1051.61,1.310745,389823,19060
1055.31,1.313046,388234,18882
1059,1.305149,387599,19197
1063.92,1.306919,386688,19074
1067.61,1.321334,386598,18447
1071.29,1.307328,387377,19090
1074.96,1.316940,388536,18728
1078.63,1.322325,389855,18560
1082.3,1.314165,391215,18978
1085.96,1.321559,393215,18753
1090.84,1.314713,396270,19199
1094.49,1.313739,398760,19363
1098.14,1.316988,400987,19326
1101.79,1.313563,403477,19600
1105.43,1.316106,406116,19613
1109.06,1.309203,407701,20005
1112.7,1.314022,409859,19889
1117.53,1.319960,412494,19745
1121.15,1.320367,414909,19842
1124.77,1.307055,416559,20541
1128.38,1.311715,418532,20418
1131.99,1.321588,419956,20027
1135.6,1.325009,421946,19964
1139.2,1.317273,423881,20416
1143.99,1.323185,426786,20278
1147.58,1.317339,428617,20641
1151.17,1.318384,431169,20714
1154.75,1.320637,433579,20722
1158.33,1.319499,436264,20905
1161.91,1.313849,439132,21318
1165.48,1.324454,442389,20958
1169.04,1.312473,446101,21725
1173.79,1.316713,451929,21795
1177.34,1.316587,456026,21999
1180.9,1.321428,461306,22007
1184.44,1.316107,467657,22585
1187.99,1.320394,473969,22665
1191.52,1.320290,479856,22952
1195.06,1.328632,487372,22868
1199.76,1.321142,497347,23742
1203.29,1.320591,504311,24105
1206.81,1.315522,511507,24736
1210.33,1.325659,519078,24523
1213.84,1.320028,527163,25230
1217.35,1.331110,534208,24923
1220.85,1.331183,540472,25211
1225.51,1.329310,549929,25763
1229.01,1.325251,556888,26334
1232.5,1.326384,562180,26515
1235.98,1.326389,567975,26788
1239.46,1.327329,574815,27052
1242.94,1.326252,582782,27495
1246.41,1.323586,591476,28077
1251.03,1.323894,604016,28652
1254.5,1.328757,612289,28721
1257.96,1.328199,619125,29079
1261.41,1.328982,624551,29281
1264.86,1.325099,629900,29797
1268.31,1.325088,634345,30008
1271.75,1.328351,638574,29982
1276.33,1.331432,642499,29953
1279.76,1.326097,645905,30484
1283.19,1.332854,648307,30125
1286.61,1.329353,650446,30469
1290.03,1.328472,652132,30610
1293.44,1.336877,653907,30105
1296.85,1.328653,655963,30777
1301.39,1.330912,657349,30682
1304.8,1.332553,657558,30576
1308.19,1.331583,658515,30689
1311.58,1.338074,658804,30247
1314.97,1.328288,659011,30946
1318.36,1.332358,658272,30623
1321.73,1.329845,658022,30789
1326.23,1.338277,657870,30190
1329.6,1.334192,656482,30411
1332.97,1.331465,654926,30530
1336.33,1.336051,653727,30154
1339.69,1.332048,652497,30376
1343.04,1.324587,649913,30780
1346.39,1.339637,647671,29629
1349.73,1.327671,645338,30347
1354.18,1.332585,641175,29812
1357.52,1.332013,638376,29721
1360.85,1.332018,635805,29601
1364.17,1.325580,633413,29930
1367.49,1.327379,631026,29694
1370.81,1.333028,628050,29172
1374.12,1.329258,625034,29285
1378.54,1.328316,620272,29125
1381.84,1.333009,616892,28655
1385.14,1.330543,613613,28665
1388.43,1.329472,611526,28638
1391.72,1.330013,610663,28562
1395.01,1.331394,610634,28470
1398.29,1.324890,611700,28950
1402.66,1.338911,614051,28138
1405.93,1.330784,616268,28773
1409.2,1.331663,617795,28786
1412.46,1.326575,618872,29176
1415.72,1.333308,619795,28770
1418.98,1.333165,620495,28812
1422.23,1.332164,621087,28906
1426.56,1.330821,621375,29009
1429.8,1.337171,621616,28599
1433.04,1.340165,622129,28426
1436.27,1.337093,621526,28600
1439.5,1.332213,621113,28904
1442.72,1.330803,620921,28989
1445.94,1.328136,620270,29137
1450.23,1.331868,618860,28822
1453.44,1.337794,617697,28378
1456.64,1.333294,616264,28607
1459.85,1.336122,614413,28336
1463.04,1.337198,612307,28169
1466.24,1.340060,610032,27880
1469.43,1.330714,607345,28361
1473.67,1.341426,603789,27508
1476.85,1.338249,601175,27590
1480.02,1.337004,597737,27511
1483.19,1.341311,594479,27091
1486.36,1.340990,591232,26963
1489.52,1.336444,587853,27091
1492.68,1.340183,583875,26677
1496.89,1.336196,578062,26655
1500.03,1.342259,574159,26108
1503.18,1.342993,570285,25888
1506.32,1.329898,565444,26454
1509.45,1.341733,560571,25521
1512.58,1.331853,555821,25887
1515.71,1.336468,550344,25361
1519.87,1.337350,543983,25017
1522.99,1.344222,538764,24388
1526.1,1.334365,533692,24713
1529.21,1.340753,527902,24088
1532.32,1.336695,521886,24037
1535.42,1.341432,515888,23503
1538.51,1.338176,509987,23409
1541.6,1.335374,503936,23281
1545.72,1.339077,494694,22660
1548.8,1.331775,488378,22750
1551.88,1.334591,481832,22300
1554.95,1.326474,474989,22398
1558.02,1.339602,467818,21403
1561.08,1.340009,460730,21059
1564.15,1.336906,454170,20908
1568.22,1.340449,444181,20282
1571.27,1.340965,436947,19928
1574.32,1.338508,429598,19704
1577.36,1.334584,422039,19533
1580.4,1.326825,414375,19524
1583.43,1.339719,406354,18586
1586.46,1.341285,398475,18160
1590.49,1.326459,388982,18343
1593.51,1.334907,380708,17607
1596.53,1.331791,372727,17362
1599.54,1.321191,365060,17425
1602.55,1.331210,357543,16677
1605.55,1.326826,349495,16467
1608.55,1.333470,341154,15830
1612.54,1.328747,330877,15521
1615.53,1.330269,322904,15094
1618.51,1.323249,315116,14970
1621.49,1.325180,307217,14530
1624.47,1.331484,299481,13960
1627.44,1.337053,292112,13443
1630.41,1.321786,284245,13549
1634.36,1.329074,274079,12847
1637.32,1.329326,266916,12504
1640.27,1.326898,259612,12230
1643.22,1.335259,251804,11636
1646.16,1.298386,244348,12292
1649.1,1.308437,236703,11635
1652.04,1.313329,228171,11090
1655.95,1.329629,215408,10084
1658.88,1.303191,204937,10196
1661.8,1.278825,193395,10177
1664.72,1.262106,179728,9829
1667.63,1.259990,163642,8993
1670.54,1.262244,146312,7999
1673.44,1.220727,128451,7727
1677.31,1.206274,105080,6535
1680.21,1.187229,88906,5777
1683.1,1.178285,75033,4977
1685.99,1.178113,63520,4215
1688.87,1.143388,53714,3861
1691.75,1.243828,45653,2604
1694.62,1.176447,39137,2607
1697.49,1.289309,33776,1735
1701.31,1.260093,28175,1548