File: ML/samples/unknown/Column 1_078933_20241121_172911.csv
Method:,Column 1,,
Host Date-Time:,21/11/24 @ 17:29:11,,
Header Version:,1,,
System Temp (C):,37.44,,
Detector Temp (C):,36.44,,
Humidity (%):,0.68,,
Lamp PD:,3796,,
Shift Vector Coefficients:,-10.5391,0.0761263,-0.000134223,,
Pixel to Wavelength Coefficients:,1775.68,-0.916766,-0.000235065,,
Serial Number:,5510004,,
Scan Config Name:,Column 1,,
Scan Config Type:,Slew,,
Section 1,,
Start wavelength (nm):,900,,
End wavelength (nm):,1700,,
Pattern Pixel Width (nm):,   7.03,,,,
Exposure (ms):,  0.635,,,,
Digital Resolution:,228,,
Num Repeats:,6,,
PGA Gain:,64,,
Total Measurement Time in sec:,  2.724,,
Wavelength (nm),Absorbance (AU),Reference Signal (unitless),Sample Signal (unitless)
901.51,1.277746,108485,5723
905.376,1.312662,121306,5905
909.237,1.320383,131909,6308
913.095,1.318528,143299,6882
916.948,1.312302,156982,7648
922.079,1.312170,179937,8769
925.923,1.320350,200504,9589
929.762,1.308665,222660,10939
933.597,1.318664,244426,11735
937.427,1.305947,263972,13050
941.254,1.324952,281845,13337
945.076,1.297989,297271,14968
950.165,1.318101,315605,15172
953.978,1.301625,328029,16379
957.786,1.309596,340470,16691
961.59,1.309918,352317,17259
965.389,1.312860,363056,17665
969.185,1.302641,373162,18589
972.976,1.308947,382632,18786
976.763,1.303884,391202,19432
981.806,1.297862,400190,20156
985.583,1.308307,406088,19967
989.355,1.302538,410162,20437
993.124,1.306650,412868,20378
996.888,1.303936,414263,20575
1000.65,1.299794,415476,20833
1004.4,1.297635,415479,20937
1009.41,1.305897,414358,20487
1013.15,1.296742,412923,20851
1016.89,1.312435,411526,20043
1020.63,1.297842,409066,20604
1024.36,1.306896,406777,20066
1028.09,1.311471,404427,19741
1031.82,1.305146,401911,19906
1036.78,1.302329,398410,19861
1040.49,1.297628,396204,19966
1044.2,1.300387,394236,19741
1047.91,1.305061,392042,19421
1051.61,1.312709,389823,18974
1055.31,1.307560,388234,19122
1059,1.302398,387599,19319
1063.92,1.307124,386688,19065
1067.61,1.320041,386598,18502
1071.29,1.317665,387377,18641
1074.96,1.306854,388536,19168
1078.63,1.311852,389855,19013
1082.3,1.307286,391215,19281
1085.96,1.312121,393215,19165
1090.84,1.314532,396270,19207
1094.49,1.312127,398760,19435
1098.14,1.309724,400987,19652
1101.79,1.306290,403477,19931
1105.43,1.312709,406116,19767
1109.06,1.309486,407701,19992
1112.7,1.316298,409859,19785
1117.53,1.318511,412494,19811
1121.15,1.317097,414909,19992
1124.77,1.308665,416559,20465
1128.38,1.312546,418532,20379
1131.99,1.315408,419956,20314
1135.6,1.314797,421946,20439
1139.2,1.315448,423881,20502
1143.99,1.324085,426786,20236
1147.58,1.308302,428617,21075
1151.17,1.317546,431169,20754
1154.75,1.313796,433579,21051
1158.33,1.306826,436264,21524
1161.91,1.314889,439132,21267
1165.48,1.313204,442389,21508
1169.04,1.309723,446101,21863
1173.79,1.315063,451929,21878
1177.34,1.304670,456026,22611
1180.9,1.315023,461306,22334
1184.44,1.313328,467657,22730
1187.99,1.324360,473969,22459
1191.52,1.313997,479856,23287
1195.06,1.313497,487372,23679
1199.76,1.321728,497347,23710
1203.29,1.314971,504311,24419
1206.81,1.319012,511507,24538
1210.33,1.320186,519078,24834
1213.84,1.321407,527163,25150
1217.35,1.317642,534208,25708
1220.85,1.315900,540472,26114
1225.51,1.317339,549929,26483
1229.01,1.320397,556888,26630
1232.5,1.320527,562180,26875
1235.98,1.315471,567975,27470
1239.46,1.315265,574815,27814
1242.94,1.322134,582782,27757
1246.41,1.320627,591476,28269
1251.03,1.322275,604016,28759
1254.5,1.326419,612289,28876
1257.96,1.321118,619125,29557
1261.41,1.319360,624551,29937
1264.86,1.322788,629900,29956
1268.31,1.325581,634345,29974
1271.75,1.321253,638574,30476
1276.33,1.322719,642499,30560
1279.76,1.327195,645905,30407
1283.19,1.321078,648307,30953
1286.61,1.323492,650446,30883
1290.03,1.316604,652132,31458
1293.44,1.326697,653907,30819
1296.85,1.319231,655963,31452
1301.39,1.324394,657349,31146
1304.8,1.324922,657558,31118
1308.19,1.326812,658515,31028
1311.58,1.328194,658804,30943
1314.97,1.329215,659011,30880
1318.36,1.327408,658272,30974
1321.73,1.328141,658022,30910
1326.23,1.327564,657870,30944
1329.6,1.323793,656482,31148
1332.97,1.330017,654926,30632
1336.33,1.320755,653727,31235
1339.69,1.328091,652497,30654
1343.04,1.325943,649913,30684
1346.39,1.331534,647671,30187
1349.73,1.323896,645338,30612
1354.18,1.326165,641175,30256
1357.52,1.325113,638376,30197
1360.85,1.324599,635805,30111
1364.17,1.321306,633413,30226
1367.49,1.333951,631026,29248
1370.81,1.322555,628050,29884
1374.12,1.323703,625034,29662
1378.54,1.322716,620272,29503
1381.84,1.321877,616892,29399
1385.14,1.314583,613613,29738
1388.43,1.322358,611526,29111
1391.72,1.327511,610663,28727
1395.01,1.322187,610634,29080
1398.29,1.324260,611700,28992
1402.66,1.327156,614051,28910
1405.93,1.323570,616268,29255
1409.2,1.331120,617795,28822
1412.46,1.327409,618872,29120
1415.72,1.330150,619795,28980
1418.98,1.322666,620495,29517
1422.23,1.331459,621087,28953
1426.56,1.326160,621375,29322
1429.8,1.333693,621616,28829
1433.04,1.331827,622129,28977
1436.27,1.328880,621526,29146
1439.5,1.325222,621113,29373
1442.72,1.330608,620921,29002
1445.94,1.327213,620270,29199
1450.23,1.327819,618860,29092
1453.44,1.331277,617697,28807
1456.64,1.335700,616264,28449
1459.85,1.326407,614413,28977
1463.04,1.337167,612307,28171
1466.24,1.333858,610032,28281
1469.43,1.327829,607345,28550
1473.67,1.329913,603789,28247
1476.85,1.332091,601175,27984
1480.02,1.331482,597737,27863
1483.19,1.330999,594479,27742
1486.36,1.332899,591232,27470
1489.52,1.335035,587853,27179
1492.68,1.326529,583875,27529
1496.89,1.329502,578062,27069
1500.03,1.341162,574159,26174
1503.18,1.332633,570285,26513
1506.32,1.326529,565444,26660
1509.45,1.329832,560571,26230
1512.58,1.337357,555821,25561
1515.71,1.329705,550344,25759
1519.87,1.328126,543983,25554
1522.99,1.328621,538764,25280
1526.1,1.332279,533692,24832
1529.21,1.332325,527902,24560
1532.32,1.343322,521886,23673
1535.42,1.331729,515888,24034
1538.51,1.338306,509987,23402
1541.6,1.328489,503936,23653
1545.72,1.334995,494694,22874
1548.8,1.333420,488378,22664
1551.88,1.327463,481832,22669
1554.95,1.332586,474989,22085
1558.02,1.334298,467818,21666
1561.08,1.331210,460730,21490
1564.15,1.331210,454170,21184
1568.22,1.329914,444181,20780
1571.27,1.330479,436947,20415
1574.32,1.326316,429598,20265
1577.36,1.318263,422039,20281
1580.4,1.324385,414375,19634
1583.43,1.333202,406354,18867
1586.46,1.326682,398475,18781
1590.49,1.327241,388982,18310
1593.51,1.322410,380708,18121
1596.53,1.326767,372727,17564
1599.54,1.331609,365060,17012
1602.55,1.324954,357543,16919
1605.55,1.321922,349495,16654
1608.55,1.323087,341154,16213
1612.54,1.323435,330877,15712
1615.53,1.316394,322904,15584
1618.51,1.324964,315116,14911
1621.49,1.320986,307217,14671
1624.47,1.321763,299481,14276
1627.44,1.321442,292112,13935
1630.41,1.307193,284245,14012
1634.36,1.305456,274079,13565
1637.32,1.319606,266916,12787
1640.27,1.319784,259612,12432
1643.22,1.306591,251804,12430
1646.16,1.312279,244348,11905
1649.1,1.297891,236703,11921
1652.04,1.288777,228171,11735
1655.95,1.287079,215408,11122
1658.88,1.277514,204937,10817
1661.8,1.269245,193395,10404
1664.72,1.277167,179728,9494
1667.63,1.245879,163642,9290
1670.54,1.236577,146312,8486
1673.44,1.211330,128451,7896
1677.31,1.163946,105080,7204
1680.21,1.129387,88906,6600
1683.1,1.141333,75033,5419
1685.99,1.092032,63520,5139
1688.87,1.083684,53714,4430
1691.75,1.117267,45653,3485
1694.62,1.110000,39137,3038
1697.49,1.164433,33776,2313
1701.31,1.128058,28175,2098