File: ML/samples/unknown/Column 1_078938_20241121_172926.csv
Method:,Column 1,,
Host Date-Time:,21/11/24 @ 17:29:26,,
Header Version:,1,,
System Temp (C):,37.51,,
Detector Temp (C):,36.54,,
Humidity (%):,0.54,,
Lamp PD:,3796,,
Shift Vector Coefficients:,-10.5391,0.0761263,-0.000134223,,
Pixel to Wavelength Coefficients:,1775.68,-0.916766,-0.000235065,,
Serial Number:,5510004,,
Scan Config Name:,Column 1,,
Scan Config Type:,Slew,,
Section 1,,
Start wavelength (nm):,900,,
End wavelength (nm):,1700,,
Pattern Pixel Width (nm):,   7.03,,,,
Exposure (ms):,  0.635,,,,
Digital Resolution:,228,,
Num Repeats:,6,,
PGA Gain:,64,,
Total Measurement Time in sec:,  2.726,,
Wavelength (nm),Absorbance (AU),Reference Signal (unitless),Sample Signal (unitless)
901.51,1.330447,108485,5069
905.376,1.314874,121306,5875
909.237,1.305827,131909,6523
913.095,1.317709,143299,6895
916.948,1.333182,156982,7289
922.079,1.297465,179937,9071
925.923,1.333313,200504,9307
929.762,1.333164,222660,10339
933.597,1.323278,244426,11611
937.427,1.326423,263972,12449
941.254,1.332010,281845,13122
945.076,1.310767,297271,14534
950.165,1.317072,315605,15208
953.978,1.308978,328029,16104
957.786,1.312363,340470,16585
961.59,1.305487,352317,17436
965.389,1.311780,363056,17709
969.185,1.307883,373162,18366
972.976,1.295764,382632,19365
976.763,1.297604,391202,19715
981.806,1.315810,400190,19340
985.583,1.307807,406088,19990
989.355,1.298204,410162,20642
993.124,1.304502,412868,20479
996.888,1.301033,414263,20713
1000.65,1.304658,415476,20601
1004.4,1.306097,415479,20533
1009.41,1.295467,414358,20985
1013.15,1.310367,412923,20207
1016.89,1.310467,411526,20134
1020.63,1.302589,409066,20380
1024.36,1.308761,406777,19980
1028.09,1.308424,404427,19880
1031.82,1.309399,401911,19712
1036.78,1.301412,398410,19903
1040.49,1.303629,396204,19692
1044.2,1.304010,394236,19577
1047.91,1.307865,392042,19296
1051.61,1.312571,389823,18980
1055.31,1.300397,388234,19440
1059,1.312565,387599,18872
1063.92,1.304693,386688,19172
1067.61,1.313518,386598,18782
1071.29,1.309380,387377,19000
1074.96,1.310244,388536,19019
1078.63,1.309983,389855,19095
1082.3,1.316667,391215,18869
1085.96,1.304328,393215,19512
1090.84,1.314147,396270,19224
1094.49,1.318339,398760,19159
1098.14,1.310919,400987,19598
1101.79,1.309395,403477,19789
1105.43,1.314559,406116,19683
1109.06,1.315457,407701,19719
1112.7,1.302302,409859,20433
1117.53,1.321967,412494,19654
1121.15,1.314001,414909,20135
1124.77,1.309153,416559,20442
1128.38,1.316141,418532,20211
1131.99,1.307024,419956,20710
1135.6,1.314033,421946,20475
1139.2,1.308388,423881,20838
1143.99,1.320516,426786,20403
1147.58,1.309954,428617,20995
1151.17,1.311292,431169,21055
1154.75,1.316693,433579,20911
1158.33,1.323129,436264,20731
1161.91,1.305835,439132,21715
1165.48,1.314580,442389,21440
1169.04,1.317257,446101,21487
1173.79,1.313398,451929,21962
1177.34,1.319836,456026,21835
1180.9,1.319204,461306,22120
1184.44,1.313557,467657,22718
1187.99,1.310711,473969,23176
1191.52,1.318855,479856,23028
1195.06,1.314305,487372,23635
1199.76,1.316865,497347,23977
1203.29,1.319619,504311,24159
1206.81,1.316207,511507,24697
1210.33,1.319417,519078,24878
1213.84,1.316735,527163,25422
1217.35,1.319386,534208,25605
1220.85,1.310462,540472,26443
1225.51,1.322852,549929,26149
1229.01,1.322440,556888,26505
1232.5,1.318094,562180,27026
1235.98,1.323642,567975,26958
1239.46,1.323063,574815,27319
1242.94,1.314965,582782,28219
1246.41,1.325555,591476,27950
1251.03,1.315457,604016,29214
1254.5,1.320207,612289,29292
1257.96,1.318379,619125,29744
1261.41,1.317709,624551,30051
1264.86,1.320979,629900,30081
1268.31,1.321974,634345,30224
1271.75,1.326457,638574,30113
1276.33,1.320946,642499,30685
1279.76,1.320829,645905,30856
1283.19,1.322610,648307,30844
1286.61,1.325946,650446,30709
1290.03,1.321505,652132,31105
1293.44,1.325262,653907,30921
1296.85,1.326570,655963,30925
1301.39,1.322390,657349,31290
1304.8,1.323348,657558,31231
1308.19,1.331060,658515,30726
1311.58,1.325870,658804,31109
1314.97,1.332703,659011,30633
1318.36,1.330885,658272,30727
1321.73,1.331527,658022,30670
1326.23,1.328758,657870,30859
1329.6,1.334035,656482,30422
1332.97,1.330840,654926,30574
1336.33,1.328541,653727,30680
1339.69,1.320911,652497,31165
1343.04,1.329382,649913,30442
1346.39,1.321888,647671,30865
1349.73,1.320912,645338,30823
1354.18,1.326151,641175,30257
1357.52,1.322818,638376,30357
1360.85,1.318441,635805,30541
1364.17,1.326074,633413,29896
1367.49,1.321336,631026,30110
1370.81,1.329470,628050,29412
1374.12,1.325552,625034,29536
1378.54,1.323733,620272,29434
1381.84,1.328291,616892,28968
1385.14,1.326861,613613,28909
1388.43,1.325036,611526,28932
1391.72,1.324874,610663,28902
1395.01,1.324718,610634,28911
1398.29,1.325520,611700,28908
1402.66,1.324326,614051,29099
1405.93,1.326534,616268,29056
1409.2,1.331226,617795,28815
1412.46,1.328515,618872,29046
1415.72,1.332795,619795,28804
1418.98,1.323963,620495,29429
1422.23,1.332630,621087,28875
1426.56,1.334535,621375,28762
1429.8,1.336367,621616,28652
1433.04,1.330465,622129,29068
1436.27,1.327556,621526,29235
1439.5,1.335062,621113,28715
1442.72,1.332770,620921,28858
1445.94,1.331803,620270,28892
1450.23,1.332924,618860,28752
1453.44,1.326062,617697,29155
1456.64,1.339533,616264,28199
1459.85,1.329974,614413,28740
1463.04,1.330755,612307,28590
1466.24,1.333305,610032,28317
1469.43,1.328149,607345,28529
1473.67,1.325675,603789,28524
1476.85,1.332977,601175,27927
1480.02,1.326508,597737,28184
1483.19,1.331422,594479,27715
1486.36,1.336503,591232,27243
1489.52,1.330157,587853,27486
1492.68,1.327208,583875,27486
1496.89,1.327038,578062,27223
1500.03,1.336180,574159,26476
1503.18,1.331357,570285,26591
1506.32,1.326497,565444,26662
1509.45,1.339239,560571,25668
1512.58,1.330781,555821,25951
1515.71,1.335886,550344,25395
1519.87,1.335946,543983,25098
1522.99,1.332140,538764,25076
1526.1,1.335897,533692,24626
1529.21,1.330367,527902,24671
1532.32,1.332739,521886,24257
1535.42,1.333468,515888,23938
1538.51,1.338993,509987,23365
1541.6,1.330053,503936,23568
1545.72,1.336002,494694,22821
1548.8,1.332711,488378,22701
1551.88,1.334046,481832,22328
1554.95,1.331741,474989,22128
1558.02,1.324272,467818,22172
1561.08,1.333703,460730,21367
1564.15,1.327394,454170,21371
1568.22,1.325548,444181,20990
1571.27,1.325572,436947,20647
1574.32,1.330840,429598,20055
1577.36,1.324431,422039,19995
1580.4,1.324982,414375,19607
1583.43,1.326214,406354,19173
1586.46,1.334193,398475,18459
1590.49,1.328429,388982,18260
1593.51,1.327375,380708,17915
1596.53,1.335131,372727,17229
1599.54,1.310045,365060,17878
1602.55,1.324287,357543,16945
1605.55,1.320542,349495,16707
1608.55,1.316917,341154,16445
1612.54,1.321862,330877,15769
1615.53,1.311958,322904,15744
1618.51,1.324352,315116,14932
1621.49,1.318212,307217,14765
1624.47,1.318671,299481,14378
1627.44,1.307428,292112,14392
1630.41,1.314192,284245,13788
1634.36,1.321235,274079,13081
1637.32,1.314273,266916,12945
1640.27,1.300548,259612,12995
1643.22,1.309994,251804,12333
1646.16,1.316274,244348,11796
1649.1,1.308139,236703,11643
1652.04,1.301699,228171,11391
1655.95,1.295238,215408,10915
1658.88,1.286396,204937,10598
1661.8,1.269454,193395,10399
1664.72,1.265255,179728,9758
1667.63,1.236034,163642,9503
1670.54,1.215695,146312,8904
1673.44,1.212156,128451,7881
1677.31,1.171180,105080,7085
1680.21,1.145269,88906,6363
1683.1,1.157831,75033,5217
1685.99,1.119773,63520,4821
1688.87,1.102414,53714,4243
1691.75,1.123163,45653,3438
1694.62,1.103755,39137,3082
1697.49,1.104707,33776,2654
1701.31,1.146668,28175,2010