File: ML/samples/unknown/Column 1_078679_20241121_171657.csv
Method:,Column 1,,
Host Date-Time:,21/11/24 @ 17:16:57,,
Header Version:,1,,
System Temp (C):,34.43,,
Detector Temp (C):,35.06,,
Humidity (%):,1.66,,
Lamp PD:,3802,,
Shift Vector Coefficients:,-10.5391,0.0761263,-0.000134223,,
Pixel to Wavelength Coefficients:,1775.68,-0.916766,-0.000235065,,
Serial Number:,5510004,,
Scan Config Name:,Column 1,,
Scan Config Type:,Slew,,
Section 1,,
Start wavelength (nm):,900,,
End wavelength (nm):,1700,,
Pattern Pixel Width (nm):,   7.03,,,,
Exposure (ms):,  0.635,,,,
Digital Resolution:,228,,
Num Repeats:,6,,
PGA Gain:,64,,
Total Measurement Time in sec:,  2.672,,
Wavelength (nm),Absorbance (AU),Reference Signal (unitless),Sample Signal (unitless)
901.51,1.278050,108485,5719
905.376,1.321429,121306,5787
909.237,1.302511,131909,6573
913.095,1.315385,143299,6932
916.948,1.310319,156982,7683
922.079,1.312616,179937,8760
925.923,1.332707,200504,9320
929.762,1.332996,222660,10343
933.597,1.340561,244426,11158
937.427,1.311440,263972,12886
941.254,1.320836,281845,13464
945.076,1.306841,297271,14666
950.165,1.310047,315605,15456
953.978,1.312526,328029,15973
957.786,1.307209,340470,16783
961.59,1.316153,352317,17013
965.389,1.305136,363056,17982
969.185,1.310825,373162,18242
972.976,1.305378,382632,18941
976.763,1.302433,391202,19497
981.806,1.308616,400190,19663
985.583,1.309985,406088,19890
989.355,1.305267,410162,20309
993.124,1.292002,412868,21077
996.888,1.306201,414263,20468
1000.65,1.308341,415476,20427
1004.4,1.295524,415479,21039
1009.41,1.298895,414358,20820
1013.15,1.309766,412923,20235
1016.89,1.293089,411526,20956
1020.63,1.305840,409066,20228
1024.36,1.305189,406777,20145
1028.09,1.307725,404427,19912
1031.82,1.295715,401911,20343
1036.78,1.301106,398410,19917
1040.49,1.302440,396204,19746
1044.2,1.300629,394236,19730
1047.91,1.306562,392042,19354
1051.61,1.305108,389823,19309
1055.31,1.312172,388234,18920
1059,1.307759,387599,19082
1063.92,1.303381,386688,19230
1067.61,1.310959,386598,18893
1071.29,1.316734,387377,18681
1074.96,1.301764,388536,19394
1078.63,1.306653,389855,19242
1082.3,1.299274,391215,19640
1085.96,1.307949,393215,19350
1090.84,1.307333,396270,19528
1094.49,1.313425,398760,19377
1098.14,1.297542,400987,20211
1101.79,1.312412,403477,19652
1105.43,1.309099,406116,19932
1109.06,1.308661,407701,20030
1112.7,1.308834,409859,20128
1117.53,1.308136,412494,20290
1121.15,1.318751,414909,19916
1124.77,1.314282,416559,20202
1128.38,1.311312,418532,20437
1131.99,1.308431,419956,20643
1135.6,1.313037,421946,20522
1139.2,1.315236,423881,20512
1143.99,1.316406,426786,20597
1147.58,1.313193,428617,20839
1151.17,1.308947,431169,21169
1154.75,1.314043,433579,21039
1158.33,1.313905,436264,21176
1161.91,1.319446,439132,21045
1165.48,1.309685,442389,21683
1169.04,1.313975,446101,21650
1173.79,1.315659,451929,21848
1177.34,1.311211,456026,22273
1180.9,1.313896,461306,22392
1184.44,1.314859,467657,22650
1187.99,1.315592,473969,22917
1191.52,1.322986,479856,22810
1195.06,1.312764,487372,23719
1199.76,1.319991,497347,23805
1203.29,1.317718,504311,24265
1206.81,1.324695,511507,24219
1210.33,1.312645,519078,25269
1213.84,1.317316,527163,25388
1217.35,1.314344,534208,25904
1220.85,1.321153,540472,25800
1225.51,1.320516,549929,26290
1229.01,1.322751,556888,26486
1232.5,1.317307,562180,27075
1235.98,1.314981,567975,27501
1239.46,1.316453,574815,27738
1242.94,1.322666,582782,27723
1246.41,1.319522,591476,28341
1251.03,1.325503,604016,28546
1254.5,1.321217,612289,29224
1257.96,1.317111,619125,29831
1261.41,1.317955,624551,30034
1264.86,1.322556,629900,29972
1268.31,1.321356,634345,30267
1271.75,1.319547,638574,30596
1276.33,1.319773,642499,30768
1279.76,1.320702,645905,30865
1283.19,1.328250,648307,30446
1286.61,1.321653,650446,31014
1290.03,1.324729,652132,30875
1293.44,1.327261,653907,30779
1296.85,1.325574,655963,30996
1301.39,1.325874,657349,31040
1304.8,1.326755,657558,30987
1308.19,1.323785,658515,31245
1311.58,1.328082,658804,30951
1314.97,1.328639,659011,30921
1318.36,1.333707,658272,30528
1321.73,1.326375,658022,31036
1326.23,1.326442,657870,31024
1329.6,1.325791,656482,31005
1332.97,1.324606,654926,31016
1336.33,1.330229,653727,30561
1339.69,1.324972,652497,30875
1343.04,1.323938,649913,30826
1346.39,1.322663,647671,30810
1349.73,1.326885,645338,30402
1354.18,1.328511,641175,30093
1357.52,1.324940,638376,30209
1360.85,1.325118,635805,30075
1364.17,1.323207,633413,30094
1367.49,1.317874,631026,30351
1370.81,1.321090,628050,29985
1374.12,1.324157,625034,29631
1378.54,1.326248,620272,29264
1381.84,1.323846,616892,29266
1385.14,1.317190,613613,29560
1388.43,1.321866,611526,29144
1391.72,1.321297,610663,29141
1395.01,1.324973,610634,28894
1398.29,1.325836,611700,28887
1402.66,1.323134,614051,29179
1405.93,1.326878,616268,29033
1409.2,1.328701,617795,28983
1412.46,1.325089,618872,29276
1415.72,1.326063,619795,29254
1418.98,1.328801,620495,29103
1422.23,1.326433,621087,29290
1426.56,1.334867,621375,28740
1429.8,1.325219,621616,29397
1433.04,1.325061,622129,29432
1436.27,1.332291,621526,28918
1439.5,1.328711,621113,29138
1442.72,1.326747,620921,29261
1445.94,1.329973,620270,29014
1450.23,1.330109,618860,28939
1453.44,1.329292,617697,28939
1456.64,1.330857,616264,28768
1459.85,1.331594,614413,28633
1463.04,1.332216,612307,28494
1466.24,1.326987,610032,28732
1469.43,1.332432,607345,28249
1473.67,1.334705,603789,27937
1476.85,1.330697,601175,28074
1480.02,1.336121,597737,27567
1483.19,1.322642,594479,28281
1486.36,1.329874,591232,27662
1489.52,1.328360,587853,27600
1492.68,1.329124,583875,27365
1496.89,1.336538,578062,26634
1500.03,1.331595,574159,26757
1503.18,1.331700,570285,26570
1506.32,1.337951,565444,25968
1509.45,1.342039,560571,25503
1512.58,1.336865,555821,25590
1515.71,1.331920,550344,25628
1519.87,1.341379,543983,24786
1522.99,1.329671,538764,25219
1526.1,1.330151,533692,24954
1529.21,1.338666,527902,24204
1532.32,1.333043,521886,24240
1535.42,1.328704,515888,24202
1538.51,1.336547,509987,23497
1541.6,1.322617,503936,23975
1545.72,1.326720,494694,23314
1548.8,1.336940,488378,22481
1551.88,1.332396,481832,22413
1554.95,1.333255,474989,22051
1558.02,1.329871,467818,21888
1561.08,1.317230,460730,22193
1564.15,1.340221,454170,20749
1568.22,1.329267,444181,20811
1571.27,1.331139,436947,20384
1574.32,1.323453,429598,20399
1577.36,1.331283,422039,19682
1580.4,1.326980,414375,19517
1583.43,1.318736,406354,19506
1586.46,1.331917,398475,18556
1590.49,1.321328,388982,18561
1593.51,1.330538,380708,17785
1596.53,1.319072,372727,17878
1599.54,1.326129,365060,17228
1602.55,1.314379,357543,17336
1605.55,1.317202,349495,16836
1608.55,1.319645,341154,16342
1612.54,1.316498,330877,15965
1615.53,1.312814,322904,15713
1618.51,1.306489,315116,15559
1621.49,1.311962,307217,14979
1624.47,1.327304,299481,14095
1627.44,1.319390,292112,14001
1630.41,1.318783,284245,13643
1634.36,1.315005,274079,13270
1637.32,1.309568,266916,13086
1640.27,1.309667,259612,12725
1643.22,1.314454,251804,12207
1646.16,1.311004,244348,11940
1649.1,1.311697,236703,11548
1652.04,1.299227,228171,11456
1655.95,1.298473,215408,10834
1658.88,1.293878,204937,10417
1661.8,1.287707,193395,9971
1664.72,1.275842,179728,9523
1667.63,1.246440,163642,9278
1670.54,1.238012,146312,8458
1673.44,1.223263,128451,7682
1677.31,1.180348,105080,6937
1680.21,1.180663,88906,5865
1683.1,1.181086,75033,4945
1685.99,1.134898,63520,4656
1688.87,1.178882,53714,3558
1691.75,1.112310,45653,3525
1694.62,1.218389,39137,2367
1697.49,1.136087,33776,2469
1701.31,1.186701,28175,1833