File: ML/samples/unknown/Column 1_078746_20241121_172011.csv
Method:,Column 1,,
Host Date-Time:,21/11/24 @ 17:20:11,,
Header Version:,1,,
System Temp (C):,36.36,,
Detector Temp (C):,34.72,,
Humidity (%):,1.17,,
Lamp PD:,3799,,
Shift Vector Coefficients:,-10.5391,0.0761263,-0.000134223,,
Pixel to Wavelength Coefficients:,1775.68,-0.916766,-0.000235065,,
Serial Number:,5510004,,
Scan Config Name:,Column 1,,
Scan Config Type:,Slew,,
Section 1,,
Start wavelength (nm):,900,,
End wavelength (nm):,1700,,
Pattern Pixel Width (nm):,   7.03,,,,
Exposure (ms):,  0.635,,,,
Digital Resolution:,228,,
Num Repeats:,6,,
PGA Gain:,64,,
Total Measurement Time in sec:,  2.724,,
Wavelength (nm),Absorbance (AU),Reference Signal (unitless),Sample Signal (unitless)
901.51,1.298416,108485,5457
905.376,1.309950,121306,5942
909.237,1.302445,131909,6574
913.095,1.299393,143299,7192
916.948,1.318479,156982,7540
922.079,1.329654,179937,8423
925.923,1.323943,200504,9510
929.762,1.323403,222660,10574
933.597,1.314649,244426,11844
937.427,1.305947,263972,13050
941.254,1.302458,281845,14046
945.076,1.298366,297271,14955
950.165,1.302608,315605,15723
953.978,1.314351,328029,15906
957.786,1.312861,340470,16566
961.59,1.310094,352317,17252
965.389,1.306514,363056,17925
969.185,1.304749,373162,18499
972.976,1.301475,382632,19112
976.763,1.293025,391202,19924
981.806,1.303566,400190,19893
985.583,1.306852,406088,20034
989.355,1.295205,410162,20785
993.124,1.308957,412868,20270
996.888,1.300677,414263,20730
1000.65,1.304320,415476,20617
1004.4,1.298798,415479,20881
1009.41,1.303656,414358,20593
1013.15,1.297931,412923,20794
1016.89,1.303746,411526,20448
1020.63,1.297863,409066,20603
1024.36,1.303017,406777,20246
1028.09,1.305181,404427,20029
1031.82,1.306326,401911,19852
1036.78,1.301739,398410,19888
1040.49,1.308085,396204,19491
1044.2,1.309143,394236,19347
1047.91,1.298272,392042,19727
1051.61,1.297991,389823,19628
1055.31,1.298636,388234,19519
1059,1.307349,387599,19100
1063.92,1.298441,386688,19450
1067.61,1.304841,386598,19161
1071.29,1.298612,387377,19477
1074.96,1.308034,388536,19116
1078.63,1.313523,389855,18940
1082.3,1.306768,391215,19304
1085.96,1.312076,393215,19167
1090.84,1.307044,396270,19541
1094.49,1.310699,398760,19499
1098.14,1.306948,400987,19778
1101.79,1.309636,403477,19778
1105.43,1.306991,406116,20029
1109.06,1.310203,407701,19959
1112.7,1.312213,409859,19972
1117.53,1.324916,412494,19521
1121.15,1.316793,414909,20006
1124.77,1.318495,416559,20007
1128.38,1.312503,418532,20381
1131.99,1.320613,419956,20072
1135.6,1.308574,421946,20734
1139.2,1.319384,423881,20317
1143.99,1.314639,426786,20681
1147.58,1.313693,428617,20815
1151.17,1.322872,431169,20501
1154.75,1.312601,433579,21109
1158.33,1.307452,436264,21493
1161.91,1.302488,439132,21883
1165.48,1.311330,442389,21601
1169.04,1.310280,446101,21835
1173.79,1.307487,451929,22263
1177.34,1.311503,456026,22258
1180.9,1.322021,461306,21977
1184.44,1.306579,467657,23086
1187.99,1.309271,473969,23253
1191.52,1.312824,479856,23350
1195.06,1.313919,487372,23656
1199.76,1.318425,497347,23891
1203.29,1.309878,504311,24707
1206.81,1.310287,511507,25036
1210.33,1.321342,519078,24768
1213.84,1.308645,527163,25900
1217.35,1.318521,534208,25656
1220.85,1.315119,540472,26161
1225.51,1.315997,549929,26565
1229.01,1.315709,556888,26919
1232.5,1.318673,562180,26990
1235.98,1.315724,567975,27454
1239.46,1.317535,574815,27669
1242.94,1.316089,582782,28146
1246.41,1.319170,591476,28364
1251.03,1.316142,604016,29168
1254.5,1.323004,612289,29104
1257.96,1.314787,619125,29991
1261.41,1.321177,624551,29812
1264.86,1.327613,629900,29625
1268.31,1.320110,634345,30354
1271.75,1.321809,638574,30437
1276.33,1.325886,642499,30338
1279.76,1.323483,645905,30668
1283.19,1.327353,648307,30509
1286.61,1.344391,650446,29432
1290.03,1.323956,652132,30930
1293.44,1.328279,653907,30707
1296.85,1.320850,655963,31335
1301.39,1.324003,657349,31174
1304.8,1.324169,657558,31172
1308.19,1.325024,658515,31156
1311.58,1.329023,658804,30884
1314.97,1.330300,659011,30803
1318.36,1.323541,658272,31251
1321.73,1.331088,658022,30701
1326.23,1.324821,657870,31140
1329.6,1.328602,656482,30805
1332.97,1.328517,654926,30738
1336.33,1.321701,653727,31167
1339.69,1.324227,652497,30928
1343.04,1.321423,649913,31005
1346.39,1.322240,647671,30840
1349.73,1.323314,645338,30653
1354.18,1.328713,641175,30079
1357.52,1.328926,638376,29933
1360.85,1.326101,635805,30007
1364.17,1.320933,633413,30252
1367.49,1.321596,631026,30092
1370.81,1.320757,628050,30008
1374.12,1.318074,625034,30049
1378.54,1.321481,620272,29587
1381.84,1.321478,616892,29426
1385.14,1.316266,613613,29623
1388.43,1.314010,611526,29676
1391.72,1.321730,610663,29112
1395.01,1.322545,610634,29056
1398.29,1.326619,611700,28835
1402.66,1.329385,614051,28762
1405.93,1.325593,616268,29119
1409.2,1.326668,617795,29119
1412.46,1.326545,618872,29178
1415.72,1.330165,619795,28979
1418.98,1.324435,620495,29397
1422.23,1.321406,621087,29631
1426.56,1.324726,621375,29419
1429.8,1.329540,621616,29106
1433.04,1.331348,622129,29009
1436.27,1.325097,621526,29401
1439.5,1.333989,621113,28786
1442.72,1.323038,620921,29512
1445.94,1.329868,620270,29021
1450.23,1.331251,618860,28863
1453.44,1.326927,617697,29097
1456.64,1.331597,616264,28719
1459.85,1.327007,614413,28937
1463.04,1.325201,612307,28958
1466.24,1.329336,610032,28577
1469.43,1.325024,607345,28735
1473.67,1.331021,603789,28175
1476.85,1.323684,601175,28531
1480.02,1.332981,597737,27767
1483.19,1.327832,594479,27945
1486.36,1.327635,591232,27805
1489.52,1.331883,587853,27377
1492.68,1.331081,583875,27242
1496.89,1.333580,578062,26816
1500.03,1.337264,574159,26410
1503.18,1.325856,570285,26930
1506.32,1.334072,565444,26201
1509.45,1.336052,560571,25857
1512.58,1.335289,555821,25683
1515.71,1.329756,550344,25756
1519.87,1.328807,543983,25514
1522.99,1.333372,538764,25005
1526.1,1.325873,533692,25201
1529.21,1.330296,527902,24675
1532.32,1.329670,521886,24429
1535.42,1.328435,515888,24217
1538.51,1.333343,509987,23671
1541.6,1.329905,503936,23576
1545.72,1.323491,494694,23488
1548.8,1.333745,488378,22647
1551.88,1.335624,481832,22247
1554.95,1.324385,474989,22506
1558.02,1.330665,467818,21848
1561.08,1.322071,460730,21947
1564.15,1.328655,454170,21309
1568.22,1.329935,444181,20779
1571.27,1.325740,436947,20639
1574.32,1.327303,429598,20219
1577.36,1.324996,422039,19969
1580.4,1.329122,414375,19421
1583.43,1.321797,406354,19369
1586.46,1.314034,398475,19336
1590.49,1.324687,388982,18418
1593.51,1.319948,380708,18224
1596.53,1.336064,372727,17192
1599.54,1.320668,365060,17446
1602.55,1.331002,357543,16685
1605.55,1.324958,349495,16538
1608.55,1.320390,341154,16314
1612.54,1.330317,330877,15465
1615.53,1.318798,322904,15498
1618.51,1.317342,315116,15175
1621.49,1.308871,307217,15086
1624.47,1.323714,299481,14212
1627.44,1.319794,292112,13988
1630.41,1.308465,284245,13971
1634.36,1.305360,274079,13568
1637.32,1.319165,266916,12800
1640.27,1.307251,259612,12796
1643.22,1.301900,251804,12565
1646.16,1.309624,244348,11978
1649.1,1.309072,236703,11618
1652.04,1.300442,228171,11424
1655.95,1.298954,215408,10822
1658.88,1.277473,204937,10818
1661.8,1.263193,193395,10550
1664.72,1.265656,179728,9749
1667.63,1.240397,163642,9408
1670.54,1.235555,146312,8506
1673.44,1.212652,128451,7872
1677.31,1.161841,105080,7239
1680.21,1.178668,88906,5892
1683.1,1.146980,75033,5349
1685.99,1.186855,63520,4131
1688.87,1.144288,53714,3853
1691.75,1.144523,45653,3273
1694.62,1.139116,39137,2841
1697.49,1.105526,33776,2649
1701.31,1.147317,28175,2007