File: ML/samples/unknown/Column 1_078360_20241121_165813.csv
Method:,Column 1,,
Host Date-Time:,21/11/24 @ 16:58:13,,
Header Version:,1,,
System Temp (C):,34.82,,
Detector Temp (C):,33.38,,
Humidity (%):,2.05,,
Lamp PD:,3801,,
Shift Vector Coefficients:,-10.5391,0.0761263,-0.000134223,,
Pixel to Wavelength Coefficients:,1775.68,-0.916766,-0.000235065,,
Serial Number:,5510004,,
Scan Config Name:,Column 1,,
Scan Config Type:,Slew,,
Section 1,,
Start wavelength (nm):,900,,
End wavelength (nm):,1700,,
Pattern Pixel Width (nm):,   7.03,,,,
Exposure (ms):,  0.635,,,,
Digital Resolution:,228,,
Num Repeats:,6,,
PGA Gain:,64,,
Total Measurement Time in sec:,  2.671,,
Wavelength (nm),Absorbance (AU),Reference Signal (unitless),Sample Signal (unitless)
901.51,1.305315,108485,5371
905.376,1.316059,121306,5859
909.237,1.350528,131909,5885
913.095,1.320236,143299,6855
916.948,1.342212,156982,7139
922.079,1.329602,179937,8424
925.923,1.328718,200504,9406
929.762,1.315427,222660,10770
933.597,1.310489,244426,11958
937.427,1.323919,263972,12521
941.254,1.318616,281845,13533
945.076,1.304832,297271,14734
950.165,1.319994,315605,15106
953.978,1.310464,328029,16049
957.786,1.313045,340470,16559
961.59,1.314115,352317,17093
965.389,1.305353,363056,17973
969.185,1.315516,373162,18046
972.976,1.312475,382632,18634
976.763,1.308309,391202,19235
981.806,1.303588,400190,19892
985.583,1.309222,406088,19925
989.355,1.304882,410162,20327
993.124,1.317832,412868,19860
996.888,1.311452,414263,20222
1000.65,1.319366,415476,19915
1004.4,1.307643,415479,20460
1009.41,1.302540,414358,20646
1013.15,1.315752,412923,19958
1016.89,1.304427,411526,20416
1020.63,1.305390,409066,20249
1024.36,1.312998,406777,19786
1028.09,1.309298,404427,19840
1031.82,1.307487,401911,19799
1036.78,1.309472,398410,19537
1040.49,1.304026,396204,19674
1044.2,1.310514,394236,19286
1047.91,1.301232,392042,19593
1051.61,1.317820,389823,18752
1055.31,1.314220,388234,18831
1059,1.312818,387599,18861
1063.92,1.315496,386688,18701
1067.61,1.315581,386598,18693
1071.29,1.314739,387377,18767
1074.96,1.311364,388536,18970
1078.63,1.315062,389855,18873
1082.3,1.313868,391215,18991
1085.96,1.314940,393215,19041
1090.84,1.322542,396270,18856
1094.49,1.318838,398760,19137
1098.14,1.318654,400987,19252
1101.79,1.319475,403477,19335
1105.43,1.313655,406116,19724
1109.06,1.316957,407701,19651
1112.7,1.314022,409859,19889
1117.53,1.315344,412494,19956
1121.15,1.313398,414909,20163
1124.77,1.321195,416559,19883
1128.38,1.321742,418532,19952
1131.99,1.322239,419956,19997
1135.6,1.323229,421946,20046
1139.2,1.328522,423881,19894
1143.99,1.324193,426786,20231
1147.58,1.315617,428617,20723
1151.17,1.317462,431169,20758
1154.75,1.329273,433579,20314
1158.33,1.322376,436264,20767
1161.91,1.316218,439132,21202
1165.48,1.325907,442389,20888
1169.04,1.317965,446101,21452
1173.79,1.315341,451929,21864
1177.34,1.315168,456026,22071
1180.9,1.318753,461306,22143
1184.44,1.321350,467657,22314
1187.99,1.317663,473969,22808
1191.52,1.321617,479856,22882
1195.06,1.328367,487372,22882
1199.76,1.324410,497347,23564
1203.29,1.319116,504311,24187
1206.81,1.319579,511507,24506
1210.33,1.321219,519078,24775
1213.84,1.321891,527163,25122
1217.35,1.321545,534208,25478
1220.85,1.328710,540472,25355
1225.51,1.322602,549929,26164
1229.01,1.327317,556888,26209
1232.5,1.328535,562180,26384
1235.98,1.320639,567975,27145
1239.46,1.328857,574815,26957
1242.94,1.323356,582782,27679
1246.41,1.325540,591476,27951
1251.03,1.321128,604016,28835
1254.5,1.323601,612289,29064
1257.96,1.325534,619125,29258
1261.41,1.323558,624551,29649
1264.86,1.332641,629900,29284
1268.31,1.328372,634345,29782
1271.75,1.329351,638574,29913
1276.33,1.330389,642499,30025
1279.76,1.331141,645905,30132
1283.19,1.325549,648307,30636
1286.61,1.332644,650446,30239
1290.03,1.329651,652132,30527
1293.44,1.334891,653907,30243
1296.85,1.330449,655963,30650
1301.39,1.332288,657349,30585
1304.8,1.334390,657558,30447
1308.19,1.335192,658515,30435
1311.58,1.332014,658804,30672
1314.97,1.335805,659011,30415
1318.36,1.329742,658272,30808
1321.73,1.332108,658022,30629
1326.23,1.330931,657870,30705
1329.6,1.334535,656482,30387
1332.97,1.333705,654926,30373
1336.33,1.333238,653727,30350
1339.69,1.332964,652497,30312
1343.04,1.335228,649913,30035
1346.39,1.330098,647671,30287
1349.73,1.332550,645338,30008
1354.18,1.333198,641175,29770
1357.52,1.328941,638376,29932
1360.85,1.337198,635805,29250
1364.17,1.328974,633413,29697
1367.49,1.335319,631026,29156
1370.81,1.327907,628050,29518
1374.12,1.325523,625034,29538
1378.54,1.328421,620272,29118
1381.84,1.330741,616892,28805
1385.14,1.327643,613613,28857
1388.43,1.324841,611526,28945
1391.72,1.327254,610663,28744
1395.01,1.333427,610634,28337
1398.29,1.334215,611700,28335
1402.66,1.330489,614051,28689
1405.93,1.331298,616268,28739
1409.2,1.332509,617795,28730
1412.46,1.331922,618872,28819
1415.72,1.332765,619795,28806
1418.98,1.333406,620495,28796
1422.23,1.330695,621087,29004
1426.56,1.333539,621375,28828
1429.8,1.332114,621616,28934
1433.04,1.329153,622129,29156
1436.27,1.333193,621526,28858
1439.5,1.339608,621113,28416
1442.72,1.334928,620921,28715
1445.94,1.339798,620270,28365
1450.23,1.327849,618860,29090
1453.44,1.329337,617697,28936
1456.64,1.331643,616264,28716
1459.85,1.340744,614413,28036
1463.04,1.336797,612307,28195
1466.24,1.338489,610032,27981
1469.43,1.335224,607345,28068
1473.67,1.338155,603789,27716
1476.85,1.336129,601175,27725
1480.02,1.336704,597737,27530
1483.19,1.333857,594479,27560
1486.36,1.339013,591232,27086
1489.52,1.342855,587853,26694
1492.68,1.334056,583875,27056
1496.89,1.338991,578062,26484
1500.03,1.342775,574159,26077
1503.18,1.344657,570285,25789
1506.32,1.343810,565444,25620
1509.45,1.343900,560571,25394
1512.58,1.338787,555821,25477
1515.71,1.335801,550344,25400
1519.87,1.334944,543983,25156
1522.99,1.331690,538764,25102
1526.1,1.341309,533692,24321
1529.21,1.342035,527902,24017
1532.32,1.328179,521886,24513
1535.42,1.336545,515888,23769
1538.51,1.339402,509987,23343
1541.6,1.337881,503936,23147
1545.72,1.338828,494694,22673
1548.8,1.339401,488378,22354
1551.88,1.333113,481832,22376
1554.95,1.336101,474989,21907
1558.02,1.328702,467818,21947
1561.08,1.333947,460730,21355
1564.15,1.334090,454170,21044
1568.22,1.332829,444181,20641
1571.27,1.331331,436947,20375
1574.32,1.339148,429598,19675
1577.36,1.339615,422039,19308
1580.4,1.334930,414375,19163
1583.43,1.332765,406354,18886
1586.46,1.337879,398475,18303
1590.49,1.332971,388982,18070
1593.51,1.327739,380708,17900
1596.53,1.334602,372727,17250
1599.54,1.329826,365060,17082
1602.55,1.333744,357543,16580
1605.55,1.327460,349495,16443
1608.55,1.328125,341154,16026
1612.54,1.330851,330877,15446
1615.53,1.324666,322904,15290
1618.51,1.327066,315116,14839
1621.49,1.328721,307217,14412
1624.47,1.317344,299481,14422
1627.44,1.330671,292112,13642
1630.41,1.322202,284245,13536
1634.36,1.319280,274079,13140
1637.32,1.335165,266916,12337
1640.27,1.311103,259612,12683
1643.22,1.318098,251804,12105
1646.16,1.318341,244348,11740
1649.1,1.310120,236703,11590
1652.04,1.320078,228171,10919
1655.95,1.305382,215408,10663
1658.88,1.301702,204937,10231
1661.8,1.299584,193395,9702
1664.72,1.285246,179728,9319
1667.63,1.255092,163642,9095
1670.54,1.251043,146312,8208
1673.44,1.227239,128451,7612
1677.31,1.187290,105080,6827
1680.21,1.176243,88906,5925
1683.1,1.175501,75033,5009
1685.99,1.148541,63520,4512
1688.87,1.162473,53714,3695
1691.75,1.172048,45653,3072
1694.62,1.151207,39137,2763
1697.49,1.183823,33776,2212
1701.31,1.264039,28175,1534