File: ML/samples/unknown/Column 1_078958_20241121_173023.csv
Method:,Column 1,,
Host Date-Time:,21/11/24 @ 17:30:23,,
Header Version:,1,,
System Temp (C):,37.5,,
Detector Temp (C):,36.77,,
Humidity (%):,0.39,,
Lamp PD:,3796,,
Shift Vector Coefficients:,-10.5391,0.0761263,-0.000134223,,
Pixel to Wavelength Coefficients:,1775.68,-0.916766,-0.000235065,,
Serial Number:,5510004,,
Scan Config Name:,Column 1,,
Scan Config Type:,Slew,,
Section 1,,
Start wavelength (nm):,900,,
End wavelength (nm):,1700,,
Pattern Pixel Width (nm):,   7.03,,,,
Exposure (ms):,  0.635,,,,
Digital Resolution:,228,,
Num Repeats:,6,,
PGA Gain:,64,,
Total Measurement Time in sec:,  2.724,,
Wavelength (nm),Absorbance (AU),Reference Signal (unitless),Sample Signal (unitless)
901.51,1.310030,108485,5313
905.376,1.328236,121306,5697
909.237,1.317774,131909,6346
913.095,1.329197,143299,6715
916.948,1.321542,156982,7487
922.079,1.340090,179937,8223
925.923,1.325681,200504,9472
929.762,1.324760,222660,10541
933.597,1.325453,244426,11553
937.427,1.325517,263972,12475
941.254,1.321902,281845,13431
945.076,1.319094,297271,14258
950.165,1.309205,315605,15486
953.978,1.303458,328029,16310
957.786,1.315333,340470,16472
961.59,1.314344,352317,17084
965.389,1.310115,363056,17777
969.185,1.317349,373162,17970
972.976,1.317822,382632,18406
976.763,1.305698,391202,19351
981.806,1.299935,400190,20060
985.583,1.298884,406088,20405
989.355,1.307626,410162,20199
993.124,1.306479,412868,20386
996.888,1.308797,414263,20346
1000.65,1.307174,415476,20482
1004.4,1.305695,415479,20552
1009.41,1.308406,414358,20369
1013.15,1.303522,412923,20528
1016.89,1.313411,411526,19998
1020.63,1.299828,409066,20510
1024.36,1.298854,406777,20441
1028.09,1.306071,404427,19988
1031.82,1.309399,401911,19712
1036.78,1.303862,398410,19791
1040.49,1.312542,396204,19292
1044.2,1.312297,394236,19207
1047.91,1.303142,392042,19507
1051.61,1.306595,389823,19243
1055.31,1.313759,388234,18851
1059,1.310292,387599,18971
1063.92,1.304082,386688,19199
1067.61,1.307251,386598,19055
1071.29,1.311396,387377,18912
1074.96,1.314789,388536,18821
1078.63,1.314855,389855,18882
1082.3,1.320110,391215,18720
1085.96,1.305086,393215,19478
1090.84,1.308268,396270,19486
1094.49,1.319315,398760,19116
1098.14,1.316921,400987,19329
1101.79,1.312235,403477,19660
1105.43,1.318059,406116,19525
1109.06,1.319062,407701,19556
1112.7,1.316167,409859,19791
1117.53,1.326855,412494,19434
1121.15,1.313937,414909,20138
1124.77,1.316870,416559,20082
1128.38,1.319138,418532,20072
1131.99,1.316007,419956,20286
1135.6,1.309140,421946,20707
1139.2,1.312219,423881,20655
1143.99,1.313255,426786,20747
1147.58,1.325344,428617,20264
1151.17,1.312325,431169,21005
1154.75,1.307670,433579,21350
1158.33,1.314644,436264,21140
1161.91,1.313625,439132,21329
1165.48,1.320556,442389,21147
1169.04,1.317015,446101,21499
1173.79,1.313477,451929,21958
1177.34,1.311113,456026,22278
1180.9,1.311845,461306,22498
1184.44,1.313596,467657,22716
1187.99,1.316085,473969,22891
1191.52,1.318289,479856,23058
1195.06,1.320281,487372,23312
1199.76,1.314156,497347,24127
1203.29,1.321619,504311,24048
1206.81,1.317599,511507,24618
1210.33,1.320588,519078,24811
1213.84,1.320493,527163,25203
1217.35,1.321784,534208,25464
1220.85,1.317516,540472,26017
1225.51,1.319625,549929,26344
1229.01,1.325004,556888,26349
1232.5,1.318126,562180,27024
1235.98,1.317849,567975,27320
1239.46,1.326687,574815,27092
1242.94,1.324220,582782,27624
1246.41,1.319200,591476,28362
1251.03,1.322940,604016,28715
1254.5,1.325413,612289,28943
1257.96,1.325089,619125,29288
1261.41,1.321541,624551,29787
1264.86,1.325945,629900,29739
1268.31,1.322017,634345,30221
1271.75,1.325636,638574,30170
1276.33,1.324571,642499,30430
1279.76,1.323837,645905,30643
1283.19,1.323188,648307,30803
1286.61,1.331267,650446,30335
1290.03,1.327622,652132,30670
1293.44,1.329809,653907,30599
1296.85,1.327118,655963,30886
1301.39,1.329048,657349,30814
1304.8,1.332326,657558,30592
1308.19,1.324216,658515,31214
1311.58,1.332553,658804,30634
1314.97,1.328344,659011,30942
1318.36,1.326596,658272,31032
1321.73,1.324866,658022,31144
1326.23,1.339227,657870,30124
1329.6,1.327602,656482,30876
1332.97,1.332519,654926,30456
1336.33,1.328966,653727,30650
1339.69,1.329326,652497,30567
1343.04,1.332704,649913,30210
1346.39,1.323072,647671,30781
1349.73,1.322776,645338,30691
1354.18,1.325792,641175,30282
1357.52,1.327854,638376,30007
1360.85,1.327261,635805,29927
1364.17,1.325015,633413,29969
1367.49,1.319911,631026,30209
1370.81,1.333236,628050,29158
1374.12,1.327217,625034,29423
1378.54,1.324087,620272,29410
1381.84,1.321153,616892,29448
1385.14,1.325916,613613,28972
1388.43,1.323463,611526,29037
1391.72,1.327043,610663,28758
1395.01,1.323188,610634,29013
1398.29,1.331130,611700,28537
1402.66,1.325238,614051,29038
1405.93,1.330981,616268,28760
1409.2,1.326206,617795,29150
1412.46,1.334597,618872,28642
1415.72,1.329895,619795,28997
1418.98,1.330565,620495,28985
1422.23,1.325308,621087,29366
1426.56,1.333193,621375,28851
1429.8,1.331709,621616,28961
1433.04,1.329093,622129,29160
1436.27,1.329268,621526,29120
1439.5,1.324971,621113,29390
1442.72,1.328472,620921,29145
1445.94,1.330527,620270,28977
1450.23,1.329269,618860,28995
1453.44,1.334774,617697,28576
1456.64,1.336601,616264,28390
1459.85,1.335999,614413,28344
1463.04,1.339439,612307,28024
1466.24,1.332432,610032,28374
1469.43,1.329781,607345,28422
1473.67,1.331299,603789,28157
1476.85,1.327491,601175,28282
1480.02,1.332497,597737,27798
1483.19,1.336370,594479,27401
1486.36,1.332899,591232,27470
1489.52,1.332200,587853,27357
1492.68,1.335037,583875,26995
1496.89,1.339417,578062,26458
1500.03,1.339176,574159,26294
1503.18,1.330965,570285,26615
1506.32,1.337082,565444,26020
1509.45,1.341716,560571,25522
1512.58,1.338071,555821,25519
1515.71,1.336211,550344,25376
1519.87,1.339735,543983,24880
1522.99,1.329791,538764,25212
1526.1,1.336567,533692,24588
1529.21,1.338559,527902,24210
1532.32,1.334191,521886,24176
1535.42,1.339128,515888,23628
1538.51,1.334500,509987,23608
1541.6,1.332807,503936,23419
1545.72,1.331063,494694,23082
1548.8,1.329927,488378,22847
1551.88,1.320621,481832,23029
1554.95,1.333472,474989,22040
1558.02,1.326314,467818,22068
1561.08,1.330524,460730,21524
1564.15,1.336553,454170,20925
1568.22,1.336336,444181,20475
1571.27,1.340246,436947,19961
1574.32,1.337165,429598,19765
1577.36,1.340967,422039,19248
1580.4,1.335247,414375,19149
1583.43,1.326736,406354,19150
1586.46,1.335725,398475,18394
1590.49,1.332419,388982,18093
1593.51,1.325996,380708,17972
1596.53,1.329073,372727,17471
1599.54,1.320320,365060,17460
1602.55,1.332149,357543,16641
1605.55,1.326879,349495,16465
1608.55,1.321670,341154,16266
1612.54,1.316443,330877,15967
1615.53,1.318434,322904,15511
1618.51,1.322032,315116,15012
1621.49,1.311007,307217,15012
1624.47,1.309022,299481,14701
1627.44,1.313292,292112,14199
1630.41,1.320314,284245,13595
1634.36,1.317170,274079,13204
1637.32,1.313602,266916,12965
1640.27,1.307930,259612,12776
1643.22,1.306417,251804,12435
1646.16,1.317306,244348,11768
1649.1,1.297745,236703,11925
1652.04,1.303494,228171,11344
1655.95,1.304122,215408,10694
1658.88,1.294211,204937,10409
1661.8,1.274325,193395,10283
1664.72,1.264321,179728,9779
1667.63,1.242062,163642,9372
1670.54,1.215012,146312,8918
1673.44,1.193760,128451,8222
1677.31,1.183427,105080,6888
1680.21,1.163815,88906,6097
1683.1,1.141975,75033,5411
1685.99,1.159853,63520,4396
1688.87,1.114874,53714,4123
1691.75,1.122532,45653,3443
1694.62,1.139881,39137,2836
1697.49,1.104871,33776,2653
1701.31,1.202382,28175,1768