File: ML/samples/unknown/Column 1_078682_20241121_171705.csv
Method:,Column 1,,
Host Date-Time:,21/11/24 @ 17:17:5,,
Header Version:,1,,
System Temp (C):,34.41,,
Detector Temp (C):,34.98,,
Humidity (%):,1.71,,
Lamp PD:,3801,,
Shift Vector Coefficients:,-10.5391,0.0761263,-0.000134223,,
Pixel to Wavelength Coefficients:,1775.68,-0.916766,-0.000235065,,
Serial Number:,5510004,,
Scan Config Name:,Column 1,,
Scan Config Type:,Slew,,
Section 1,,
Start wavelength (nm):,900,,
End wavelength (nm):,1700,,
Pattern Pixel Width (nm):,   7.03,,,,
Exposure (ms):,  0.635,,,,
Digital Resolution:,228,,
Num Repeats:,6,,
PGA Gain:,64,,
Total Measurement Time in sec:,  2.731,,
Wavelength (nm),Absorbance (AU),Reference Signal (unitless),Sample Signal (unitless)
901.51,1.330362,108485,5070
905.376,1.314357,121306,5882
909.237,1.331470,131909,6149
913.095,1.336370,143299,6605
916.948,1.313325,156982,7630
922.079,1.319059,179937,8631
925.923,1.321166,200504,9571
929.762,1.320497,222660,10645
933.597,1.328168,244426,11481
937.427,1.328907,263972,12378
941.254,1.328943,281845,13215
945.076,1.321599,297271,14176
950.165,1.324910,315605,14936
953.978,1.311521,328029,16010
957.786,1.315702,340470,16458
961.59,1.304169,352317,17489
965.389,1.317407,363056,17481
969.185,1.313907,373162,18113
972.976,1.305012,382632,18957
976.763,1.313533,391202,19005
981.806,1.303108,400190,19914
985.583,1.298947,406088,20402
989.355,1.301901,410162,20467
993.124,1.309386,412868,20250
996.888,1.309588,414263,20309
1000.65,1.302177,415476,20719
1004.4,1.306753,415479,20502
1009.41,1.312433,414358,20181
1013.15,1.312263,412923,20119
1016.89,1.301776,411526,20541
1020.63,1.306356,409066,20204
1024.36,1.307415,406777,20042
1028.09,1.318501,404427,19424
1031.82,1.315300,401911,19446
1036.78,1.308873,398410,19564
1040.49,1.300509,396204,19834
1044.2,1.303279,394236,19610
1047.91,1.311913,392042,19117
1051.61,1.316156,389823,18824
1055.31,1.315652,388234,18769
1059,1.310980,387599,18941
1063.92,1.311267,386688,18884
1067.61,1.317420,386598,18614
1071.29,1.308741,387377,19028
1074.96,1.308557,388536,19093
1078.63,1.314579,389855,18894
1082.3,1.312201,391215,19064
1085.96,1.313051,393215,19124
1090.84,1.319741,396270,18978
1094.49,1.316868,398760,19224
1098.14,1.306005,400987,19821
1101.79,1.309483,403477,19785
1105.43,1.303815,406116,20176
1109.06,1.325100,407701,19286
1112.7,1.311518,409859,20004
1117.53,1.316674,412494,19895
1121.15,1.312903,414909,20186
1124.77,1.317237,416559,20065
1128.38,1.319896,418532,20037
1131.99,1.313765,419956,20391
1135.6,1.322299,421946,20089
1139.2,1.320005,423881,20288
1143.99,1.317737,426786,20534
1147.58,1.316372,428617,20687
1151.17,1.320633,431169,20607
1154.75,1.321602,433579,20676
1158.33,1.312452,436264,21247
1161.91,1.309470,439132,21534
1165.48,1.313952,442389,21471
1169.04,1.320565,446101,21324
1173.79,1.322167,451929,21523
1177.34,1.317179,456026,21969
1180.9,1.313276,461306,22424
1184.44,1.312889,467657,22753
1187.99,1.317644,473969,22809
1191.52,1.320518,479856,22940
1195.06,1.313534,487372,23677
1199.76,1.318134,497347,23907
1203.29,1.323230,504311,23959
1206.81,1.329945,511507,23928
1210.33,1.325110,519078,24554
1213.84,1.320252,527163,25217
1217.35,1.322330,534208,25432
1220.85,1.311169,540472,26400
1225.51,1.324466,549929,26052
1229.01,1.323424,556888,26445
1232.5,1.323136,562180,26714
1235.98,1.318692,567975,27267
1239.46,1.313069,574815,27955
1242.94,1.321852,582782,27775
1246.41,1.322443,591476,28151
1251.03,1.321656,604016,28800
1254.5,1.323676,612289,29059
1257.96,1.320223,619125,29618
1261.41,1.322110,624551,29748
1264.86,1.325114,629900,29796
1268.31,1.323903,634345,30090
1271.75,1.318837,638574,30646
1276.33,1.327808,642499,30204
1279.76,1.323243,645905,30685
1283.19,1.324855,648307,30685
1286.61,1.325762,650446,30722
1290.03,1.327070,652132,30709
1293.44,1.323007,653907,31082
1296.85,1.334249,655963,30383
1301.39,1.329161,657349,30806
1304.8,1.324114,657558,31176
1308.19,1.325428,658515,31127
1311.58,1.326932,658804,31033
1314.97,1.331641,659011,30708
1318.36,1.325157,658272,31135
1321.73,1.336196,658022,30342
1326.23,1.331341,657870,30676
1329.6,1.333265,656482,30476
1332.97,1.328248,654926,30757
1336.33,1.329774,653727,30593
1339.69,1.330535,652497,30482
1343.04,1.326453,649913,30648
1346.39,1.332226,647671,30139
1349.73,1.327157,645338,30383
1354.18,1.327157,641175,30187
1357.52,1.328259,638376,29979
1360.85,1.324210,635805,30138
1364.17,1.319929,633413,30322
1367.49,1.328374,631026,29626
1370.81,1.326336,628050,29625
1374.12,1.325302,625034,29553
1378.54,1.325270,620272,29330
1381.84,1.322512,616892,29356
1385.14,1.326186,613613,28954
1388.43,1.328669,611526,28691
1391.72,1.324078,610663,28955
1395.01,1.324463,610634,28928
1398.29,1.329247,611700,28661
1402.66,1.324864,614051,29063
1405.93,1.326130,616268,29083
1409.2,1.325372,617795,29206
1412.46,1.328679,618872,29035
1415.72,1.331095,619795,28917
1418.98,1.333723,620495,28775
1422.23,1.321377,621087,29633
1426.56,1.335517,621375,28697
1429.8,1.325160,621616,29401
1433.04,1.333193,622129,28886
1436.27,1.333374,621526,28846
1439.5,1.331087,621113,28979
1442.72,1.331568,620921,28938
1445.94,1.335274,620270,28662
1450.23,1.334665,618860,28637
1453.44,1.331987,617697,28760
1456.64,1.328373,616264,28933
1459.85,1.325314,614413,29050
1463.04,1.333513,612307,28409
1466.24,1.328971,610032,28601
1469.43,1.332540,607345,28242
1473.67,1.333340,603789,28025
1476.85,1.336678,601175,27690
1480.02,1.334297,597737,27683
1483.19,1.332504,594479,27646
1486.36,1.328949,591232,27721
1489.52,1.334508,587853,27212
1492.68,1.335069,583875,26993
1496.89,1.342465,578062,26273
1500.03,1.331043,574159,26791
1503.18,1.335905,570285,26314
1506.32,1.336799,565444,26037
1509.45,1.340509,560571,25593
1512.58,1.335306,555821,25682
1515.71,1.335989,550344,25389
1519.87,1.330837,543983,25395
1522.99,1.337508,538764,24768
1526.1,1.338018,533692,24506
1529.21,1.332891,527902,24528
1532.32,1.342461,521886,23720
1535.42,1.332236,515888,24006
1538.51,1.336417,509987,23504
1541.6,1.334721,503936,23316
1545.72,1.332307,494694,23016
1548.8,1.330612,488378,22811
1551.88,1.337443,481832,22154
1554.95,1.336002,474989,21912
1558.02,1.340069,467818,21380
1561.08,1.334049,460730,21350
1564.15,1.333060,454170,21094
1568.22,1.335827,444181,20499
1571.27,1.339203,436947,20009
1574.32,1.336792,429598,19782
1577.36,1.331394,422039,19677
1580.4,1.332647,414375,19264
1583.43,1.330883,406354,18968
1586.46,1.341429,398475,18154
1590.49,1.325608,388982,18379
1593.51,1.329002,380708,17848
1596.53,1.331791,372727,17362
1599.54,1.337831,365060,16770
1602.55,1.327683,357543,16813
1605.55,1.332294,349495,16261
1608.55,1.328858,341154,15999
1612.54,1.328160,330877,15542
1615.53,1.320454,322904,15439
1618.51,1.328062,315116,14805
1621.49,1.328149,307217,14431
1624.47,1.329435,299481,14026
1627.44,1.322160,292112,13912
1630.41,1.308030,284245,13985
1634.36,1.326882,274079,12912
1637.32,1.319606,266916,12787
1640.27,1.321253,259612,12390
1643.22,1.320761,251804,12031
1646.16,1.313961,244348,11859
1649.1,1.308027,236703,11646
1652.04,1.298054,228171,11487
1655.95,1.301006,215408,10771
1658.88,1.305497,204937,10142
1661.8,1.297173,193395,9756
1664.72,1.276024,179728,9519
1667.63,1.244060,163642,9329
1670.54,1.264585,146312,7956
1673.44,1.196090,128451,8178
1677.31,1.178911,105080,6960
1680.21,1.185803,88906,5796
1683.1,1.188705,75033,4859
1685.99,1.167527,63520,4319
1688.87,1.192646,53714,3447
1691.75,1.244830,45653,2598
1694.62,1.216011,39137,2380
1697.49,1.248030,33776,1908
1701.31,1.232643,28175,1649