File: ML/samples/unknown/Column 1_078020_20241121_164134.csv
Method:,Column 1,,
Host Date-Time:,21/11/24 @ 16:41:34,,
Header Version:,1,,
System Temp (C):,29.75,,
Detector Temp (C):,24.92,,
Humidity (%):,7.2,,
Lamp PD:,3813,,
Shift Vector Coefficients:,-10.5391,0.0761263,-0.000134223,,
Pixel to Wavelength Coefficients:,1775.68,-0.916766,-0.000235065,,
Serial Number:,5510004,,
Scan Config Name:,Column 1,,
Scan Config Type:,Slew,,
Section 1,,
Start wavelength (nm):,900,,
End wavelength (nm):,1700,,
Pattern Pixel Width (nm):,   7.03,,,,
Exposure (ms):,  0.635,,,,
Digital Resolution:,228,,
Num Repeats:,6,,
PGA Gain:,64,,
Total Measurement Time in sec:,  2.706,,
Wavelength (nm),Absorbance (AU),Reference Signal (unitless),Sample Signal (unitless)
901.51,1.308235,108485,5335
905.376,1.292192,121306,6190
909.237,1.310782,131909,6449
913.095,1.318024,143299,6890
916.948,1.326559,156982,7401
922.079,1.289449,179937,9240
925.923,1.287729,200504,10337
929.762,1.328360,222660,10454
933.597,1.319924,244426,11701
937.427,1.310665,263972,12909
941.254,1.319066,281845,13519
945.076,1.312864,297271,14464
950.165,1.311426,315605,15407
953.978,1.313288,328029,15945
957.786,1.316151,340470,16441
961.59,1.315005,352317,17058
965.389,1.314856,363056,17584
969.185,1.308948,373162,18321
972.976,1.309780,382632,18750
976.763,1.300988,391202,19562
981.806,1.313615,400190,19438
985.583,1.300825,406088,20314
989.355,1.312273,410162,19984
993.124,1.308230,412868,20304
996.888,1.305777,414263,20488
1000.65,1.310879,415476,20308
1004.4,1.302873,415479,20686
1009.41,1.316389,414358,19998
1013.15,1.313343,412923,20069
1016.89,1.309153,411526,20195
1020.63,1.316997,409066,19715
1024.36,1.317632,406777,19576
1028.09,1.312043,404427,19715
1031.82,1.312007,401911,19594
1036.78,1.312103,398410,19419
1040.49,1.315274,396204,19171
1044.2,1.306680,394236,19457
1047.91,1.305397,392042,19406
1051.61,1.318330,389823,18730
1055.31,1.318601,388234,18642
1059,1.321845,387599,18473
1063.92,1.306418,386688,19096
1067.61,1.316627,386598,18648
1071.29,1.320329,387377,18527
1074.96,1.325322,388536,18370
1078.63,1.313156,389855,18956
1082.3,1.311746,391215,19084
1085.96,1.318237,393215,18897
1090.84,1.314057,396270,19228
1094.49,1.316890,398760,19223
1098.14,1.312673,400987,19519
1101.79,1.310406,403477,19743
1105.43,1.320177,406116,19430
1109.06,1.315435,407701,19720
1112.7,1.315115,409859,19839
1117.53,1.323494,412494,19585
1121.15,1.313527,414909,20157
1124.77,1.323626,416559,19772
1128.38,1.320482,418532,20010
1131.99,1.309737,419956,20581
1135.6,1.319820,421946,20204
1139.2,1.328282,423881,19905
1143.99,1.315101,426786,20659
1147.58,1.320316,428617,20500
1151.17,1.322428,431169,20522
1154.75,1.318212,433579,20838
1158.33,1.326072,436264,20591
1161.91,1.324031,439132,20824
1165.48,1.315249,442389,21407
1169.04,1.316551,446101,21522
1173.79,1.326976,451929,21286
1177.34,1.324878,456026,21583
1180.9,1.316366,461306,22265
1184.44,1.322500,467657,22255
1187.99,1.329045,473969,22218
1191.52,1.322339,479856,22844
1195.06,1.317477,487372,23463
1199.76,1.328280,497347,23355
1203.29,1.322632,504311,23992
1206.81,1.331345,511507,23851
1210.33,1.322272,519078,24715
1213.84,1.325379,527163,24921
1217.35,1.324058,534208,25331
1220.85,1.327120,540472,25448
1225.51,1.320599,549929,26285
1229.01,1.326970,556888,26230
1232.5,1.326007,562180,26538
1235.98,1.324545,567975,26902
1239.46,1.329534,574815,26915
1242.94,1.324393,582782,27613
1246.41,1.325058,591476,27982
1251.03,1.322063,604016,28773
1254.5,1.325953,612289,28907
1257.96,1.325964,619125,29229
1261.41,1.329145,624551,29270
1264.86,1.324022,629900,29871
1268.31,1.332077,634345,29529
1271.75,1.335831,638574,29470
1276.33,1.330722,642499,30002
1279.76,1.321717,645905,30793
1283.19,1.332450,648307,30153
1286.61,1.325380,650446,30749
1290.03,1.331705,652132,30383
1293.44,1.330903,653907,30522
1296.85,1.331328,655963,30588
1301.39,1.332614,657349,30562
1304.8,1.328932,657558,30832
1308.19,1.332149,658515,30649
1311.58,1.333163,658804,30591
1314.97,1.331358,659011,30728
1318.36,1.329897,658272,30797
1321.73,1.331159,658022,30696
1326.23,1.336497,657870,30314
1329.6,1.332951,656482,30498
1332.97,1.330812,654926,30576
1336.33,1.337104,653727,30081
1339.69,1.327582,652497,30690
1343.04,1.331427,649913,30299
1346.39,1.331189,647671,30211
1349.73,1.336768,645338,29718
1354.18,1.330638,641175,29946
1357.52,1.332583,638376,29682
1360.85,1.327972,635805,29878
1364.17,1.321709,633413,30198
1367.49,1.324856,631026,29867
1370.81,1.323676,628050,29807
1374.12,1.331951,625034,29104
1378.54,1.326263,620272,29263
1381.84,1.331858,616892,28731
1385.14,1.327673,613613,28855
1388.43,1.326992,611526,28802
1391.72,1.324648,610663,28917
1395.01,1.332279,610634,28412
1398.29,1.329763,611700,28627
1402.66,1.332796,614051,28537
1405.93,1.329368,616268,28867
1409.2,1.334478,617795,28600
1412.46,1.331922,618872,28819
1415.72,1.340769,619795,28280
1418.98,1.334720,620495,28709
1422.23,1.329678,621087,29072
1426.56,1.337337,621375,28577
1429.8,1.333045,621616,28872
1433.04,1.330660,622129,29055
1436.27,1.337154,621526,28596
1439.5,1.340434,621113,28362
1442.72,1.332274,620921,28891
1445.94,1.334896,620270,28687
1450.23,1.334680,618860,28636
1453.44,1.332425,617697,28731
1456.64,1.341432,616264,28076
1459.85,1.335785,614413,28358
1463.04,1.334738,612307,28329
1466.24,1.334657,610032,28229
1469.43,1.339781,607345,27775
1473.67,1.343182,603789,27397
1476.85,1.336505,601175,27701
1480.02,1.334501,597737,27670
1483.19,1.341696,594479,27067
1486.36,1.336264,591232,27258
1489.52,1.340389,587853,26846
1492.68,1.333800,583875,27072
1496.89,1.334699,578062,26747
1500.03,1.340980,574159,26185
1503.18,1.347106,570285,25644
1506.32,1.340888,565444,25793
1509.45,1.337887,560571,25748
1512.58,1.344017,555821,25172
1515.71,1.338476,550344,25244
1519.87,1.341379,543983,24786
1522.99,1.342357,538764,24493
1526.1,1.337823,533692,24517
1529.21,1.343919,527902,23913
1532.32,1.339760,521886,23868
1535.42,1.342450,515888,23448
1538.51,1.342408,509987,23182
1541.6,1.336008,503936,23247
1545.72,1.340055,494694,22609
1548.8,1.341504,488378,22246
1551.88,1.339704,481832,22039
1554.95,1.334439,474989,21991
1558.02,1.332837,467818,21739
1561.08,1.334843,460730,21311
1564.15,1.336989,454170,20904
1568.22,1.330312,444181,20761
1571.27,1.338509,436947,20041
1574.32,1.335389,429598,19846
1577.36,1.341170,422039,19239
1580.4,1.340587,414375,18915
1583.43,1.330220,406354,18997
1586.46,1.333699,398475,18480
1590.49,1.333837,388982,18034
1593.51,1.334192,380708,17636
1596.53,1.324228,372727,17667
1599.54,1.338375,365060,16749
1602.55,1.334583,357543,16548
1605.55,1.330428,349495,16331
1608.55,1.338020,341154,15665
1612.54,1.337680,330877,15205
1615.53,1.330614,322904,15082
1618.51,1.328943,315116,14775
1621.49,1.325060,307217,14534
1624.47,1.320821,299481,14307
1627.44,1.327784,292112,13733
1630.41,1.314790,284245,13769
1634.36,1.317730,274079,13187
1637.32,1.317032,266916,12863
1640.27,1.321113,259612,12394
1643.22,1.299866,251804,12624
1646.16,1.321571,244348,11653
1649.1,1.314640,236703,11470
1652.04,1.325843,228171,10775
1655.95,1.324023,215408,10215
1658.88,1.333029,204937,9519
1661.8,1.304536,193395,9592
1664.72,1.337215,179728,8268
1667.63,1.335201,163642,7563
1670.54,1.333538,146312,6788
1673.44,1.325406,128451,6072
1677.31,1.353227,105080,4659
1680.21,1.307854,88906,4376
1683.1,1.360970,75033,3268
1685.99,1.325934,63520,2999
1688.87,1.345555,53714,2424
1691.75,1.366107,45653,1965
1694.62,1.366762,39137,1682
1697.49,1.424121,33776,1272
1701.31,1.388411,28175,1152