File: ML/samples/unknown/Column 1_078214_20241121_165104.csv
Method:,Column 1,,
Host Date-Time:,21/11/24 @ 16:51:4,,
Header Version:,1,,
System Temp (C):,33.92,,
Detector Temp (C):,30.98,,
Humidity (%):,2.94,,
Lamp PD:,3803,,
Shift Vector Coefficients:,-10.5391,0.0761263,-0.000134223,,
Pixel to Wavelength Coefficients:,1775.68,-0.916766,-0.000235065,,
Serial Number:,5510004,,
Scan Config Name:,Column 1,,
Scan Config Type:,Slew,,
Section 1,,
Start wavelength (nm):,900,,
End wavelength (nm):,1700,,
Pattern Pixel Width (nm):,   7.03,,,,
Exposure (ms):,  0.635,,,,
Digital Resolution:,228,,
Num Repeats:,6,,
PGA Gain:,64,,
Total Measurement Time in sec:,  2.724,,
Wavelength (nm),Absorbance (AU),Reference Signal (unitless),Sample Signal (unitless)
901.51,1.315624,108485,5245
905.376,1.309438,121306,5949
909.237,1.302841,131909,6568
913.095,1.307315,143299,7062
916.948,1.328265,156982,7372
922.079,1.316501,179937,8682
925.923,1.322985,200504,9531
929.762,1.312172,222660,10851
933.597,1.308966,244426,12000
937.427,1.327401,263972,12421
941.254,1.316887,281845,13587
945.076,1.314127,297271,14422
950.165,1.322012,315605,15036
953.978,1.313342,328029,15943
957.786,1.308817,340470,16721
961.59,1.306834,352317,17382
965.389,1.317830,363056,17464
969.185,1.308238,373162,18351
972.976,1.304439,382632,18982
976.763,1.309258,391202,19193
981.806,1.302519,400190,19941
985.583,1.306181,406088,20065
989.355,1.319063,410162,19674
993.124,1.319651,412868,19777
996.888,1.305268,414263,20512
1000.65,1.312958,415476,20211
1004.4,1.306795,415479,20500
1009.41,1.311831,414358,20209
1013.15,1.312500,412923,20108
1016.89,1.308015,411526,20248
1020.63,1.314865,409066,19812
1024.36,1.317211,406777,19595
1028.09,1.304791,404427,20047
1031.82,1.306348,401911,19851
1036.78,1.304675,398410,19754
1040.49,1.309223,396204,19440
1044.2,1.308806,394236,19362
1047.91,1.312640,392042,19085
1051.61,1.307385,389823,19208
1055.31,1.308606,388234,19076
1059,1.311370,387599,18924
1063.92,1.310531,386688,18916
1067.61,1.313680,386598,18775
1071.29,1.307669,387377,19075
1074.96,1.312074,388536,18939
1078.63,1.314395,389855,18902
1082.3,1.308278,391215,19237
1085.96,1.313210,393215,19117
1090.84,1.315664,396270,19157
1094.49,1.321775,398760,19008
1098.14,1.328903,400987,18803
1101.79,1.312943,403477,19628
1105.43,1.307338,406116,20013
1109.06,1.306520,407701,20129
1112.7,1.323894,409859,19442
1117.53,1.304173,412494,20476
1121.15,1.319777,414909,19869
1124.77,1.315790,416559,20132
1128.38,1.310356,418532,20482
1131.99,1.319770,419956,20111
1135.6,1.312804,421946,20533
1139.2,1.320005,423881,20288
1143.99,1.316216,426786,20606
1147.58,1.321546,428617,20442
1151.17,1.316292,431169,20814
1154.75,1.313857,433579,21048
1158.33,1.321790,436264,20795
1161.91,1.322490,439132,20898
1165.48,1.317771,442389,21283
1169.04,1.317379,446101,21481
1173.79,1.311327,451929,22067
1177.34,1.314715,456026,22094
1180.9,1.321349,461306,22011
1184.44,1.318112,467657,22481
1187.99,1.316959,473969,22845
1191.52,1.326407,479856,22631
1195.06,1.318404,487372,23413
1199.76,1.320192,497347,23794
1203.29,1.330615,504311,23555
1206.81,1.323549,511507,24283
1210.33,1.316806,519078,25028
1213.84,1.324196,527163,24989
1217.35,1.323818,534208,25345
1220.85,1.328761,540472,25352
1225.51,1.321392,549929,26237
1229.01,1.322915,556888,26476
1232.5,1.318142,562180,27023
1235.98,1.322998,567975,26998
1239.46,1.323095,574815,27317
1242.94,1.318457,582782,27993
1246.41,1.325664,591476,27943
1251.03,1.325747,604016,28530
1254.5,1.324229,612289,29022
1257.96,1.323401,619125,29402
1261.41,1.328685,624551,29301
1264.86,1.331131,629900,29386
1268.31,1.326843,634345,29887
1271.75,1.325176,638574,30202
1276.33,1.328297,642499,30170
1279.76,1.326111,645905,30483
1283.19,1.334009,648307,30045
1286.61,1.329239,650446,30477
1290.03,1.328231,652132,30627
1293.44,1.333744,653907,30323
1296.85,1.335580,655963,30290
1301.39,1.328161,657349,30877
1304.8,1.335232,657558,30388
1308.19,1.325931,658515,31091
1311.58,1.325061,658804,31167
1314.97,1.329947,659011,30828
1318.36,1.333622,658272,30534
1321.73,1.333485,658022,30532
1326.23,1.330521,657870,30734
1329.6,1.335265,656482,30336
1332.97,1.336085,654926,30207
1336.33,1.333739,653727,30315
1339.69,1.331262,652497,30431
1343.04,1.333784,649913,30135
1346.39,1.333871,647671,30025
1349.73,1.326771,645338,30410
1354.18,1.329031,641175,30057
1357.52,1.329987,638376,29860
1360.85,1.326768,635805,29961
1364.17,1.323279,633413,30089
1367.49,1.328814,631026,29596
1370.81,1.328319,628050,29490
1374.12,1.322855,625034,29720
1378.54,1.324456,620272,29385
1381.84,1.326256,616892,29104
1385.14,1.323644,613613,29124
1388.43,1.332730,611526,28424
1391.72,1.331094,610663,28491
1395.01,1.326464,610634,28795
1398.29,1.329171,611700,28666
1402.66,1.335223,614051,28378
1405.93,1.329729,616268,28843
1409.2,1.335010,617795,28565
1412.46,1.337183,618872,28472
1415.72,1.330524,619795,28955
1418.98,1.333180,620495,28811
1422.23,1.336953,621087,28589
1426.56,1.328909,621375,29137
1429.8,1.331229,621616,28993
1433.04,1.336832,622129,28645
1436.27,1.328895,621526,29145
1439.5,1.337549,621113,28551
1442.72,1.333991,620921,28777
1445.94,1.334684,620270,28701
1450.23,1.336412,618860,28522
1453.44,1.330299,617697,28872
1456.64,1.338718,616264,28252
1459.85,1.334485,614413,28443
1463.04,1.330254,612307,28623
1466.24,1.333489,610032,28305
1469.43,1.332356,607345,28254
1473.67,1.336778,603789,27804
1476.85,1.336223,601175,27719
1480.02,1.338142,597737,27439
1483.19,1.329420,594479,27843
1486.36,1.336423,591232,27248
1489.52,1.342774,587853,26699
1492.68,1.337068,583875,26869
1496.89,1.339089,578062,26478
1500.03,1.338746,574159,26320
1503.18,1.337012,570285,26247
1506.32,1.334039,565444,26203
1509.45,1.334594,560571,25944
1512.58,1.336186,555821,25630
1515.71,1.338958,550344,25216
1519.87,1.338950,543983,24925
1522.99,1.338297,538764,24723
1526.1,1.340150,533692,24386
1529.21,1.337806,527902,24252
1532.32,1.340634,521886,23820
1535.42,1.337770,515888,23702
1538.51,1.330781,509987,23811
1541.6,1.329868,503936,23578
1545.72,1.333308,494694,22963
1548.8,1.340004,488378,22323
1551.88,1.339664,481832,22041
1554.95,1.337093,474989,21857
1558.02,1.329355,467818,21914
1561.08,1.325070,460730,21796
1564.15,1.348761,454170,20345
1568.22,1.339765,444181,20314
1571.27,1.335056,436947,20201
1574.32,1.334056,429598,19907
1577.36,1.331924,422039,19653
1580.4,1.341369,414375,18881
1583.43,1.325965,406354,19184
1586.46,1.328699,398475,18694
1590.49,1.327621,388982,18294
1593.51,1.330343,380708,17793
1596.53,1.326199,372727,17587
1599.54,1.322389,365060,17377
1602.55,1.315609,357543,17287
1605.55,1.334033,349495,16196
1608.55,1.329428,341154,15978
1612.54,1.320927,330877,15803
1615.53,1.324325,322904,15302
1618.51,1.318947,315116,15119
1621.49,1.325658,307217,14514
1624.47,1.317163,299481,14428
1627.44,1.312894,292112,14212
1630.41,1.322523,284245,13526
1634.36,1.327825,274079,12884
1637.32,1.321342,266916,12736
1640.27,1.323714,259612,12320
1643.22,1.313565,251804,12232
1646.16,1.312681,244348,11894
1649.1,1.316880,236703,11411
1652.04,1.317816,228171,10976
1655.95,1.318699,215408,10341
1658.88,1.299501,204937,10283
1661.8,1.304355,193395,9596
1664.72,1.293147,179728,9151
1667.63,1.263871,163642,8913
1670.54,1.263005,146312,7985
1673.44,1.249479,128451,7232
1677.31,1.245837,105080,5966
1680.21,1.198963,88906,5623
1683.1,1.192386,75033,4818
1685.99,1.264966,63520,3451
1688.87,1.219677,53714,3239
1691.75,1.246841,45653,2586
1694.62,1.214553,39137,2388
1697.49,1.197789,33776,2142
1701.31,1.140447,28175,2039