File: ML/samples/unknown/Column 1_078406_20241121_170107.csv
Method:,Column 1,,
Host Date-Time:,21/11/24 @ 17:1:7,,
Header Version:,1,,
System Temp (C):,34.65,,
Detector Temp (C):,33.81,,
Humidity (%):,2.25,,
Lamp PD:,3802,,
Shift Vector Coefficients:,-10.5391,0.0761263,-0.000134223,,
Pixel to Wavelength Coefficients:,1775.68,-0.916766,-0.000235065,,
Serial Number:,5510004,,
Scan Config Name:,Column 1,,
Scan Config Type:,Slew,,
Section 1,,
Start wavelength (nm):,900,,
End wavelength (nm):,1700,,
Pattern Pixel Width (nm):,   7.03,,,,
Exposure (ms):,  0.635,,,,
Digital Resolution:,228,,
Num Repeats:,6,,
PGA Gain:,64,,
Total Measurement Time in sec:,  2.726,,
Wavelength (nm),Absorbance (AU),Reference Signal (unitless),Sample Signal (unitless)
901.51,1.310112,108485,5312
905.376,1.326942,121306,5714
909.237,1.317843,131909,6345
913.095,1.305046,143299,7099
916.948,1.332765,156982,7296
922.079,1.335049,179937,8319
925.923,1.328072,200504,9420
929.762,1.330818,222660,10395
933.597,1.335107,244426,11299
937.427,1.315707,263972,12760
941.254,1.307496,281845,13884
945.076,1.313736,297271,14435
950.165,1.326308,315605,14888
953.978,1.316953,328029,15811
957.786,1.310404,340470,16660
961.59,1.312366,352317,17162
965.389,1.319225,363056,17408
969.185,1.309969,373162,18278
972.976,1.311009,382632,18697
976.763,1.309213,391202,19195
981.806,1.309523,400190,19622
985.583,1.308112,406088,19976
989.355,1.306402,410162,20256
993.124,1.308187,412868,20306
996.888,1.311796,414263,20206
1000.65,1.309534,415476,20371
1004.4,1.309451,415479,20375
1009.41,1.306555,414358,20456
1013.15,1.305176,412923,20450
1016.89,1.314302,411526,19957
1020.63,1.312875,409066,19903
1024.36,1.309958,406777,19925
1028.09,1.315094,404427,19577
1031.82,1.316574,401911,19389
1036.78,1.311522,398410,19445
1040.49,1.306705,396204,19553
1044.2,1.302084,394236,19664
1047.91,1.315494,392042,18960
1051.61,1.317334,389823,18773
1055.31,1.306109,388234,19186
1059,1.309446,387599,19008
1063.92,1.309545,386688,18959
1067.61,1.313518,386598,18782
1071.29,1.308125,387377,19055
1074.96,1.314812,388536,18820
1078.63,1.315292,389855,18863
1082.3,1.312703,391215,19042
1085.96,1.315602,393215,19012
1090.84,1.321690,396270,18893
1094.49,1.318565,398760,19149
1098.14,1.314434,400987,19440
1101.79,1.306551,403477,19919
1105.43,1.317637,406116,19544
1109.06,1.316670,407701,19664
1112.7,1.323224,409859,19472
1117.53,1.317482,412494,19858
1121.15,1.321770,414909,19778
1124.77,1.309834,416559,20410
1128.38,1.321285,418532,19973
1131.99,1.320440,419956,20080
1135.6,1.313312,421946,20509
1139.2,1.326822,423881,19972
1143.99,1.321390,426786,20362
1147.58,1.319575,428617,20535
1151.17,1.319706,431169,20651
1154.75,1.315656,433579,20961
1158.33,1.328716,436264,20466
1161.91,1.315645,439132,21230
1165.48,1.319366,442389,21205
1169.04,1.310837,446101,21807
1173.79,1.315539,451929,21854
1177.34,1.322630,456026,21695
1180.9,1.313935,461306,22390
1184.44,1.319118,467657,22429
1187.99,1.322122,473969,22575
1191.52,1.326446,479856,22629
1195.06,1.323929,487372,23117
1199.76,1.318771,497347,23872
1203.29,1.319081,504311,24189
1206.81,1.317405,511507,24629
1210.33,1.333107,519078,24106
1213.84,1.323935,527163,25004
1217.35,1.327570,534208,25127
1220.85,1.322587,540472,25715
1225.51,1.322885,549929,26147
1229.01,1.325845,556888,26298
1232.5,1.321336,562180,26825
1235.98,1.325838,567975,26822
1239.46,1.324911,574815,27203
1242.94,1.320385,582782,27869
1246.41,1.324996,591476,27986
1251.03,1.326356,604016,28490
1254.5,1.322705,612289,29124
1257.96,1.326693,619125,29180
1261.41,1.324952,624551,29554
1264.86,1.328229,629900,29583
1268.31,1.325393,634345,29987
1271.75,1.330456,638574,29837
1276.33,1.328096,642499,30184
1279.76,1.327667,645905,30374
1283.19,1.331889,648307,30192
1286.61,1.335396,650446,30048
1290.03,1.329282,652132,30553
1293.44,1.333500,653907,30340
1296.85,1.330052,655963,30678
1301.39,1.327500,657349,30924
1304.8,1.333919,657558,30480
1308.19,1.331215,658515,30715
1311.58,1.332553,658804,30634
1314.97,1.333058,659011,30608
1318.36,1.336375,658272,30341
1321.73,1.335753,658022,30373
1326.23,1.330479,657870,30737
1329.6,1.332382,656482,30538
1332.97,1.327458,654926,30813
1336.33,1.329718,653727,30597
1339.69,1.331519,652497,30413
1343.04,1.328441,649913,30508
1346.39,1.333698,647671,30037
1349.73,1.329062,645338,30250
1354.18,1.331451,641175,29890
1357.52,1.325242,638376,30188
1360.85,1.332106,635805,29595
1364.17,1.331159,633413,29548
1367.49,1.330888,631026,29455
1370.81,1.333251,628050,29157
1374.12,1.327187,625034,29425
1378.54,1.331729,620272,28897
1381.84,1.328801,616892,28934
1385.14,1.328381,613613,28808
1388.43,1.330870,611526,28546
1391.72,1.323778,610663,28975
1395.01,1.327702,610634,28713
1398.29,1.326860,611700,28819
1402.66,1.333863,614051,28467
1405.93,1.327027,616268,29023
1409.2,1.325744,617795,29181
1412.46,1.331440,618872,28851
1415.72,1.333746,619795,28741
1418.98,1.331120,620495,28948
1422.23,1.334787,621087,28732
1426.56,1.330297,621375,29044
1429.8,1.334718,621616,28761
1433.04,1.331542,622129,28996
1436.27,1.329357,621526,29114
1439.5,1.334155,621113,28775
1442.72,1.339947,620921,28385
1445.94,1.334744,620270,28697
1450.23,1.336093,618860,28543
1453.44,1.331338,617697,28803
1456.64,1.334785,616264,28509
1459.85,1.340187,614413,28072
1463.04,1.336074,612307,28242
1466.24,1.339219,610032,27934
1469.43,1.333002,607345,28212
1473.67,1.331361,603789,28153
1476.85,1.333708,601175,27880
1480.02,1.336893,597737,27518
1483.19,1.336338,594479,27403
1486.36,1.332725,591232,27481
1489.52,1.333663,587853,27265
1492.68,1.342976,583875,26506
1496.89,1.341474,578062,26333
1500.03,1.341594,574159,26148
1503.18,1.336186,570285,26297
1506.32,1.342676,565444,25687
1509.45,1.339713,560571,25640
1512.58,1.335712,555821,25658
1515.71,1.336194,550344,25377
1519.87,1.345127,543983,24573
1522.99,1.338069,538764,24736
1526.1,1.336426,533692,24596
1529.21,1.339277,527902,24170
1532.32,1.340652,521886,23819
1535.42,1.338706,515888,23651
1538.51,1.340371,509987,23291
1541.6,1.335896,503936,23253
1545.72,1.341460,494694,22536
1548.8,1.337617,488378,22446
1551.88,1.334163,481832,22322
1554.95,1.332016,474989,22114
1558.02,1.340638,467818,21352
1561.08,1.341227,460730,21000
1564.15,1.336594,454170,20923
1568.22,1.333313,444181,20618
1571.27,1.332719,436947,20310
1574.32,1.323304,429598,20406
1577.36,1.337528,422039,19401
1580.4,1.324142,414375,19645
1583.43,1.330060,406354,19004
1586.46,1.330771,398475,18605
1590.49,1.335720,388982,17956
1593.51,1.333454,380708,17666
1596.53,1.325558,372727,17613
1599.54,1.327088,365060,17190
1602.55,1.328977,357543,16763
1605.55,1.333390,349495,16220
1608.55,1.334183,341154,15804
1612.54,1.323629,330877,15705
1615.53,1.312704,322904,15717
1618.51,1.324935,315116,14912
1621.49,1.310689,307217,15023
1624.47,1.329126,299481,14036
1627.44,1.319545,292112,13996
1630.41,1.328472,284245,13342
1634.36,1.330903,274079,12793
1637.32,1.329465,266916,12500
1640.27,1.303600,259612,12904
1643.22,1.328445,251804,11820
1646.16,1.303361,244348,12152
1649.1,1.299680,236703,11872
1652.04,1.293466,228171,11609
1655.95,1.290175,215408,11043
1658.88,1.301957,204937,10225
1661.8,1.292965,193395,9851
1664.72,1.275979,179728,9520
1667.63,1.249682,163642,9209
1670.54,1.249195,146312,8243
1673.44,1.224509,128451,7660
1677.31,1.225918,105080,6246
1680.21,1.168542,88906,6031
1683.1,1.206866,75033,4660
1685.99,1.183400,63520,4164
1688.87,1.177298,53714,3571
1691.75,1.160470,45653,3155
1694.62,1.190842,39137,2522
1697.49,1.171436,33776,2276
1701.31,1.169058,28175,1909