File: ML/samples/unknown/Column 1_078610_20241121_171110.csv
Method:,Column 1,,
Host Date-Time:,21/11/24 @ 17:11:10,,
Header Version:,1,,
System Temp (C):,36.94,,
Detector Temp (C):,35.09,,
Humidity (%):,0.88,,
Lamp PD:,3798,,
Shift Vector Coefficients:,-10.5391,0.0761263,-0.000134223,,
Pixel to Wavelength Coefficients:,1775.68,-0.916766,-0.000235065,,
Serial Number:,5510004,,
Scan Config Name:,Column 1,,
Scan Config Type:,Slew,,
Section 1,,
Start wavelength (nm):,900,,
End wavelength (nm):,1700,,
Pattern Pixel Width (nm):,   7.03,,,,
Exposure (ms):,  0.635,,,,
Digital Resolution:,228,,
Num Repeats:,6,,
PGA Gain:,64,,
Total Measurement Time in sec:,  2.728,,
Wavelength (nm),Absorbance (AU),Reference Signal (unitless),Sample Signal (unitless)
901.51,1.293116,108485,5524
905.376,1.321579,121306,5785
909.237,1.319351,131909,6323
913.095,1.302302,143299,7144
916.948,1.343980,156982,7110
922.079,1.308816,179937,8837
925.923,1.316741,200504,9669
929.762,1.308903,222660,10933
933.597,1.314759,244426,11841
937.427,1.315163,263972,12776
941.254,1.323197,281845,13391
945.076,1.302246,297271,14822
950.165,1.308672,315605,15505
953.978,1.309437,328029,16087
957.786,1.312390,340470,16584
961.59,1.303945,352317,17498
965.389,1.301288,363056,18142
969.185,1.302735,373162,18585
972.976,1.309873,382632,18746
976.763,1.300655,391202,19577
981.806,1.304746,400190,19839
985.583,1.309331,406088,19920
989.355,1.311773,410162,20007
993.124,1.307119,412868,20356
996.888,1.302167,414263,20659
1000.65,1.310259,415476,20337
1004.4,1.305463,415479,20563
1009.41,1.300504,414358,20743
1013.15,1.299312,412923,20728
1016.89,1.300530,411526,20600
1020.63,1.297926,409066,20600
1024.36,1.313262,406777,19774
1028.09,1.298617,404427,20334
1031.82,1.309598,401911,19703
1036.78,1.302810,398410,19839
1040.49,1.310498,396204,19383
1044.2,1.301026,394236,19712
1047.91,1.303744,392042,19480
1051.61,1.309698,389823,19106
1055.31,1.303064,388234,19321
1059,1.307668,387599,19086
1063.92,1.318993,386688,18551
1067.61,1.306613,386598,19083
1071.29,1.305602,387377,19166
1074.96,1.312740,388536,18910
1078.63,1.302878,389855,19410
1082.3,1.307083,391215,19290
1085.96,1.305309,393215,19468
1090.84,1.309943,396270,19411
1094.49,1.318022,398760,19173
1098.14,1.313965,400987,19461
1101.79,1.313297,403477,19612
1105.43,1.308490,406116,19960
1109.06,1.308271,407701,20048
1112.7,1.311865,409859,19988
1117.53,1.314105,412494,20013
1121.15,1.314973,414909,20090
1124.77,1.318842,416559,19991
1128.38,1.311482,418532,20429
1131.99,1.308726,419956,20629
1135.6,1.315435,421946,20409
1139.2,1.317805,423881,20391
1143.99,1.313841,426786,20719
1147.58,1.315491,428617,20729
1151.17,1.311065,431169,21066
1154.75,1.310753,433579,21199
1158.33,1.319582,436264,20901
1161.91,1.320479,439132,20995
1165.48,1.315675,442389,21386
1169.04,1.313394,446101,21679
1173.79,1.318430,451929,21709
1177.34,1.316903,456026,21983
1180.9,1.318537,461306,22154
1184.44,1.317243,467657,22526
1187.99,1.308804,473969,23278
1191.52,1.319175,479856,23011
1195.06,1.314581,487372,23620
1199.76,1.312216,497347,24235
1203.29,1.314135,504311,24466
1206.81,1.313752,511507,24837
1210.33,1.322131,519078,24723
1213.84,1.318018,527163,25347
1217.35,1.314645,534208,25886
1220.85,1.318101,540472,25982
1225.51,1.316013,549929,26564
1229.01,1.315145,556888,26954
1232.5,1.316938,562180,27098
1235.98,1.317467,567975,27344
1239.46,1.320385,574815,27488
1242.94,1.319109,582782,27951
1246.41,1.315252,591476,28621
1251.03,1.318037,604016,29041
1254.5,1.324514,612289,29003
1257.96,1.321059,619125,29561
1261.41,1.319679,624551,29915
1264.86,1.318992,629900,30219
1268.31,1.319738,634345,30380
1271.75,1.323740,638574,30302
1276.33,1.328369,642499,30165
1279.76,1.334483,645905,29901
1283.19,1.330152,648307,30313
1286.61,1.319976,650446,31134
1290.03,1.325418,652132,30826
1293.44,1.322881,653907,31091
1296.85,1.325504,655963,31001
1301.39,1.327852,657349,30899
1304.8,1.320548,657558,31433
1308.19,1.324592,658515,31187
1311.58,1.325354,658804,31146
1314.97,1.325449,659011,31149
1318.36,1.329700,658272,30811
1321.73,1.326641,658022,31017
1326.23,1.326526,657870,31018
1329.6,1.324756,656482,31079
1332.97,1.327980,654926,30776
1336.33,1.327933,653727,30723
1339.69,1.324381,652497,30917
1343.04,1.325689,649913,30702
1346.39,1.329597,647671,30322
1349.73,1.328875,645338,30263
1354.18,1.325806,641175,30281
1357.52,1.319795,638376,30569
1360.85,1.325393,635805,30056
1364.17,1.324276,633413,30020
1367.49,1.321380,631026,30107
1370.81,1.328865,628050,29453
1374.12,1.319304,625034,29964
1378.54,1.323999,620272,29416
1381.84,1.319769,616892,29542
1385.14,1.327613,613613,28859
1388.43,1.320497,611526,29236
1391.72,1.327345,610663,28738
1395.01,1.320235,610634,29211
1398.29,1.324530,611700,28974
1402.66,1.322390,614051,29229
1405.93,1.329142,616268,28882
1409.2,1.328177,617795,29018
1412.46,1.324600,618872,29309
1415.72,1.331215,619795,28909
1418.98,1.326598,620495,29251
1422.23,1.330919,621087,28989
1426.56,1.329237,621375,29115
1429.8,1.333783,621616,28823
1433.04,1.333991,622129,28833
1436.27,1.329910,621526,29077
1439.5,1.327803,621113,29199
1442.72,1.329487,620921,29077
1445.94,1.334699,620270,28700
1450.23,1.326165,618860,29203
1453.44,1.323463,617697,29330
1456.64,1.328538,616264,28922
1459.85,1.331124,614413,28664
1463.04,1.329966,612307,28642
1466.24,1.331713,610032,28421
1469.43,1.330944,607345,28346
1473.67,1.328087,603789,28366
1476.85,1.327752,601175,28265
1480.02,1.328283,597737,28069
1483.19,1.332881,594479,27622
1486.36,1.336822,591232,27223
1489.52,1.328014,587853,27622
1492.68,1.333174,583875,27111
1496.89,1.328205,578062,27150
1500.03,1.333579,574159,26635
1503.18,1.338653,570285,26148
1506.32,1.329619,565444,26471
1509.45,1.338360,560571,25720
1512.58,1.331618,555821,25901
1515.71,1.335015,550344,25446
1519.87,1.335479,543983,25125
1522.99,1.329998,538764,25200
1526.1,1.336974,533692,24565
1529.21,1.325465,527902,24951
1532.32,1.333043,521886,24240
1535.42,1.324117,515888,24459
1538.51,1.330508,509987,23826
1541.6,1.326584,503936,23757
1545.72,1.331628,494694,23052
1548.8,1.331927,488378,22742
1551.88,1.329210,481832,22578
1554.95,1.332272,474989,22101
1558.02,1.323020,467818,22236
1561.08,1.328892,460730,21605
1564.15,1.329063,454170,21289
1568.22,1.330333,444181,20760
1571.27,1.330543,436947,20412
1574.32,1.324434,429598,20353
1577.36,1.328534,422039,19807
1580.4,1.330533,414375,19358
1583.43,1.327326,406354,19124
1586.46,1.328629,398475,18697
1590.49,1.326743,388982,18331
1593.51,1.317501,380708,18327
1596.53,1.323958,372727,17678
1599.54,1.316063,365060,17632
1602.55,1.307224,357543,17624
1605.55,1.320127,349495,16723
1608.55,1.324402,341154,16164
1612.54,1.332033,330877,15404
1615.53,1.326060,322904,15241
1618.51,1.322872,315116,14983
1621.49,1.311991,307217,14978
1624.47,1.310117,299481,14664
1627.44,1.312039,292112,14240
1630.41,1.317861,284245,13672
1634.36,1.304113,274079,13607
1637.32,1.321990,266916,12717
1640.27,1.306606,259612,12815
1643.22,1.312112,251804,12273
1646.16,1.311805,244348,11918
1649.1,1.311622,236703,11550
1652.04,1.315842,228171,11026
1655.95,1.300804,215408,10776
1658.88,1.288368,204937,10550
1661.8,1.278911,193395,10175
1664.72,1.249307,179728,10123
1667.63,1.244246,163642,9325
1670.54,1.219073,146312,8835
1673.44,1.197580,128451,8150
1677.31,1.170323,105080,7099
1680.21,1.148558,88906,6315
1683.1,1.148362,75033,5332
1685.99,1.148349,63520,4514
1688.87,1.169942,53714,3632
1691.75,1.125951,45653,3416
1694.62,1.168850,39137,2653
1697.49,1.089750,33776,2747
1701.31,1.240081,28175,1621