File: ML/samples/unknown/Column 1_078114_20241121_164609.csv
Method:,Column 1,,
Host Date-Time:,21/11/24 @ 16:46:9,,
Header Version:,1,,
System Temp (C):,32.57,,
Detector Temp (C):,27.99,,
Humidity (%):,4.05,,
Lamp PD:,3806,,
Shift Vector Coefficients:,-10.5391,0.0761263,-0.000134223,,
Pixel to Wavelength Coefficients:,1775.68,-0.916766,-0.000235065,,
Serial Number:,5510004,,
Scan Config Name:,Column 1,,
Scan Config Type:,Slew,,
Section 1,,
Start wavelength (nm):,900,,
End wavelength (nm):,1700,,
Pattern Pixel Width (nm):,   7.03,,,,
Exposure (ms):,  0.635,,,,
Digital Resolution:,228,,
Num Repeats:,6,,
PGA Gain:,64,,
Total Measurement Time in sec:,  2.708,,
Wavelength (nm),Absorbance (AU),Reference Signal (unitless),Sample Signal (unitless)
901.51,1.313641,108485,5269
905.376,1.317172,121306,5844
909.237,1.319970,131909,6314
913.095,1.338149,143299,6578
916.948,1.311848,156982,7656
922.079,1.329138,179937,8433
925.923,1.327888,200504,9424
929.762,1.299822,222660,11164
933.597,1.329152,244426,11455
937.427,1.308082,263972,12986
941.254,1.315514,281845,13630
945.076,1.317999,297271,14294
950.165,1.312442,315605,15371
953.978,1.312961,328029,15957
957.786,1.304938,340470,16871
961.59,1.310094,352317,17252
965.389,1.308530,363056,17842
969.185,1.312662,373162,18165
972.976,1.303251,382632,19034
976.763,1.309485,391202,19183
981.806,1.307249,400190,19725
985.583,1.315833,406088,19624
989.355,1.305995,410162,20275
993.124,1.313762,412868,20047
996.888,1.315682,414263,20026
1000.65,1.314336,415476,20147
1004.4,1.308323,415479,20428
1009.41,1.306322,414358,20467
1013.15,1.315404,412923,19974
1016.89,1.305044,411526,20387
1020.63,1.300379,409066,20484
1024.36,1.317366,406777,19588
1028.09,1.309014,404427,19853
1031.82,1.311719,401911,19607
1036.78,1.310184,398410,19505
1040.49,1.308241,396204,19484
1044.2,1.309952,394236,19311
1047.91,1.318598,392042,18825
1051.61,1.310380,389823,19076
1055.31,1.317298,388234,18698
1059,1.307213,387599,19106
1063.92,1.305464,386688,19138
1067.61,1.312848,386598,18811
1071.29,1.312661,387377,18857
1074.96,1.320292,388536,18584
1078.63,1.317023,389855,18788
1082.3,1.319530,391215,18745
1085.96,1.323439,393215,18672
1090.84,1.316912,396270,19102
1094.49,1.313874,398760,19357
1098.14,1.319671,400987,19207
1101.79,1.321727,403477,19235
1105.43,1.317237,406116,19562
1109.06,1.308921,407701,20018
1112.7,1.310130,409859,20068
1117.53,1.315801,412494,19935
1121.15,1.323068,414909,19719
1124.77,1.323165,416559,19793
1128.38,1.320308,418532,20018
1131.99,1.315515,419956,20309
1135.6,1.319046,421946,20240
1139.2,1.318104,423881,20377
1143.99,1.321198,426786,20371
1147.58,1.317486,428617,20634
1151.17,1.331408,431169,20102
1154.75,1.324616,433579,20533
1158.33,1.314418,436264,21151
1161.91,1.322761,439132,20885
1165.48,1.305321,442389,21902
1169.04,1.323405,446101,21185
1173.79,1.325184,451929,21374
1177.34,1.313969,456026,22132
1180.9,1.317636,461306,22200
1184.44,1.322910,467657,22234
1187.99,1.313173,473969,23045
1191.52,1.317649,479856,23092
1195.06,1.321344,487372,23255
1199.76,1.319772,497347,23817
1203.29,1.317253,504311,24291
1206.81,1.324194,511507,24247
1210.33,1.332064,519078,24164
1213.84,1.331469,527163,24574
1217.35,1.323647,534208,25355
1220.85,1.321490,540472,25780
1225.51,1.325150,549929,26011
1229.01,1.328462,556888,26140
1232.5,1.323804,562180,26673
1235.98,1.325256,567975,26858
1239.46,1.329776,574815,26900
1242.94,1.327613,582782,27409
1246.41,1.326535,591476,27887
1251.03,1.325184,604016,28567
1254.5,1.333501,612289,28409
1257.96,1.331723,619125,28844
1261.41,1.331257,624551,29128
1264.86,1.331382,629900,29369
1268.31,1.329350,634345,29715
1271.75,1.331505,638574,29765
1276.33,1.325113,642499,30392
1279.76,1.327967,645905,30353
1283.19,1.330524,648307,30287
1286.61,1.326781,650446,30650
1290.03,1.332563,652132,30323
1293.44,1.334045,653907,30302
1296.85,1.331627,655963,30567
1301.39,1.329048,657349,30814
1304.8,1.330598,657558,30714
1308.19,1.332887,658515,30597
1311.58,1.325954,658804,31103
1314.97,1.334764,659011,30488
1318.36,1.334547,658272,30469
1321.73,1.333556,658022,30527
1326.23,1.327648,657870,30938
1329.6,1.332980,656482,30496
1332.97,1.328856,654926,30714
1336.33,1.333195,653727,30353
1339.69,1.329098,652497,30583
1343.04,1.336690,649913,29934
1346.39,1.336512,647671,29843
1349.73,1.324748,645338,30552
1354.18,1.330725,641175,29940
1357.52,1.333844,638376,29596
1360.85,1.328409,635805,29848
1364.17,1.330997,633413,29559
1367.49,1.325656,631026,29812
1370.81,1.328644,628050,29468
1374.12,1.332772,625034,29049
1378.54,1.329137,620272,29070
1381.84,1.332554,616892,28685
1385.14,1.326681,613613,28921
1388.43,1.330338,611526,28581
1391.72,1.328889,610663,28636
1395.01,1.327491,610634,28727
1398.29,1.326032,611700,28874
1402.66,1.319665,614051,29413
1405.93,1.327207,616268,29011
1409.2,1.331482,617795,28798
1412.46,1.333553,618872,28711
1415.72,1.330690,619795,28944
1418.98,1.332984,620495,28824
1422.23,1.331129,621087,28975
1426.56,1.337094,621375,28593
1429.8,1.331289,621616,28989
1433.04,1.337651,622129,28591
1436.27,1.330209,621526,29057
1439.5,1.336107,621113,28646
1442.72,1.334519,620921,28742
1445.94,1.330407,620270,28985
1450.23,1.332305,618860,28793
1453.44,1.338085,617697,28359
1456.64,1.339210,616264,28220
1459.85,1.337765,614413,28229
1463.04,1.331957,612307,28511
1466.24,1.343061,610032,27688
1469.43,1.341913,607345,27639
1473.67,1.335982,603789,27855
1476.85,1.338517,601175,27573
1480.02,1.331701,597737,27849
1483.19,1.334346,594479,27529
1486.36,1.334705,591232,27356
1489.52,1.340842,587853,26818
1492.68,1.336794,583875,26886
1496.89,1.332933,578062,26856
1500.03,1.338482,574159,26336
1503.18,1.339368,570285,26105
1506.32,1.330013,565444,26447
1509.45,1.337971,560571,25743
1512.58,1.339486,555821,25436
1515.71,1.343042,550344,24980
1519.87,1.343945,543983,24640
1522.99,1.339828,538764,24636
1526.1,1.343117,533692,24220
1529.21,1.338361,527902,24221
1532.32,1.337600,521886,23987
1535.42,1.340528,515888,23552
1538.51,1.331713,509987,23760
1541.6,1.328195,503936,23669
1545.72,1.332156,494694,23024
1548.8,1.342951,488378,22172
1551.88,1.336738,481832,22190
1554.95,1.335229,474989,21951
1558.02,1.338447,467818,21460
1561.08,1.341807,460730,20972
1564.15,1.337946,454170,20858
1568.22,1.334960,444181,20540
1571.27,1.343479,436947,19813
1574.32,1.346381,429598,19350
1577.36,1.333407,422039,19586
1580.4,1.331386,414375,19320
1583.43,1.339532,406354,18594
1586.46,1.334287,398475,18455
1590.49,1.331292,388982,18140
1593.51,1.328856,380708,17854
1596.53,1.336696,372727,17167
1599.54,1.323917,365060,17316
1602.55,1.320053,357543,17111
1605.55,1.323333,349495,16600
1608.55,1.320443,341154,16312
1612.54,1.334096,330877,15331
1615.53,1.324325,322904,15302
1618.51,1.321714,315116,15023
1621.49,1.321252,307217,14662
1624.47,1.331422,299481,13962
1627.44,1.331468,292112,13617
1630.41,1.324616,284245,13461
1634.36,1.330632,274079,12801
1637.32,1.314407,266916,12941
1640.27,1.331181,259612,12110
1643.22,1.324750,251804,11921
1646.16,1.325276,244348,11554
1649.1,1.321394,236703,11293
1652.04,1.317144,228171,10993
1655.95,1.308284,215408,10592
1658.88,1.310233,204937,10032
1661.8,1.296328,193395,9775
1664.72,1.308458,179728,8834
1667.63,1.291948,163642,8355
1670.54,1.304822,146312,7252
1673.44,1.289259,128451,6599
1677.31,1.308114,105080,5169
1680.21,1.292067,88906,4538
1683.1,1.296155,75033,3794
1685.99,1.288496,63520,3269
1688.87,1.314947,53714,2601
1691.75,1.222036,45653,2738
1694.62,1.281894,39137,2045
1697.49,1.280144,33776,1772
1701.31,1.161168,28175,1944