File: ML/samples/unknown/Column 1_078675_20241121_171645.csv
Method:,Column 1,,
Host Date-Time:,21/11/24 @ 17:16:45,,
Header Version:,1,,
System Temp (C):,34.77,,
Detector Temp (C):,35.23,,
Humidity (%):,1.37,,
Lamp PD:,3802,,
Shift Vector Coefficients:,-10.5391,0.0761263,-0.000134223,,
Pixel to Wavelength Coefficients:,1775.68,-0.916766,-0.000235065,,
Serial Number:,5510004,,
Scan Config Name:,Column 1,,
Scan Config Type:,Slew,,
Section 1,,
Start wavelength (nm):,900,,
End wavelength (nm):,1700,,
Pattern Pixel Width (nm):,   7.03,,,,
Exposure (ms):,  0.635,,,,
Digital Resolution:,228,,
Num Repeats:,6,,
PGA Gain:,64,,
Total Measurement Time in sec:,  2.707,,
Wavelength (nm),Absorbance (AU),Reference Signal (unitless),Sample Signal (unitless)
901.51,1.305638,108485,5367
905.376,1.311928,121306,5915
909.237,1.297910,131909,6643
913.095,1.316263,143299,6918
916.948,1.323927,156982,7446
922.079,1.313212,179937,8748
925.923,1.322893,200504,9533
929.762,1.324307,222660,10552
933.597,1.312564,244426,11901
937.427,1.319433,263972,12651
941.254,1.325213,281845,13329
945.076,1.322672,297271,14141
950.165,1.308392,315605,15515
953.978,1.306370,328029,16201
957.786,1.312494,340470,16580
961.59,1.303672,352317,17509
965.389,1.298259,363056,18269
969.185,1.316866,373162,17990
972.976,1.301180,382632,19125
976.763,1.304890,391202,19387
981.806,1.305601,400190,19800
985.583,1.302538,406088,20234
989.355,1.296608,410162,20718
993.124,1.302007,412868,20597
996.888,1.295616,414263,20973
1000.65,1.295645,415476,21033
1004.4,1.291579,415479,21231
1009.41,1.292579,414358,21125
1013.15,1.303142,412923,20546
1016.89,1.303789,411526,20446
1020.63,1.305304,409066,20253
1024.36,1.299067,406777,20431
1028.09,1.311867,404427,19723
1031.82,1.308365,401911,19759
1036.78,1.299691,398410,19982
1040.49,1.306861,396204,19546
1044.2,1.304876,394236,19538
1047.91,1.311050,392042,19155
1051.61,1.306301,389823,19256
1055.31,1.302884,388234,19329
1059,1.304674,387599,19218
1063.92,1.304286,386688,19190
1067.61,1.307593,386598,19040
1071.29,1.308421,387377,19042
1074.96,1.309081,388536,19070
1078.63,1.306134,389855,19265
1082.3,1.303295,391215,19459
1085.96,1.309028,393215,19302
1090.84,1.311333,396270,19349
1094.49,1.310967,398760,19487
1098.14,1.310321,400987,19625
1101.79,1.312876,403477,19631
1105.43,1.309208,406116,19927
1109.06,1.303081,407701,20289
1112.7,1.308683,409859,20135
1117.53,1.315584,412494,19945
1121.15,1.316142,414909,20036
1124.77,1.309344,416559,20433
1128.38,1.313784,418532,20321
1131.99,1.306584,419956,20731
1135.6,1.309874,421946,20672
1139.2,1.322710,423881,20162
1143.99,1.321432,426786,20360
1147.58,1.316204,428617,20695
1151.17,1.314688,431169,20891
1154.75,1.309832,433579,21244
1158.33,1.308180,436264,21457
1161.91,1.311877,439132,21415
1165.48,1.318016,442389,21271
1169.04,1.315523,446101,21573
1173.79,1.312233,451929,22021
1177.34,1.312480,456026,22208
1180.9,1.311112,461306,22536
1184.44,1.307407,467657,23042
1187.99,1.317606,473969,22811
1191.52,1.306839,479856,23674
1195.06,1.313112,487372,23700
1199.76,1.316394,497347,24003
1203.29,1.321800,504311,24038
1206.81,1.319756,511507,24496
1210.33,1.322747,519078,24688
1213.84,1.318310,527163,25330
1217.35,1.317490,534208,25717
1220.85,1.314770,540472,26182
1225.51,1.323749,549929,26095
1229.01,1.313071,556888,27083
1232.5,1.320656,562180,26867
1235.98,1.320799,567975,27135
1239.46,1.315811,574815,27779
1242.94,1.321149,582782,27820
1246.41,1.314146,591476,28694
1251.03,1.315532,604016,29209
1254.5,1.315181,612289,29633
1257.96,1.317533,619125,29802
1261.41,1.326276,624551,29464
1264.86,1.322831,629900,29953
1268.31,1.322865,634345,30162
1271.75,1.322867,638574,30363
1276.33,1.321570,642499,30641
1279.76,1.320942,645905,30848
1283.19,1.324812,648307,30688
1286.61,1.315784,650446,31436
1290.03,1.326194,652132,30771
1293.44,1.320277,653907,31278
1296.85,1.323910,655963,31115
1301.39,1.325329,657349,31079
1304.8,1.319059,657558,31541
1308.19,1.327905,658515,30950
1311.58,1.326932,658804,31033
1314.97,1.325449,659011,31149
1318.36,1.322099,658272,31355
1321.73,1.327131,658022,30982
1326.23,1.329138,657870,30832
1329.6,1.334235,656482,30408
1332.97,1.322121,654926,31194
1336.33,1.319478,653727,31327
1339.69,1.324732,652497,30892
1343.04,1.324234,649913,30805
1346.39,1.323171,647671,30774
1349.73,1.327543,645338,30356
1354.18,1.324375,641175,30381
1357.52,1.321489,638376,30450
1360.85,1.318554,635805,30533
1364.17,1.326045,633413,29898
1367.49,1.327393,631026,29693
1370.81,1.330401,628050,29349
1374.12,1.324289,625034,29622
1378.54,1.324959,620272,29351
1381.84,1.323519,616892,29288
1385.14,1.323629,613613,29125
1388.43,1.320423,611526,29241
1391.72,1.324333,610663,28938
1395.01,1.322276,610634,29074
1398.29,1.327538,611700,28774
1402.66,1.320315,614051,29369
1405.93,1.323644,616268,29250
1409.2,1.325224,617795,29216
1412.46,1.325757,618872,29231
1415.72,1.329850,619795,29000
1418.98,1.329846,620495,29033
1422.23,1.325544,621087,29350
1426.56,1.325642,621375,29357
1429.8,1.332489,621616,28909
1433.04,1.319722,622129,29796
1436.27,1.329164,621526,29127
1439.5,1.335289,621113,28700
1442.72,1.331718,620921,28928
1445.94,1.328509,620270,29112
1450.23,1.327670,618860,29102
1453.44,1.327794,617697,29039
1456.64,1.335395,616264,28469
1459.85,1.329113,614413,28797
1463.04,1.329648,612307,28663
1466.24,1.330523,610032,28499
1469.43,1.329506,607345,28440
1473.67,1.337622,603789,27750
1476.85,1.326800,601175,28327
1480.02,1.329507,597737,27990
1483.19,1.329889,594479,27813
1486.36,1.335770,591232,27289
1489.52,1.331708,587853,27388
1492.68,1.329156,583875,27363
1496.89,1.331867,578062,26922
1500.03,1.333563,574159,26636
1503.18,1.330313,570285,26655
1506.32,1.330786,565444,26400
1509.45,1.326517,560571,26431
1512.58,1.334698,555821,25718
1515.71,1.333941,550344,25509
1519.87,1.331350,543983,25365
1522.99,1.332556,538764,25052
1526.1,1.328292,533692,25061
1529.21,1.327647,527902,24826
1532.32,1.331130,521886,24347
1535.42,1.325237,515888,24396
1538.51,1.331384,509987,23778
1541.6,1.322852,503936,23962
1545.72,1.328811,494694,23202
1548.8,1.329547,488378,22867
1551.88,1.327348,481832,22675
1554.95,1.333216,474989,22053
1558.02,1.327181,467818,22024
1561.08,1.332891,460730,21407
1564.15,1.325832,454170,21448
1568.22,1.338740,444181,20362
1571.27,1.331950,436947,20346
1574.32,1.327539,429598,20208
1577.36,1.320884,422039,20159
1580.4,1.333911,414375,19208
1583.43,1.337993,406354,18660
1586.46,1.322288,398475,18972
1590.49,1.320393,388982,18601
1593.51,1.324572,380708,18031
1596.53,1.320800,372727,17807
1599.54,1.329394,365060,17099
1602.55,1.320332,357543,17100
1605.55,1.315451,349495,16904
1608.55,1.315677,341154,16492
1612.54,1.322607,330877,15742
1615.53,1.306367,322904,15948
1618.51,1.324876,315116,14914
1621.49,1.314551,307217,14890
1624.47,1.326289,299481,14128
1627.44,1.315869,292112,14115
1630.41,1.319643,284245,13616
1634.36,1.323031,274079,13027
1637.32,1.309103,266916,13100
1640.27,1.307692,259612,12783
1643.22,1.302834,251804,12538
1646.16,1.300653,244348,12228
1649.1,1.308699,236703,11628
1652.04,1.297600,228171,11499
1655.95,1.294562,215408,10932
1658.88,1.293003,204937,10438
1661.8,1.274072,193395,10289
1664.72,1.259859,179728,9880
1667.63,1.247237,163642,9261
1670.54,1.236935,146312,8479
1673.44,1.214255,128451,7843
1677.31,1.172101,105080,7070
1680.21,1.164813,88906,6083
1683.1,1.136630,75033,5478
1685.99,1.132294,63520,4684
1688.87,1.114243,53714,4129
1691.75,1.184089,45653,2988
1694.62,1.128844,39137,2909
1697.49,1.101609,33776,2673
1701.31,1.132218,28175,2078