File: ML/samples/unknown/Column 1_078514_20241121_170625.csv
Method:,Column 1,,
Host Date-Time:,21/11/24 @ 17:6:25,,
Header Version:,1,,
System Temp (C):,34.7,,
Detector Temp (C):,33.84,,
Humidity (%):,1.91,,
Lamp PD:,3800,,
Shift Vector Coefficients:,-10.5391,0.0761263,-0.000134223,,
Pixel to Wavelength Coefficients:,1775.68,-0.916766,-0.000235065,,
Serial Number:,5510004,,
Scan Config Name:,Column 1,,
Scan Config Type:,Slew,,
Section 1,,
Start wavelength (nm):,900,,
End wavelength (nm):,1700,,
Pattern Pixel Width (nm):,   7.03,,,,
Exposure (ms):,  0.635,,,,
Digital Resolution:,228,,
Num Repeats:,6,,
PGA Gain:,64,,
Total Measurement Time in sec:,  2.668,,
Wavelength (nm),Absorbance (AU),Reference Signal (unitless),Sample Signal (unitless)
901.51,1.327800,108485,5100
905.376,1.354151,121306,5367
909.237,1.327953,131909,6199
913.095,1.328809,143299,6721
916.948,1.312813,156982,7639
922.079,1.328058,179937,8454
925.923,1.337157,200504,9225
929.762,1.322009,222660,10608
933.597,1.322829,244426,11623
937.427,1.320843,263972,12610
941.254,1.327696,281845,13253
945.076,1.318485,297271,14278
950.165,1.310075,315605,15455
953.978,1.307928,328029,16143
957.786,1.319758,340470,16305
961.59,1.322245,352317,16776
965.389,1.311829,363056,17707
969.185,1.310968,373162,18236
972.976,1.311846,382632,18661
976.763,1.315411,391202,18923
981.806,1.315002,400190,19376
985.583,1.309047,406088,19933
989.355,1.304092,410162,20364
993.124,1.304630,412868,20473
996.888,1.310572,414263,20263
1000.65,1.304152,415476,20625
1004.4,1.313542,415479,20184
1009.41,1.309944,414358,20297
1013.15,1.304815,412923,20467
1016.89,1.304937,411526,20392
1020.63,1.310221,409066,20025
1024.36,1.309893,406777,19928
1028.09,1.301166,404427,20215
1031.82,1.315724,401911,19427
1036.78,1.311589,398410,19442
1040.49,1.300662,396204,19827
1044.2,1.309502,394236,19331
1047.91,1.311050,392042,19155
1051.61,1.311178,389823,19041
1055.31,1.314866,388234,18803
1059,1.320039,387599,18550
1063.92,1.319392,386688,18534
1067.61,1.314931,386598,18721
1071.29,1.315596,387377,18730
1074.96,1.315528,388536,18789
1078.63,1.311373,389855,19034
1082.3,1.316552,391215,18874
1085.96,1.310719,393215,19227
1090.84,1.318096,396270,19050
1094.49,1.317795,398760,19183
1098.14,1.317056,400987,19323
1101.79,1.317458,403477,19425
1105.43,1.314162,406116,19701
1109.06,1.320597,407701,19487
1112.7,1.327415,409859,19285
1117.53,1.313954,412494,20020
1121.15,1.311721,414909,20241
1124.77,1.312074,416559,20305
1128.38,1.322352,418532,19924
1131.99,1.322543,419956,19983
1135.6,1.316138,421946,20376
1139.2,1.307243,423881,20893
1143.99,1.321155,426786,20373
1147.58,1.316414,428617,20685
1151.17,1.324273,431169,20435
1154.75,1.316693,433579,20911
1158.33,1.318130,436264,20971
1161.91,1.316792,439132,21174
1165.48,1.320083,442389,21170
1169.04,1.320341,446101,21335
1173.79,1.316534,451929,21804
1177.34,1.317614,456026,21947
1180.9,1.314789,461306,22346
1184.44,1.320203,467657,22373
1187.99,1.320969,473969,22635
1191.52,1.323843,479856,22765
1195.06,1.329298,487372,22833
1199.76,1.323747,497347,23600
1203.29,1.325593,504311,23829
1206.81,1.313281,511507,24864
1210.33,1.326279,519078,24488
1213.84,1.320079,527163,25227
1217.35,1.325071,534208,25272
1220.85,1.324754,540472,25587
1225.51,1.324316,549929,26061
1229.01,1.329244,556888,26093
1232.5,1.320010,562180,26907
1235.98,1.322949,567975,27001
1239.46,1.319769,574815,27527
1242.94,1.317806,582782,28035
1246.41,1.324903,591476,27992
1251.03,1.328143,604016,28373
1254.5,1.326645,612289,28861
1257.96,1.328991,619125,29026
1261.41,1.328938,624551,29284
1264.86,1.327745,629900,29616
1268.31,1.324221,634345,30068
1271.75,1.329163,638574,29926
1276.33,1.332027,642499,29912
1279.76,1.330147,645905,30201
1283.19,1.333200,648307,30101
1286.61,1.329652,650446,30448
1290.03,1.329509,652132,30537
1293.44,1.334461,653907,30273
1296.85,1.328202,655963,30809
1301.39,1.323433,657349,31215
1304.8,1.326895,657558,30977
1308.19,1.326141,658515,31076
1311.58,1.334870,658804,30471
1314.97,1.328260,659011,30948
1318.36,1.332485,658272,30614
1321.73,1.324796,658022,31149
1326.23,1.333883,657870,30497
1329.6,1.332738,656482,30513
1332.97,1.334649,654926,30307
1336.33,1.337436,653727,30058
1339.69,1.335406,652497,30142
1343.04,1.330983,649913,30330
1346.39,1.335596,647671,29906
1349.73,1.326500,645338,30429
1354.18,1.331916,641175,29858
1357.52,1.334740,638376,29535
1360.85,1.334637,635805,29423
1364.17,1.334419,633413,29327
1367.49,1.325088,631026,29851
1370.81,1.328290,628050,29492
1374.12,1.329214,625034,29288
1378.54,1.324959,620272,29351
1381.84,1.327272,616892,29036
1385.14,1.326922,613613,28905
1388.43,1.331738,611526,28489
1391.72,1.331140,610663,28488
1395.01,1.331592,610634,28457
1398.29,1.321602,611700,29170
1402.66,1.327758,614051,28870
1405.93,1.332327,616268,28671
1409.2,1.329766,617795,28912
1412.46,1.335053,618872,28612
1415.72,1.333504,619795,28757
1418.98,1.329772,620495,29038
1422.23,1.338551,621087,28484
1426.56,1.332651,621375,28887
1429.8,1.336216,621616,28662
1433.04,1.332172,622129,28954
1436.27,1.334837,621526,28749
1439.5,1.332303,621113,28898
1442.72,1.335079,620921,28705
1445.94,1.332269,620270,28861
1450.23,1.340282,618860,28269
1453.44,1.339066,617697,28295
1456.64,1.336189,616264,28417
1459.85,1.340884,614413,28027
1463.04,1.337445,612307,28153
1466.24,1.339593,610032,27910
1469.43,1.335456,607345,28053
1473.67,1.333200,603789,28034
1476.85,1.340474,601175,27449
1480.02,1.337130,597737,27503
1483.19,1.332866,594479,27623
1486.36,1.334198,591232,27388
1489.52,1.333615,587853,27268
1492.68,1.339679,583875,26708
1496.89,1.337844,578062,26554
1500.03,1.341893,574159,26130
1503.18,1.341503,570285,25977
1506.32,1.334155,565444,26196
1509.45,1.342653,560571,25467
1512.58,1.335661,555821,25661
1515.71,1.341983,550344,25041
1519.87,1.334806,543983,25164
1522.99,1.342463,538764,24487
1526.1,1.337398,533692,24541
1529.21,1.336554,527902,24322
1532.32,1.340160,521886,23846
1535.42,1.343284,515888,23403
1538.51,1.333581,509987,23658
1541.6,1.330145,503936,23563
1545.72,1.332533,494694,23004
1548.8,1.334917,488378,22586
1551.88,1.331177,481832,22476
1554.95,1.332940,474989,22067
1558.02,1.340801,467818,21344
1561.08,1.332343,460730,21434
1564.15,1.342088,454170,20660
1568.22,1.328433,444181,20851
1571.27,1.331608,436947,20362
1574.32,1.338177,429598,19719
1577.36,1.324975,422039,19970
1580.4,1.337932,414375,19031
1583.43,1.329968,406354,19008
1586.46,1.324491,398475,18876
1590.49,1.327763,388982,18288
1593.51,1.327957,380708,17891
1596.53,1.330941,372727,17396
1599.54,1.328683,365060,17127
1602.55,1.332776,357543,16617
1605.55,1.326879,349495,16465
1608.55,1.321109,341154,16287
1612.54,1.322607,330877,15742
1615.53,1.327058,322904,15206
1618.51,1.327300,315116,14831
1621.49,1.324284,307217,14560
1624.47,1.311689,299481,14611
1627.44,1.324162,292112,13848
1630.41,1.313499,284245,13810
1634.36,1.337161,274079,12610
1637.32,1.320184,266916,12770
1640.27,1.311960,259612,12658
1643.22,1.313423,251804,12236
1646.16,1.311805,244348,11918
1649.1,1.308998,236703,11620
1652.04,1.308384,228171,11217
1655.95,1.292027,215408,10996
1658.88,1.292920,204937,10440
1661.8,1.291600,193395,9882
1664.72,1.298447,179728,9040
1667.63,1.263920,163642,8912
1670.54,1.248405,146312,8258
1673.44,1.228438,128451,7591
1677.31,1.200138,105080,6628
1680.21,1.166387,88906,6061
1683.1,1.216859,75033,4554
1685.99,1.139115,63520,4611
1688.87,1.265747,53714,2913
1691.75,1.185690,45653,2977
1694.62,1.133346,39137,2879
1697.49,1.190949,33776,2176
1701.31,1.269738,28175,1514