File: ML/samples/unknown/Column 1_078619_20241121_171137.csv
Method:,Column 1,,
Host Date-Time:,21/11/24 @ 17:11:37,,
Header Version:,1,,
System Temp (C):,36.56,,
Detector Temp (C):,35.12,,
Humidity (%):,0.58,,
Lamp PD:,3798,,
Shift Vector Coefficients:,-10.5391,0.0761263,-0.000134223,,
Pixel to Wavelength Coefficients:,1775.68,-0.916766,-0.000235065,,
Serial Number:,5510004,,
Scan Config Name:,Column 1,,
Scan Config Type:,Slew,,
Section 1,,
Start wavelength (nm):,900,,
End wavelength (nm):,1700,,
Pattern Pixel Width (nm):,   7.03,,,,
Exposure (ms):,  0.635,,,,
Digital Resolution:,228,,
Num Repeats:,6,,
PGA Gain:,64,,
Total Measurement Time in sec:,  2.726,,
Wavelength (nm),Absorbance (AU),Reference Signal (unitless),Sample Signal (unitless)
901.51,1.286484,108485,5609
905.376,1.328465,121306,5694
909.237,1.328163,131909,6196
913.095,1.295606,143299,7255
916.948,1.301755,156982,7836
922.079,1.318908,179937,8634
925.923,1.308643,200504,9851
929.762,1.309499,222660,10918
933.597,1.316376,244426,11797
937.427,1.309489,263972,12944
941.254,1.323911,281845,13369
945.076,1.303537,297271,14778
950.165,1.309682,315605,15469
953.978,1.310032,328029,16065
957.786,1.302525,340470,16965
961.59,1.307834,352317,17342
965.389,1.302175,363056,18105
969.185,1.301149,373162,18653
972.976,1.310012,382632,18740
976.763,1.302991,391202,19472
981.806,1.314509,400190,19398
985.583,1.306311,406088,20059
989.355,1.302517,410162,20438
993.124,1.303507,412868,20526
996.888,1.304570,414263,20545
1000.65,1.304405,415476,20613
1004.4,1.300381,415479,20805
1009.41,1.301196,414358,20710
1013.15,1.304115,412923,20500
1016.89,1.311180,411526,20101
1020.63,1.299553,409066,20523
1024.36,1.300195,406777,20378
1028.09,1.310943,404427,19765
1031.82,1.304318,401911,19944
1036.78,1.300257,398410,19956
1040.49,1.303386,396204,19703
1044.2,1.310717,394236,19277
1047.91,1.302297,392042,19545
1051.61,1.304905,389823,19318
1055.31,1.312425,388234,18909
1059,1.308921,387599,19031
1063.92,1.307169,386688,19063
1067.61,1.306818,386598,19074
1071.29,1.301700,387377,19339
1074.96,1.308261,388536,19106
1078.63,1.305841,389855,19278
1082.3,1.303116,391215,19467
1085.96,1.307635,393215,19364
1090.84,1.312254,396270,19308
1094.49,1.311056,398760,19483
1098.14,1.305917,400987,19825
1101.79,1.311794,403477,19680
1105.43,1.306882,406116,20034
1109.06,1.316559,407701,19669
1112.7,1.317441,409859,19733
1117.53,1.314627,412494,19989
1121.15,1.321529,414909,19789
1124.77,1.308898,416559,20454
1128.38,1.314939,418532,20267
1131.99,1.308010,419956,20663
1135.6,1.311917,421946,20575
1139.2,1.318125,423881,20376
1143.99,1.315122,426786,20658
1147.58,1.310140,428617,20986
1151.17,1.318467,431169,20710
1154.75,1.313899,433579,21046
1158.33,1.316147,436264,21067
1161.91,1.312852,439132,21367
1165.48,1.311532,442389,21591
1169.04,1.309803,446101,21859
1173.79,1.314131,451929,21925
1177.34,1.315443,456026,22057
1180.9,1.308959,461306,22648
1184.44,1.317031,467657,22537
1187.99,1.306980,473969,23376
1191.52,1.311061,479856,23445
1195.06,1.315575,487372,23566
1199.76,1.319408,497347,23837
1203.29,1.314224,504311,24461
1206.81,1.315066,511507,24762
1210.33,1.310211,519078,25411
1213.84,1.313824,527163,25593
1217.35,1.315536,534208,25833
1220.85,1.324754,540472,25587
1225.51,1.322519,549929,26169
1229.01,1.318395,556888,26753
1232.5,1.318978,562180,26971
1235.98,1.320479,567975,27155
1239.46,1.319722,574815,27530
1242.94,1.310783,582782,28492
1246.41,1.318176,591476,28429
1251.03,1.317126,604016,29102
1254.5,1.321544,612289,29202
1257.96,1.313992,619125,30046
1261.41,1.319693,624551,29914
1264.86,1.315827,629900,30440
1268.31,1.321041,634345,30289
1271.75,1.320413,638574,30535
1276.33,1.323914,642499,30476
1279.76,1.326453,645905,30459
1283.19,1.326173,648307,30592
1286.61,1.323872,650446,30856
1290.03,1.324461,652132,30894
1293.44,1.322770,653907,31099
1296.85,1.326780,655963,30910
1301.39,1.324840,657349,31114
1304.8,1.325495,657558,31077
1308.19,1.331201,658515,30716
1311.58,1.326289,658804,31079
1314.97,1.326537,659011,31071
1318.36,1.329714,658272,30810
1321.73,1.323947,658022,31210
1326.23,1.324975,657870,31129
1329.6,1.328249,656482,30830
1332.97,1.326234,654926,30900
1336.33,1.329093,653727,30641
1339.69,1.325154,652497,30862
1343.04,1.322658,649913,30917
1346.39,1.323976,647671,30717
1349.73,1.324691,645338,30556
1354.18,1.321411,641175,30589
1357.52,1.319838,638376,30566
1360.85,1.324772,635805,30099
1364.17,1.316207,633413,30583
1367.49,1.322796,631026,30009
1370.81,1.323763,628050,29801
1374.12,1.325038,625034,29571
1378.54,1.320440,620272,29658
1381.84,1.324633,616892,29213
1385.14,1.323733,613613,29118
1388.43,1.320750,611526,29219
1391.72,1.322581,610663,29055
1395.01,1.326283,610634,28807
1398.29,1.323676,611700,29031
1402.66,1.328721,614051,28806
1405.93,1.334072,616268,28556
1409.2,1.329916,617795,28902
1412.46,1.327693,618872,29101
1415.72,1.328952,619795,29060
1418.98,1.325767,620495,29307
1422.23,1.328395,621087,29158
1426.56,1.333675,621375,28819
1429.8,1.332369,621616,28917
1433.04,1.329301,622129,29146
1436.27,1.330582,621526,29032
1439.5,1.323820,621113,29468
1442.72,1.331628,620921,28934
1445.94,1.328479,620270,29114
1450.23,1.328297,618860,29060
1453.44,1.329352,617697,28935
1456.64,1.334617,616264,28520
1459.85,1.329400,614413,28778
1463.04,1.331820,612307,28520
1466.24,1.327365,610032,28707
1469.43,1.328987,607345,28474
1473.67,1.332596,603789,28073
1476.85,1.325407,601175,28418
1480.02,1.329042,597737,28020
1483.19,1.328299,594479,27915
1486.36,1.335866,591232,27283
1489.52,1.327982,587853,27624
1492.68,1.332102,583875,27178
1496.89,1.329759,578062,27053
1500.03,1.332066,574159,26728
1503.18,1.328460,570285,26769
1506.32,1.327916,565444,26575
1509.45,1.332590,560571,26064
1512.58,1.333315,555821,25800
1515.71,1.329503,550344,25771
1519.87,1.329011,543983,25502
1522.99,1.324586,538764,25516
1526.1,1.332629,533692,24812
1529.21,1.327804,527902,24817
1532.32,1.329172,521886,24457
1535.42,1.336435,515888,23775
1538.51,1.328598,509987,23931
1541.6,1.321911,503936,24014
1545.72,1.335507,494694,22847
1548.8,1.331603,488378,22759
1551.88,1.330906,481832,22490
1554.95,1.332999,474989,22064
1558.02,1.332618,467818,21750
1561.08,1.329053,460730,21597
1564.15,1.333801,454170,21058
1568.22,1.333229,444181,20622
1571.27,1.323369,436947,20752
1574.32,1.337583,429598,19746
1577.36,1.324888,422039,19974
1580.4,1.333234,414375,19238
1583.43,1.319405,406354,19476
1586.46,1.328931,398475,18684
1590.49,1.326364,388982,18347
1593.51,1.327375,380708,17915
1596.53,1.322952,372727,17719
1599.54,1.326382,365060,17218
1602.55,1.329962,357543,16725
1605.55,1.326695,349495,16472
1608.55,1.320869,341154,16296
1612.54,1.333049,330877,15368
1615.53,1.304872,322904,16003
1618.51,1.322003,315116,15013
1621.49,1.311238,307217,15004
1624.47,1.303737,299481,14881
1627.44,1.318523,292112,14029
1630.41,1.299421,284245,14265
1634.36,1.310512,274079,13408
1637.32,1.312031,266916,13012
1640.27,1.312509,259612,12642
1643.22,1.309818,251804,12338
1646.16,1.310568,244348,11952
1649.1,1.303612,236703,11765
1652.04,1.299303,228171,11454
1655.95,1.309023,215408,10574
1658.88,1.282237,204937,10700
1661.8,1.284063,193395,10055
1664.72,1.262902,179728,9811
1667.63,1.250438,163642,9193
1670.54,1.227562,146312,8664
1673.44,1.214366,128451,7841
1677.31,1.189458,105080,6793
1680.21,1.127221,88906,6633
1683.1,1.131743,75033,5540
1685.99,1.127315,63520,4738
1688.87,1.107770,53714,4191
1691.75,1.121524,45653,3451
1694.62,1.126016,39137,2928
1697.49,1.273819,33776,1798
1701.31,1.217376,28175,1708