File: ML/samples/unknown/Column 1_078725_20241121_171910.csv
Method:,Column 1,,
Host Date-Time:,21/11/24 @ 17:19:10,,
Header Version:,1,,
System Temp (C):,36.12,,
Detector Temp (C):,34.49,,
Humidity (%):,1.47,,
Lamp PD:,3799,,
Shift Vector Coefficients:,-10.5391,0.0761263,-0.000134223,,
Pixel to Wavelength Coefficients:,1775.68,-0.916766,-0.000235065,,
Serial Number:,5510004,,
Scan Config Name:,Column 1,,
Scan Config Type:,Slew,,
Section 1,,
Start wavelength (nm):,900,,
End wavelength (nm):,1700,,
Pattern Pixel Width (nm):,   7.03,,,,
Exposure (ms):,  0.635,,,,
Digital Resolution:,228,,
Num Repeats:,6,,
PGA Gain:,64,,
Total Measurement Time in sec:,  2.726,,
Wavelength (nm),Absorbance (AU),Reference Signal (unitless),Sample Signal (unitless)
901.51,1.294139,108485,5511
905.376,1.324139,121306,5751
909.237,1.327813,131909,6201
913.095,1.325334,143299,6775
916.948,1.320499,156982,7505
922.079,1.331410,179937,8389
925.923,1.330569,200504,9366
929.762,1.326867,222660,10490
933.597,1.312966,244426,11890
937.427,1.335982,263972,12178
941.254,1.323717,281845,13375
945.076,1.321476,297271,14180
950.165,1.309850,315605,15463
953.978,1.310816,328029,16036
957.786,1.313491,340470,16542
961.59,1.314624,352317,17073
965.389,1.304339,363056,18015
969.185,1.309043,373162,18317
972.976,1.308762,382632,18794
976.763,1.310391,391202,19143
981.806,1.306633,400190,19753
985.583,1.310116,406088,19884
989.355,1.309479,410162,20113
993.124,1.311019,412868,20174
996.888,1.304507,414263,20548
1000.65,1.308894,415476,20401
1004.4,1.303650,415479,20649
1009.41,1.303614,414358,20595
1013.15,1.312435,412923,20111
1016.89,1.308981,411526,20203
1020.63,1.307131,409066,20168
1024.36,1.303661,406777,20216
1028.09,1.298767,404427,20327
1031.82,1.308277,401911,19763
1036.78,1.307211,398410,19639
1040.49,1.311395,396204,19343
1044.2,1.306100,394236,19483
1047.91,1.294283,392042,19909
1051.61,1.302999,389823,19403
1055.31,1.306358,388234,19175
1059,1.310865,387599,18946
1063.92,1.306191,386688,19106
1067.61,1.304411,386598,19180
1071.29,1.299393,387377,19442
1074.96,1.312028,388536,18941
1078.63,1.306585,389855,19245
1082.3,1.318627,391215,18784
1085.96,1.317090,393215,18947
1090.84,1.311333,396270,19349
1094.49,1.316484,398760,19241
1098.14,1.301927,400987,20008
1101.79,1.317324,403477,19431
1105.43,1.311963,406116,19801
1109.06,1.318263,407701,19592
1112.7,1.313149,409859,19929
1117.53,1.314040,412494,20016
1121.15,1.320455,414909,19838
1124.77,1.313852,416559,20222
1128.38,1.316334,418532,20202
1131.99,1.320310,419956,20086
1135.6,1.316245,421946,20371
1139.2,1.311819,423881,20674
1143.99,1.316575,426786,20589
1147.58,1.313255,428617,20836
1151.17,1.323975,431169,20449
1154.75,1.313136,433579,21083
1158.33,1.319105,436264,20924
1161.91,1.320066,439132,21015
1165.48,1.317812,442389,21281
1169.04,1.311655,446101,21766
1173.79,1.314329,451929,21915
1177.34,1.313165,456026,22173
1180.9,1.319361,461306,22112
1184.44,1.323027,467657,22228
1187.99,1.320356,473969,22667
1191.52,1.317330,479856,23109
1195.06,1.316183,487372,23533
1199.76,1.321106,497347,23744
1203.29,1.317325,504311,24287
1206.81,1.318765,511507,24552
1210.33,1.321605,519078,24753
1213.84,1.320665,527163,25193
1217.35,1.322279,534208,25435
1220.85,1.315501,540472,26138
1225.51,1.324649,549929,26041
1229.01,1.326887,556888,26235
1232.5,1.318013,562180,27031
1235.98,1.320799,567975,27135
1239.46,1.320938,574815,27453
1242.94,1.318953,582782,27961
1246.41,1.318711,591476,28394
1251.03,1.323818,604016,28657
1254.5,1.327052,612289,28834
1257.96,1.320780,619125,29580
1261.41,1.324452,624551,29588
1264.86,1.325318,629900,29782
1268.31,1.324929,634345,30019
1271.75,1.332206,638574,29717
1276.33,1.320395,642499,30724
1279.76,1.326695,645905,30442
1283.19,1.319915,648307,31036
1286.61,1.323829,650446,30859
1290.03,1.331348,652132,30408
1293.44,1.326768,653907,30814
1296.85,1.331115,655963,30603
1301.39,1.326392,657349,31003
1304.8,1.326348,657558,31016
1308.19,1.324369,658515,31203
1311.58,1.328770,658804,30902
1314.97,1.330850,659011,30764
1318.36,1.333039,658272,30575
1321.73,1.329042,658022,30846
1326.23,1.330055,657870,30767
1329.6,1.330877,656482,30644
1332.97,1.326346,654926,30892
1336.33,1.326733,653727,30808
1339.69,1.331648,652497,30404
1343.04,1.332704,649913,30210
1346.39,1.330959,647671,30227
1349.73,1.322790,645338,30690
1354.18,1.330217,641175,29975
1357.52,1.327941,638376,30001
1360.85,1.327987,635805,29877
1364.17,1.331541,633413,29522
1367.49,1.332572,631026,29341
1370.81,1.320092,628050,30054
1374.12,1.334030,625034,28965
1378.54,1.326813,620272,29226
1381.84,1.328966,616892,28923
1385.14,1.324151,613613,29090
1388.43,1.326615,611526,28827
1391.72,1.327345,610663,28738
1395.01,1.323952,610634,28962
1398.29,1.322884,611700,29084
1402.66,1.327442,614051,28891
1405.93,1.331721,616268,28711
1409.2,1.325923,617795,29169
1412.46,1.327932,618872,29085
1415.72,1.325040,619795,29323
1418.98,1.331225,620495,28941
1422.23,1.330530,621087,29015
1426.56,1.325302,621375,29380
1429.8,1.329704,621616,29095
1433.04,1.324250,622129,29487
1436.27,1.329999,621526,29071
1439.5,1.325311,621113,29367
1442.72,1.330549,620921,29006
1445.94,1.324780,620270,29363
1450.23,1.336002,618860,28549
1453.44,1.329532,617697,28923
1456.64,1.336800,616264,28377
1459.85,1.335341,614413,28387
1463.04,1.334447,612307,28348
1466.24,1.332141,610032,28393
1469.43,1.333926,607345,28152
1473.67,1.331746,603789,28128
1476.85,1.335910,601175,27739
1480.02,1.330284,597737,27940
1483.19,1.330014,594479,27805
1486.36,1.334293,591232,27382
1489.52,1.339420,587853,26906
1492.68,1.335745,583875,26951
1496.89,1.338466,578062,26516
1500.03,1.338796,574159,26317
1503.18,1.337360,570285,26226
1506.32,1.331000,565444,26387
1509.45,1.334677,560571,25939
1512.58,1.337901,555821,25529
1515.71,1.335595,550344,25412
1519.87,1.337124,543983,25030
1522.99,1.333824,538764,24979
1526.1,1.333593,533692,24757
1529.21,1.328820,527902,24759
1532.32,1.328268,521886,24508
1535.42,1.334648,515888,23873
1538.51,1.335993,509987,23527
1541.6,1.331788,503936,23474
1545.72,1.339633,494694,22631
1548.8,1.332482,488378,22713
1551.88,1.330366,481832,22518
1554.95,1.336835,474989,21870
1558.02,1.346660,467818,21058
1561.08,1.333561,460730,21374
1564.15,1.335061,454170,20997
1568.22,1.327913,444181,20876
1571.27,1.330564,436947,20411
1574.32,1.332423,429598,19982
1577.36,1.333340,422039,19589
1580.4,1.324119,414375,19646
1583.43,1.328577,406354,19069
1586.46,1.330351,398475,18623
1590.49,1.318599,388982,18678
1593.51,1.330221,380708,17798
1596.53,1.325410,372727,17619
1599.54,1.321790,365060,17401
1602.55,1.333430,357543,16592
1605.55,1.323359,349495,16599
1608.55,1.329646,341154,15970
1612.54,1.320790,330877,15808
1615.53,1.319920,322904,15458
1618.51,1.329708,315116,14749
1621.49,1.311557,307217,14993
1624.47,1.319457,299481,14352
1627.44,1.306223,292112,14432
1630.41,1.313531,284245,13809
1634.36,1.321467,274079,13074
1637.32,1.317708,266916,12843
1640.27,1.308781,259612,12751
1643.22,1.320580,251804,12036
1646.16,1.330723,244348,11410
1649.1,1.316804,236703,11413
1652.04,1.315646,228171,11031
1655.95,1.319288,215408,10327
1658.88,1.289192,204937,10530
1661.8,1.302594,193395,9635
1664.72,1.280749,179728,9416
1667.63,1.254472,163642,9108
1670.54,1.261376,146312,8015
1673.44,1.242864,128451,7343
1677.31,1.196419,105080,6685
1680.21,1.161683,88906,6127
1683.1,1.191575,75033,4827
1685.99,1.166322,63520,4331
1688.87,1.167557,53714,3652
1691.75,1.174458,45653,3055
1694.62,1.218573,39137,2366
1697.49,1.217915,33776,2045
1701.31,1.181754,28175,1854