File: ML/samples/unknown/Column 1_078855_20241121_172526.csv
Method:,Column 1,,
Host Date-Time:,21/11/24 @ 17:25:26,,
Header Version:,1,,
System Temp (C):,37.13,,
Detector Temp (C):,35.97,,
Humidity (%):,0.48,,
Lamp PD:,3797,,
Shift Vector Coefficients:,-10.5391,0.0761263,-0.000134223,,
Pixel to Wavelength Coefficients:,1775.68,-0.916766,-0.000235065,,
Serial Number:,5510004,,
Scan Config Name:,Column 1,,
Scan Config Type:,Slew,,
Section 1,,
Start wavelength (nm):,900,,
End wavelength (nm):,1700,,
Pattern Pixel Width (nm):,   7.03,,,,
Exposure (ms):,  0.635,,,,
Digital Resolution:,228,,
Num Repeats:,6,,
PGA Gain:,64,,
Total Measurement Time in sec:,  2.727,,
Wavelength (nm),Absorbance (AU),Reference Signal (unitless),Sample Signal (unitless)
901.51,1.294218,108485,5510
905.376,1.315985,121306,5860
909.237,1.321486,131909,6292
913.095,1.308239,143299,7047
916.948,1.286347,156982,8119
922.079,1.312517,179937,8762
925.923,1.320531,200504,9585
929.762,1.304712,222660,11039
933.597,1.329304,244426,11451
937.427,1.322430,263972,12564
941.254,1.312498,281845,13725
945.076,1.323041,297271,14129
950.165,1.316244,315605,15237
953.978,1.309167,328029,16097
957.786,1.314253,340470,16513
961.59,1.316127,352317,17014
965.389,1.302487,363056,18092
969.185,1.308451,373162,18342
972.976,1.314437,382632,18550
976.763,1.307024,391202,19292
981.806,1.302127,400190,19959
985.583,1.307894,406088,19986
989.355,1.304327,410162,20353
993.124,1.307289,412868,20348
996.888,1.297858,414263,20865
1000.65,1.296637,415476,20985
1004.4,1.308983,415479,20397
1009.41,1.299250,414358,20803
1013.15,1.311400,412923,20159
1016.89,1.307244,411526,20284
1020.63,1.303464,409066,20339
1024.36,1.311815,406777,19840
1028.09,1.297040,404427,20408
1031.82,1.305233,401911,19902
1036.78,1.311254,398410,19457
1040.49,1.302770,396204,19731
1044.2,1.308156,394236,19391
1047.91,1.309918,392042,19205
1051.61,1.299299,389823,19569
1055.31,1.310591,388234,18989
1059,1.310728,387599,18952
1063.92,1.308539,386688,19003
1067.61,1.315674,386598,18689
1071.29,1.317525,387377,18647
1074.96,1.316384,388536,18752
1078.63,1.306224,389855,19261
1082.3,1.312931,391215,19032
1085.96,1.306582,393215,19411
1090.84,1.308670,396270,19468
1094.49,1.316281,398760,19250
1098.14,1.319083,400987,19233
1101.79,1.308956,403477,19809
1105.43,1.312270,406116,19787
1109.06,1.320396,407701,19496
1112.7,1.306488,409859,20237
1117.53,1.309014,412494,20249
1121.15,1.314368,414909,20118
1124.77,1.318212,416559,20020
1128.38,1.318662,418532,20094
1131.99,1.314277,419956,20367
1135.6,1.313228,421946,20513
1139.2,1.319513,423881,20311
1143.99,1.325181,426786,20185
1147.58,1.322716,428617,20387
1151.17,1.318342,431169,20716
1154.75,1.306066,433579,21429
1158.33,1.312820,436264,21229
1161.91,1.311512,439132,21433
1165.48,1.312357,442389,21550
1169.04,1.314357,446101,21631
1173.79,1.307311,451929,22272
1177.34,1.319042,456026,21875
1180.9,1.315704,461306,22299
1184.44,1.309808,467657,22915
1187.99,1.310655,473969,23179
1191.52,1.314091,479856,23282
1195.06,1.320691,487372,23290
1199.76,1.321948,497347,23698
1203.29,1.321565,504311,24051
1206.81,1.321177,511507,24416
1210.33,1.318615,519078,24924
1213.84,1.317385,527163,25384
1217.35,1.317845,534208,25696
1220.85,1.321676,540472,25769
1225.51,1.329243,549929,25767
1229.01,1.318428,556888,26751
1232.5,1.334702,562180,26012
1235.98,1.330167,567975,26556
1239.46,1.320338,574815,27491
1242.94,1.321274,582782,27812
1246.41,1.324500,591476,28018
1251.03,1.320888,604016,28851
1254.5,1.320430,612289,29277
1257.96,1.320076,619125,29628
1261.41,1.318693,624551,29983
1264.86,1.322252,629900,29993
1268.31,1.325958,634345,29948
1271.75,1.328800,638574,29951
1276.33,1.326831,642499,30272
1279.76,1.328626,645905,30307
1283.19,1.326627,648307,30560
1286.61,1.327277,650446,30615
1290.03,1.325418,652132,30826
1293.44,1.333200,653907,30361
1296.85,1.329359,655963,30727
1301.39,1.328161,657349,30877
1304.8,1.322126,657558,31319
1308.19,1.325010,658515,31157
1311.58,1.325856,658804,31110
1314.97,1.326496,659011,31074
1318.36,1.323959,658272,31221
1321.73,1.329182,658022,30836
1326.23,1.330903,657870,30707
1329.6,1.328306,656482,30826
1332.97,1.325995,654926,30917
1336.33,1.331339,653727,30483
1339.69,1.329226,652497,30574
1343.04,1.327901,649913,30546
1346.39,1.331722,647671,30174
1349.73,1.327743,645338,30342
1354.18,1.320858,641175,30628
1357.52,1.331736,638376,29740
1360.85,1.325798,635805,30028
1364.17,1.324537,633413,30002
1367.49,1.323810,631026,29939
1370.81,1.319125,628050,30121
1374.12,1.323689,625034,29663
1378.54,1.323040,620272,29481
1381.84,1.323683,616892,29277
1385.14,1.326922,613613,28905
1388.43,1.322895,611526,29075
1391.72,1.323284,610663,29008
1395.01,1.327234,610634,28744
1398.29,1.329368,611700,28653
1402.66,1.320182,614051,29378
1405.93,1.319609,616268,29523
1409.2,1.326087,617795,29158
1412.46,1.326918,618872,29153
1415.72,1.331170,619795,28912
1418.98,1.328144,620495,29147
1422.23,1.328156,621087,29174
1426.56,1.333780,621375,28812
1429.8,1.324599,621616,29439
1433.04,1.329764,622129,29115
1436.27,1.329298,621526,29118
1439.5,1.332108,621113,28911
1442.72,1.332499,620921,28876
1445.94,1.328957,620270,29082
1450.23,1.331627,618860,28838
1453.44,1.326018,617697,29158
1456.64,1.329380,616264,28866
1459.85,1.327668,614413,28893
1463.04,1.324377,612307,29013
1466.24,1.333167,610032,28326
1469.43,1.330867,607345,28351
1473.67,1.333727,603789,28000
1476.85,1.336976,601175,27671
1480.02,1.333325,597737,27745
1483.19,1.328454,594479,27905
1486.36,1.334245,591232,27385
1489.52,1.329904,587853,27502
1492.68,1.330762,583875,27262
1496.89,1.332481,578062,26884
1500.03,1.325983,574159,27105
1503.18,1.335509,570285,26338
1506.32,1.332847,565444,26275
1509.45,1.338579,560571,25707
1512.58,1.330229,555821,25984
1515.71,1.333192,550344,25553
1519.87,1.336483,543983,25067
1522.99,1.327523,538764,25344
1526.1,1.334067,533692,24730
1529.21,1.330930,527902,24639
1532.32,1.327330,521886,24561
1535.42,1.327343,515888,24278
1538.51,1.336048,509987,23524
1541.6,1.333215,503936,23397
1545.72,1.331496,494694,23059
1548.8,1.328333,488378,22931
1551.88,1.328691,481832,22605
1554.95,1.331349,474989,22148
1558.02,1.330327,467818,21865
1561.08,1.329033,460730,21598
1564.15,1.331006,454170,21194
1568.22,1.324576,444181,21037
1571.27,1.328844,436947,20492
1574.32,1.340585,429598,19610
1577.36,1.329961,422039,19742
1580.4,1.330286,414375,19369
1583.43,1.319182,406354,19486
1586.46,1.324192,398475,18889
1590.49,1.331532,388982,18130
1593.51,1.323273,380708,18085
1596.53,1.323909,372727,17680
1599.54,1.321990,365060,17393
1602.55,1.324082,357543,16953
1605.55,1.324722,349495,16547
1608.55,1.314205,341154,16548
1612.54,1.318297,330877,15899
1615.53,1.315226,322904,15626
1618.51,1.321569,315116,15028
1621.49,1.313037,307217,14942
1624.47,1.310354,299481,14656
1627.44,1.315315,292112,14133
1630.41,1.308186,284245,13980
1634.36,1.310998,274079,13393
1637.32,1.307845,266916,13138
1640.27,1.306403,259612,12821
1643.22,1.313956,251804,12221
1646.16,1.328218,244348,11476
1649.1,1.325607,236703,11184
1652.04,1.302309,228171,11375
1655.95,1.297472,215408,10859
1658.88,1.285087,204937,10630
1661.8,1.282597,193395,10089
1664.72,1.253445,179728,10027
1667.63,1.257630,163642,9042
1670.54,1.230428,146312,8607
1673.44,1.202996,128451,8049
1677.31,1.177976,105080,6975
1680.21,1.124805,88906,6670
1683.1,1.123050,75033,5652
1685.99,1.156703,63520,4428
1688.87,1.115190,53714,4120
1691.75,1.114410,45653,3508
1694.62,1.165751,39137,2672
1697.49,1.172200,33776,2272
1701.31,1.160721,28175,1946