File: ML/samples/unknown/Column 1_078829_20241121_172411.csv
Method:,Column 1,,
Host Date-Time:,21/11/24 @ 17:24:11,,
Header Version:,1,,
System Temp (C):,37.49,,
Detector Temp (C):,35.68,,
Humidity (%):,1.08,,
Lamp PD:,3797,,
Shift Vector Coefficients:,-10.5391,0.0761263,-0.000134223,,
Pixel to Wavelength Coefficients:,1775.68,-0.916766,-0.000235065,,
Serial Number:,5510004,,
Scan Config Name:,Column 1,,
Scan Config Type:,Slew,,
Section 1,,
Start wavelength (nm):,900,,
End wavelength (nm):,1700,,
Pattern Pixel Width (nm):,   7.03,,,,
Exposure (ms):,  0.635,,,,
Digital Resolution:,228,,
Num Repeats:,6,,
PGA Gain:,64,,
Total Measurement Time in sec:,  2.725,,
Wavelength (nm),Absorbance (AU),Reference Signal (unitless),Sample Signal (unitless)
901.51,1.312325,108485,5285
905.376,1.297770,121306,6111
909.237,1.327953,131909,6199
913.095,1.329456,143299,6711
916.948,1.336411,156982,7235
922.079,1.332084,179937,8376
925.923,1.344707,200504,9066
929.762,1.339170,222660,10197
933.597,1.325077,244426,11563
937.427,1.336624,263972,12160
941.254,1.318328,281845,13542
945.076,1.325044,297271,14064
950.165,1.316530,315605,15227
953.978,1.315746,328029,15855
957.786,1.309753,340470,16685
961.59,1.308486,352317,17316
965.389,1.305619,363056,17962
969.185,1.310754,373162,18245
972.976,1.313012,382632,18611
976.763,1.305832,391202,19345
981.806,1.312365,400190,19494
985.583,1.309178,406088,19927
989.355,1.299468,410162,20582
993.124,1.299086,412868,20736
996.888,1.309930,414263,20293
1000.65,1.306136,415476,20531
1004.4,1.302432,415479,20707
1009.41,1.306831,414358,20443
1013.15,1.299815,412923,20704
1016.89,1.313346,411526,20001
1020.63,1.305690,409066,20235
1024.36,1.312231,406777,19821
1028.09,1.306941,404427,19948
1031.82,1.311298,401911,19626
1036.78,1.304939,398410,19742
1040.49,1.313601,396204,19245
1044.2,1.303345,394236,19607
1047.91,1.315036,392042,18980
1051.61,1.312365,389823,18989
1055.31,1.313230,388234,18874
1059,1.308533,387599,19048
1063.92,1.316123,386688,18674
1067.61,1.312778,386598,18814
1071.29,1.314184,387377,18791
1074.96,1.319872,388536,18602
1078.63,1.311533,389855,19027
1082.3,1.313479,391215,19008
1085.96,1.310222,393215,19249
1090.84,1.316594,396270,19116
1094.49,1.314098,398760,19347
1098.14,1.328834,400987,18806
1101.79,1.314317,403477,19566
1105.43,1.315929,406116,19621
1109.06,1.318152,407701,19597
1112.7,1.314262,409859,19878
1117.53,1.316827,412494,19888
1121.15,1.324966,414909,19633
1124.77,1.319734,416559,19950
1128.38,1.323531,418532,19870
1131.99,1.316350,419956,20270
1135.6,1.322299,421946,20089
1139.2,1.315363,423881,20506
1143.99,1.325806,426786,20156
1147.58,1.316162,428617,20697
1151.17,1.315354,431169,20859
1154.75,1.318692,433579,20815
1158.33,1.312697,436264,21235
1161.91,1.314828,439132,21270
1165.48,1.323916,442389,20984
1169.04,1.315020,446101,21598
1173.79,1.312608,451929,22002
1177.34,1.319141,456026,21870
1180.9,1.314653,461306,22353
1184.44,1.319679,467657,22400
1187.99,1.314135,473969,22994
1191.52,1.325774,479856,22664
1195.06,1.316719,487372,23504
1199.76,1.319335,497347,23841
1203.29,1.320735,504311,24097
1206.81,1.318871,511507,24546
1210.33,1.320099,519078,24839
1213.84,1.320872,527163,25181
1217.35,1.319216,534208,25615
1220.85,1.323364,540472,25669
1225.51,1.328249,549929,25826
1229.01,1.322768,556888,26485
1232.5,1.320883,562180,26853
1235.98,1.320176,567975,27174
1239.46,1.324289,574815,27242
1242.94,1.319078,582782,27953
1246.41,1.316620,591476,28531
1251.03,1.319070,604016,28972
1254.5,1.323721,612289,29056
1257.96,1.317737,619125,29788
1261.41,1.328137,624551,29338
1264.86,1.323760,629900,29889
1268.31,1.327207,634345,29862
1271.75,1.321054,638574,30490
1276.33,1.328168,642499,30179
1279.76,1.332122,645905,30064
1283.19,1.324855,648307,30685
1286.61,1.320200,650446,31118
1290.03,1.332105,652132,30355
1293.44,1.321932,653907,31159
1296.85,1.336916,655963,30197
1301.39,1.326939,657349,30964
1304.8,1.330711,657558,30706
1308.19,1.331088,658515,30724
1311.58,1.326988,658804,31029
1314.97,1.327994,659011,30967
1318.36,1.325547,658272,31107
1321.73,1.335824,658022,30368
1326.23,1.330493,657870,30736
1329.6,1.326674,656482,30942
1332.97,1.334836,654926,30294
1336.33,1.324441,653727,30971
1339.69,1.325774,652497,30818
1343.04,1.329468,649913,30436
1346.39,1.325519,647671,30608
1349.73,1.324918,645338,30540
1354.18,1.327660,641175,30152
1357.52,1.327738,638376,30015
1360.85,1.324296,635805,30132
1364.17,1.330880,633413,29567
1367.49,1.322579,631026,30024
1370.81,1.324609,628050,29743
1374.12,1.323908,625034,29648
1378.54,1.325863,620272,29290
1381.84,1.325898,616892,29128
1385.14,1.327839,613613,28844
1388.43,1.329897,611526,28610
1391.72,1.323014,610663,29026
1395.01,1.325876,610634,28834
1398.29,1.324470,611700,28978
1402.66,1.323521,614051,29153
1405.93,1.335245,616268,28479
1409.2,1.327698,617795,29050
1412.46,1.333991,618872,28682
1415.72,1.329581,619795,29018
1418.98,1.333150,620495,28813
1422.23,1.337349,621087,28563
1426.56,1.335972,621375,28667
1429.8,1.333678,621616,28830
1433.04,1.334729,622129,28784
1436.27,1.333013,621526,28870
1439.5,1.331462,621113,28954
1442.72,1.331523,620921,28941
1445.94,1.335638,620270,28638
1450.23,1.332487,618860,28781
1453.44,1.336190,617697,28483
1456.64,1.337965,616264,28301
1459.85,1.330821,614413,28684
1463.04,1.344411,612307,27705
1466.24,1.334042,610032,28269
1469.43,1.333417,607345,28185
1473.67,1.337779,603789,27740
1476.85,1.334519,601175,27828
1480.02,1.338047,597737,27445
1483.19,1.343014,594479,26985
1486.36,1.336551,591232,27240
1489.52,1.342400,587853,26722
1492.68,1.340965,583875,26629
1496.89,1.336685,578062,26625
1500.03,1.335377,574159,26525
1503.18,1.337907,570285,26193
1506.32,1.336399,565444,26061
1509.45,1.334142,560571,25971
1512.58,1.341711,555821,25306
1515.71,1.338510,550344,25242
1519.87,1.334857,543983,25161
1522.99,1.332348,538764,25064
1526.1,1.334400,533692,24711
1529.21,1.331830,527902,24588
1532.32,1.338034,521886,23963
1535.42,1.343971,515888,23366
1538.51,1.332518,509987,23716
1541.6,1.339177,503936,23078
1545.72,1.339153,494694,22656
1548.8,1.329718,488378,22858
1551.88,1.340868,481832,21980
1554.95,1.328242,474989,22307
1558.02,1.333537,467818,21704
1561.08,1.335863,460730,21261
1564.15,1.337863,454170,20862
1568.22,1.332135,444181,20674
1571.27,1.331054,436947,20388
1574.32,1.328636,429598,20157
1577.36,1.330181,422039,19732
1580.4,1.339395,414375,18967
1583.43,1.336297,406354,18733
1586.46,1.330212,398475,18629
1590.49,1.328025,388982,18277
1593.51,1.323057,380708,18094
1596.53,1.322976,372727,17718
1599.54,1.329724,365060,17086
1602.55,1.315785,357543,17280
1605.55,1.322235,349495,16642
1608.55,1.329754,341154,15966
1612.54,1.314923,330877,16023
1615.53,1.319583,322904,15470
1618.51,1.327095,315116,14838
1621.49,1.321045,307217,14669
1624.47,1.318822,299481,14373
1627.44,1.317317,292112,14068
1630.41,1.331313,284245,13255
1634.36,1.315758,274079,13247
1637.32,1.328562,266916,12526
1640.27,1.315439,259612,12557
1643.22,1.310381,251804,12322
1646.16,1.296729,244348,12339
1649.1,1.297855,236703,11922
1652.04,1.296695,228171,11523
1655.95,1.317986,215408,10358
1658.88,1.285864,204937,10611
1661.8,1.283718,193395,10063
1664.72,1.274476,179728,9553
1667.63,1.260957,163642,8973
1670.54,1.245783,146312,8308
1673.44,1.211220,128451,7898
1677.31,1.187227,105080,6828
1680.21,1.164456,88906,6088
1683.1,1.150403,75033,5307
1685.99,1.152506,63520,4471
1688.87,1.162238,53714,3697
1691.75,1.146385,45653,3259
1694.62,1.120856,39137,2963
1697.49,1.210127,33776,2082
1701.31,1.135786,28175,2061