File: ML/samples/unknown/Column 1_078143_20241121_164735.csv
Method:,Column 1,,
Host Date-Time:,21/11/24 @ 16:47:35,,
Header Version:,1,,
System Temp (C):,33.11,,
Detector Temp (C):,29.08,,
Humidity (%):,3.32,,
Lamp PD:,3806,,
Shift Vector Coefficients:,-10.5391,0.0761263,-0.000134223,,
Pixel to Wavelength Coefficients:,1775.68,-0.916766,-0.000235065,,
Serial Number:,5510004,,
Scan Config Name:,Column 1,,
Scan Config Type:,Slew,,
Section 1,,
Start wavelength (nm):,900,,
End wavelength (nm):,1700,,
Pattern Pixel Width (nm):,   7.03,,,,
Exposure (ms):,  0.635,,,,
Digital Resolution:,228,,
Num Repeats:,6,,
PGA Gain:,64,,
Total Measurement Time in sec:,  2.722,,
Wavelength (nm),Absorbance (AU),Reference Signal (unitless),Sample Signal (unitless)
901.51,1.330190,108485,5072
905.376,1.334765,121306,5612
909.237,1.322730,131909,6274
913.095,1.315510,143299,6930
916.948,1.325739,156982,7415
922.079,1.325804,179937,8498
925.923,1.312985,200504,9753
929.762,1.307317,222660,10973
933.597,1.334954,244426,11303
937.427,1.313670,263972,12820
941.254,1.325245,281845,13328
945.076,1.334187,297271,13771
950.165,1.324619,315605,14946
953.978,1.313996,328029,15919
957.786,1.314305,340470,16511
961.59,1.316178,352317,17012
965.389,1.316687,363056,17510
969.185,1.316263,373162,18015
972.976,1.316361,382632,18468
976.763,1.319631,391202,18740
981.806,1.316844,400190,19294
985.583,1.307416,406088,20008
989.355,1.313274,410162,19938
993.124,1.315346,412868,19974
996.888,1.316420,414263,19992
1000.65,1.316388,415476,20052
1004.4,1.301908,415479,20732
1009.41,1.309452,414358,20320
1013.15,1.315752,412923,19958
1016.89,1.315937,411526,19882
1020.63,1.316424,409066,19741
1024.36,1.310372,406777,19906
1028.09,1.320608,404427,19330
1031.82,1.308563,401911,19750
1036.78,1.314301,398410,19321
1040.49,1.313375,396204,19255
1044.2,1.318720,394236,18925
1047.91,1.315838,392042,18945
1051.61,1.311223,389823,19039
1055.31,1.308629,388234,19075
1059,1.314918,387599,18770
1063.92,1.316077,386688,18676
1067.61,1.315488,386598,18697
1071.29,1.315411,387377,18738
1074.96,1.313544,388536,18875
1078.63,1.316122,389855,18827
1082.3,1.319600,391215,18742
1085.96,1.326052,393215,18560
1090.84,1.312096,396270,19315
1094.49,1.311613,398760,19458
1098.14,1.316247,400987,19359
1101.79,1.321253,403477,19256
1105.43,1.321072,406116,19390
1109.06,1.324110,407701,19330
1112.7,1.317441,409859,19733
1117.53,1.316958,412494,19882
1121.15,1.315925,414909,20046
1124.77,1.309727,416559,20415
1128.38,1.320612,418532,20004
1131.99,1.322326,419956,19993
1135.6,1.318210,421946,20279
1139.2,1.320090,423881,20284
1143.99,1.329006,426786,20008
1147.58,1.316078,428617,20701
1151.17,1.317127,431169,20774
1154.75,1.320553,433579,20726
1158.33,1.323297,436264,20723
1161.91,1.328918,439132,20591
1165.48,1.316284,442389,21356
1169.04,1.321727,446101,21267
1173.79,1.315122,451929,21875
1177.34,1.323291,456026,21662
1180.9,1.312753,461306,22451
1184.44,1.320378,467657,22364
1187.99,1.320260,473969,22672
1191.52,1.324492,479856,22731
1195.06,1.321942,487372,23223
1199.76,1.322590,497347,23663
1203.29,1.328977,504311,23644
1206.81,1.331163,511507,23861
1210.33,1.330396,519078,24257
1213.84,1.329371,527163,24693
1217.35,1.319216,534208,25615
1220.85,1.324482,540472,25603
1225.51,1.327645,549929,25862
1229.01,1.327235,556888,26214
1232.5,1.322178,562180,26773
1235.98,1.328404,567975,26664
1239.46,1.323127,574815,27315
1242.94,1.325306,582782,27555
1246.41,1.330101,591476,27659
1251.03,1.323924,604016,28650
1254.5,1.327851,612289,28781
1257.96,1.324481,619125,29329
1261.41,1.327871,624551,29356
1264.86,1.328097,629900,29592
1268.31,1.329321,634345,29717
1271.75,1.332513,638574,29696
1276.33,1.331403,642499,29955
1279.76,1.333134,645905,29994
1283.19,1.331831,648307,30196
1286.61,1.335425,650446,30046
1290.03,1.328415,652132,30614
1293.44,1.331644,653907,30470
1296.85,1.329741,655963,30700
1301.39,1.333724,657349,30484
1304.8,1.337453,657558,30233
1308.19,1.338516,658515,30203
1311.58,1.334684,658804,30484
1314.97,1.336119,659011,30393
1318.36,1.336776,658272,30313
1321.73,1.331725,658022,30656
1326.23,1.328378,657870,30886
1329.6,1.334106,656482,30417
1332.97,1.333719,654926,30372
1336.33,1.334155,653727,30286
1339.69,1.340158,652497,29814
1343.04,1.334635,649913,30076
1346.39,1.331333,647671,30201
1349.73,1.333303,645338,29956
1354.18,1.330493,641175,29956
1357.52,1.326669,638376,30089
1360.85,1.330860,635805,29680
1364.17,1.334405,633413,29328
1367.49,1.334025,631026,29243
1370.81,1.330460,628050,29345
1374.12,1.332638,625034,29058
1378.54,1.333295,620272,28793
1381.84,1.327916,616892,28993
1385.14,1.335234,613613,28357
1388.43,1.331966,611526,28474
1391.72,1.329952,610663,28566
1395.01,1.329567,610634,28590
1398.29,1.331648,611700,28503
1402.66,1.332522,614051,28555
1405.93,1.330181,616268,28813
1409.2,1.333356,617795,28674
1412.46,1.335599,618872,28576
1415.72,1.333353,619795,28767
1418.98,1.339206,620495,28414
1422.23,1.335740,621087,28669
1426.56,1.334882,621375,28739
1429.8,1.334673,621616,28764
1433.04,1.337226,622129,28619
1436.27,1.339851,621526,28419
1439.5,1.334926,621113,28724
1442.72,1.332996,620921,28843
1445.94,1.334457,620270,28716
1450.23,1.343427,618860,28065
1453.44,1.340003,617697,28234
1456.64,1.337766,616264,28314
1459.85,1.340280,614413,28066
1463.04,1.342721,612307,27813
1466.24,1.343736,610032,27645
1469.43,1.345558,607345,27408
1473.67,1.340228,603789,27584
1476.85,1.339858,601175,27488
1480.02,1.331155,597737,27884
1483.19,1.340399,594479,27148
1486.36,1.339687,591232,27044
1489.52,1.331804,587853,27382
1492.68,1.333351,583875,27100
1496.89,1.332545,578062,26880
1500.03,1.338433,574159,26339
1503.18,1.348412,570285,25567
1506.32,1.342000,565444,25727
1509.45,1.339188,560571,25671
1512.58,1.345867,555821,25065
1515.71,1.340805,550344,25109
1519.87,1.338323,543983,24961
1522.99,1.350283,538764,24050
1526.1,1.339847,533692,24403
1529.21,1.343502,527902,23936
1532.32,1.340033,521886,23853
1535.42,1.345666,515888,23275
1538.51,1.340408,509987,23289
1541.6,1.343090,503936,22871
1545.72,1.344962,494694,22355
1548.8,1.340899,488378,22277
1551.88,1.336171,481832,22219
1554.95,1.341768,474989,21623
1558.02,1.344377,467818,21169
1561.08,1.340649,460730,21028
1564.15,1.333966,454170,21050
1568.22,1.342510,444181,20186
1571.27,1.347995,436947,19608
1574.32,1.338089,429598,19723
1577.36,1.339638,422039,19307
1580.4,1.345668,414375,18695
1583.43,1.336320,406354,18732
1586.46,1.335465,398475,18405
1590.49,1.341172,388982,17732
1593.51,1.344508,380708,17222
1596.53,1.341607,372727,16974
1599.54,1.328125,365060,17149
1602.55,1.318482,357543,17173
1605.55,1.335430,349495,16144
1608.55,1.324670,341154,16154
1612.54,1.329868,330877,15481
1615.53,1.313810,322904,15677
1618.51,1.321801,315116,15020
1621.49,1.329717,307217,14379
1624.47,1.322250,299481,14260
1627.44,1.320073,292112,13979
1630.41,1.320537,284245,13588
1634.36,1.325304,274079,12959
1637.32,1.325246,266916,12622
1640.27,1.321604,259612,12380
1643.22,1.318241,251804,12101
1646.16,1.319044,244348,11721
1649.1,1.321125,236703,11300
1652.04,1.325642,228171,10780
1655.95,1.334915,215408,9962
1658.88,1.308160,204937,10080
1661.8,1.303135,193395,9623
1664.72,1.304592,179728,8913
1667.63,1.306322,163642,8083
1670.54,1.289524,146312,7512
1673.44,1.297699,128451,6472
1677.31,1.275821,105080,5568
1680.21,1.256701,88906,4923
1683.1,1.259197,75033,4131
1685.99,1.278125,63520,3348
1688.87,1.306187,53714,2654
1691.75,1.307866,45653,2247
1694.62,1.305010,39137,1939
1697.49,1.227361,33776,2001
1701.31,1.246015,28175,1599