File: ML/samples/unknown/Column 1_078706_20241121_171815.csv
Method:,Column 1,,
Host Date-Time:,21/11/24 @ 17:18:15,,
Header Version:,1,,
System Temp (C):,35.66,,
Detector Temp (C):,34.34,,
Humidity (%):,1.66,,
Lamp PD:,3800,,
Shift Vector Coefficients:,-10.5391,0.0761263,-0.000134223,,
Pixel to Wavelength Coefficients:,1775.68,-0.916766,-0.000235065,,
Serial Number:,5510004,,
Scan Config Name:,Column 1,,
Scan Config Type:,Slew,,
Section 1,,
Start wavelength (nm):,900,,
End wavelength (nm):,1700,,
Pattern Pixel Width (nm):,   7.03,,,,
Exposure (ms):,  0.635,,,,
Digital Resolution:,228,,
Num Repeats:,6,,
PGA Gain:,64,,
Total Measurement Time in sec:,  2.671,,
Wavelength (nm),Absorbance (AU),Reference Signal (unitless),Sample Signal (unitless)
901.51,1.300970,108485,5425
905.376,1.309219,121306,5952
909.237,1.318802,131909,6331
913.095,1.299031,143299,7198
916.948,1.325153,156982,7425
922.079,1.303929,179937,8937
925.923,1.311252,200504,9792
929.762,1.320619,222660,10642
933.597,1.317039,244426,11779
937.427,1.319811,263972,12640
941.254,1.308561,281845,13850
945.076,1.306486,297271,14678
950.165,1.308896,315605,15497
953.978,1.301837,328029,16371
957.786,1.301681,340470,16998
961.59,1.310346,352317,17242
965.389,1.312491,363056,17680
969.185,1.306584,373162,18421
972.976,1.298554,382632,19241
976.763,1.303437,391202,19452
981.806,1.301540,400190,19986
985.583,1.303333,406088,20197
989.355,1.301456,410162,20488
993.124,1.302197,412868,20588
996.888,1.296465,414263,20932
1000.65,1.298504,415476,20895
1004.4,1.306626,415479,20508
1009.41,1.315998,414358,20016
1013.15,1.309895,412923,20229
1016.89,1.307694,411526,20263
1020.63,1.295760,409066,20703
1024.36,1.296756,406777,20540
1028.09,1.305007,404427,20037
1031.82,1.307618,401911,19793
1036.78,1.303555,398410,19805
1040.49,1.312339,396204,19301
1044.2,1.303633,394236,19594
1047.91,1.299661,392042,19664
1051.61,1.307363,389823,19209
1055.31,1.305702,388234,19204
1059,1.305670,387599,19174
1063.92,1.303449,386688,19227
1067.61,1.315372,386598,18702
1071.29,1.299594,387377,19433
1074.96,1.304302,388536,19281
1078.63,1.301069,389855,19491
1082.3,1.310337,391215,19146
1085.96,1.311306,393215,19201
1090.84,1.310503,396270,19386
1094.49,1.309809,398760,19539
1098.14,1.308356,400987,19714
1101.79,1.307490,403477,19876
1105.43,1.309513,406116,19913
1109.06,1.309985,407701,19969
1112.7,1.311322,409859,20013
1117.53,1.309529,412494,20225
1121.15,1.309260,414909,20356
1124.77,1.308431,416559,20476
1128.38,1.308853,418532,20553
1131.99,1.312808,419956,20436
1135.6,1.314033,421946,20475
1139.2,1.312913,423881,20622
1143.99,1.317483,426786,20546
1147.58,1.316540,428617,20679
1151.17,1.304620,431169,21381
1154.75,1.312025,433579,21137
1158.33,1.306060,436264,21562
1161.91,1.312242,439132,21397
1165.48,1.309064,442389,21714
1169.04,1.306793,446101,22011
1173.79,1.304745,451929,22404
1177.34,1.312402,456026,22212
1180.9,1.313722,461306,22401
1184.44,1.316204,467657,22580
1187.99,1.307798,473969,23332
1191.52,1.314333,479856,23269
1195.06,1.311503,487372,23788
1199.76,1.325887,497347,23484
1203.29,1.314349,504311,24454
1206.81,1.327015,511507,24090
1210.33,1.322237,519078,24717
1213.84,1.311927,527163,25705
1217.35,1.314763,534208,25879
1220.85,1.314605,540472,26192
1225.51,1.316717,549929,26521
1229.01,1.321442,556888,26566
1232.5,1.315738,562180,27173
1235.98,1.317594,567975,27336
1239.46,1.322539,574815,27352
1242.94,1.321461,582782,27800
1246.41,1.318237,591476,28425
1251.03,1.310491,604016,29550
1254.5,1.318831,612289,29385
1257.96,1.320942,619125,29569
1261.41,1.318013,624551,30030
1264.86,1.320229,629900,30133
1268.31,1.322923,634345,30158
1271.75,1.324601,638574,30242
1276.33,1.320819,642499,30694
1279.76,1.321477,645905,30810
1283.19,1.321415,648307,30929
1286.61,1.332644,650446,30239
1290.03,1.325038,652132,30853
1293.44,1.328576,653907,30686
1296.85,1.326935,655963,30899
1301.39,1.322224,657349,31302
1304.8,1.329567,657558,30787
1308.19,1.329437,658515,30841
1311.58,1.328278,658804,30937
1314.97,1.327139,659011,31028
1318.36,1.323139,658272,31280
1321.73,1.328465,658022,30887
1326.23,1.324975,657870,31129
1329.6,1.321901,656482,31284
1332.97,1.322149,654926,31192
1336.33,1.327749,653727,30736
1339.69,1.320633,652497,31185
1343.04,1.320626,649913,31062
1346.39,1.321565,647671,30888
1349.73,1.326514,645338,30428
1354.18,1.329017,641175,30058
1357.52,1.321689,638376,30436
1360.85,1.320865,635805,30371
1364.17,1.321191,633413,30234
1367.49,1.329343,631026,29560
1370.81,1.319183,628050,30117
1374.12,1.327290,625034,29418
1378.54,1.322731,620272,29502
1381.84,1.323119,616892,29315
1385.14,1.321427,613613,29273
1388.43,1.319221,611526,29322
1391.72,1.322730,610663,29045
1395.01,1.322889,610634,29033
1398.29,1.324605,611700,28969
1402.66,1.327938,614051,28858
1405.93,1.328586,616268,28919
1409.2,1.330097,617795,28890
1412.46,1.326129,618872,29206
1415.72,1.324773,619795,29341
1418.98,1.323948,620495,29430
1422.23,1.325707,621087,29339
1426.56,1.331570,621375,28959
1429.8,1.326151,621616,29334
1433.04,1.333870,622129,28841
1436.27,1.321610,621526,29638
1439.5,1.331012,621113,28984
1442.72,1.330758,620921,28992
1445.94,1.332947,620270,28816
1450.23,1.327610,618860,29106
1453.44,1.332773,617697,28708
1456.64,1.335440,616264,28466
1459.85,1.334439,614413,28446
1463.04,1.332170,612307,28497
1466.24,1.330935,610032,28472
1469.43,1.328210,607345,28525
1473.67,1.331638,603789,28135
1476.85,1.327767,601175,28264
1480.02,1.331015,597737,27893
1483.19,1.330154,594479,27796
1486.36,1.334182,591232,27389
1489.52,1.334636,587853,27204
1492.68,1.335681,583875,26955
1496.89,1.334018,578062,26789
1500.03,1.329765,574159,26870
1503.18,1.336731,570285,26264
1506.32,1.333211,565444,26253
1509.45,1.332240,560571,26085
1512.58,1.332760,555821,25833
1515.71,1.330228,550344,25728
1519.87,1.325652,543983,25700
1522.99,1.329619,538764,25222
1526.1,1.336903,533692,24569
1529.21,1.337806,527902,24252
1532.32,1.329563,521886,24435
1535.42,1.333794,515888,23920
1538.51,1.324642,509987,24150
1541.6,1.330901,503936,23522
1545.72,1.326813,494694,23309
1548.8,1.332233,488378,22726
1551.88,1.336954,481832,22179
1554.95,1.330468,474989,22193
1558.02,1.326471,467818,22060
1561.08,1.326827,460730,21708
1564.15,1.325447,454170,21467
1568.22,1.331296,444181,20714
1571.27,1.332526,436947,20319
1574.32,1.333098,429598,19951
1577.36,1.324409,422039,19996
1580.4,1.326047,414375,19559
1583.43,1.330791,406354,18972
1586.46,1.326914,398475,18771
1590.49,1.315195,388982,18825
1593.51,1.319353,380708,18249
1596.53,1.329371,372727,17459
1599.54,1.323691,365060,17325
1602.55,1.324825,357543,16924
1605.55,1.322392,349495,16636
1608.55,1.320417,341154,16313
1612.54,1.319363,330877,15860
1615.53,1.320511,322904,15437
1618.51,1.306991,315116,15541
1621.49,1.324016,307217,14569
1624.47,1.320639,299481,14313
1627.44,1.309273,292112,14331
1630.41,1.316845,284245,13704
1634.36,1.311679,274079,13372
1637.32,1.316189,266916,12888
1640.27,1.309326,259612,12735
1643.22,1.313246,251804,12241
1646.16,1.296905,244348,12334
1649.1,1.300522,236703,11849
1652.04,1.308694,228171,11209
1655.95,1.312321,215408,10494
1658.88,1.294963,204937,10391
1661.8,1.282425,193395,10093
1664.72,1.269279,179728,9668
1667.63,1.256623,163642,9063
1670.54,1.217454,146312,8868
1673.44,1.206191,128451,7990
1677.31,1.188182,105080,6813
1680.21,1.170346,88906,6006
1683.1,1.153359,75033,5271
1685.99,1.171365,63520,4281
1688.87,1.161299,53714,3705
1691.75,1.141482,45653,3296
1694.62,1.121149,39137,2961
1697.49,1.138734,33776,2454
1701.31,1.181754,28175,1854