File: ML/samples/unknown/Column 1_078219_20241121_165119.csv
Method:,Column 1,,
Host Date-Time:,21/11/24 @ 16:51:19,,
Header Version:,1,,
System Temp (C):,34.04,,
Detector Temp (C):,31.16,,
Humidity (%):,3.03,,
Lamp PD:,3803,,
Shift Vector Coefficients:,-10.5391,0.0761263,-0.000134223,,
Pixel to Wavelength Coefficients:,1775.68,-0.916766,-0.000235065,,
Serial Number:,5510004,,
Scan Config Name:,Column 1,,
Scan Config Type:,Slew,,
Section 1,,
Start wavelength (nm):,900,,
End wavelength (nm):,1700,,
Pattern Pixel Width (nm):,   7.03,,,,
Exposure (ms):,  0.635,,,,
Digital Resolution:,228,,
Num Repeats:,6,,
PGA Gain:,64,,
Total Measurement Time in sec:,  2.668,,
Wavelength (nm),Absorbance (AU),Reference Signal (unitless),Sample Signal (unitless)
901.51,1.297303,108485,5471
905.376,1.322932,121306,5767
909.237,1.308498,131909,6483
913.095,1.316765,143299,6910
916.948,1.336531,156982,7233
922.079,1.297609,179937,9068
925.923,1.307718,200504,9872
929.762,1.321968,222660,10609
933.597,1.317740,244426,11760
937.427,1.313907,263972,12813
941.254,1.332739,281845,13100
945.076,1.307582,297271,14641
950.165,1.311060,315605,15420
953.978,1.307444,328029,16161
957.786,1.315517,340470,16465
961.59,1.315209,352317,17050
965.389,1.323688,363056,17230
969.185,1.321112,373162,17815
972.976,1.311033,382632,18696
976.763,1.305832,391202,19345
981.806,1.313995,400190,19421
985.583,1.301766,406088,20270
989.355,1.305930,410162,20278
993.124,1.303465,412868,20528
996.888,1.311431,414263,20223
1000.65,1.306051,415476,20535
1004.4,1.302789,415479,20690
1009.41,1.310008,414358,20294
1013.15,1.307305,412923,20350
1016.89,1.310877,411526,20115
1020.63,1.307497,409066,20151
1024.36,1.306441,406777,20087
1028.09,1.306332,404427,19976
1031.82,1.306632,401911,19838
1036.78,1.316758,398410,19212
1040.49,1.309781,396204,19415
1044.2,1.300409,394236,19740
1047.91,1.311164,392042,19150
1051.61,1.316363,389823,18815
1055.31,1.308629,388234,19075
1059,1.312703,387599,18866
1063.92,1.307124,386688,19065
1067.61,1.312548,386598,18824
1071.29,1.315225,387377,18746
1074.96,1.319288,388536,18627
1078.63,1.322068,389855,18571
1082.3,1.310723,391215,19129
1085.96,1.320934,393215,18780
1090.84,1.320153,396270,18960
1094.49,1.317750,398760,19185
1098.14,1.319219,400987,19227
1101.79,1.322925,403477,19182
1105.43,1.312029,406116,19798
1109.06,1.311074,407701,19919
1112.7,1.317728,409859,19720
1117.53,1.318687,412494,19803
1121.15,1.316142,414909,20036
1124.77,1.324021,416559,19754
1128.38,1.321481,418532,19964
1131.99,1.312128,419956,20468
1135.6,1.321543,421946,20124
1139.2,1.318338,423881,20366
1143.99,1.321688,426786,20348
1147.58,1.319934,428617,20518
1151.17,1.320928,431169,20593
1154.75,1.315387,433579,20974
1158.33,1.315693,436264,21089
1161.91,1.317778,439132,21126
1165.48,1.324123,442389,20974
1169.04,1.314236,446101,21637
1173.79,1.308541,451929,22209
1177.34,1.318407,456026,21907
1180.9,1.325075,461306,21823
1184.44,1.316338,467657,22573
1187.99,1.322122,473969,22575
1191.52,1.318365,479856,23054
1195.06,1.318886,487372,23387
1199.76,1.324908,497347,23537
1203.29,1.321565,504311,24051
1206.81,1.326348,511507,24127
1210.33,1.318058,519078,24956
1213.84,1.323259,527163,25043
1217.35,1.320336,534208,25549
1220.85,1.322047,540472,25747
1225.51,1.316684,549929,26523
1229.01,1.324773,556888,26363
1232.5,1.323250,562180,26707
1235.98,1.326697,567975,26769
1239.46,1.326238,574815,27120
1242.94,1.330347,582782,27237
1246.41,1.321811,591476,28192
1251.03,1.323394,604016,28685
1254.5,1.330970,612289,28575
1257.96,1.326113,619125,29219
1261.41,1.325775,624551,29498
1264.86,1.325289,629900,29784
1268.31,1.325219,634345,29999
1271.75,1.331651,638574,29755
1276.33,1.325185,642499,30387
1279.76,1.324902,645905,30568
1283.19,1.328422,648307,30434
1286.61,1.327334,650446,30611
1290.03,1.334458,652132,30191
1293.44,1.331644,653907,30470
1296.85,1.326022,655963,30964
1301.39,1.330262,657349,30728
1304.8,1.331603,657558,30643
1308.19,1.329282,658515,30852
1311.58,1.332198,658804,30659
1314.97,1.332136,659011,30673
1318.36,1.336075,658272,30362
1321.73,1.330862,658022,30717
1326.23,1.332362,657870,30604
1329.6,1.330056,656482,30702
1332.97,1.332348,654926,30468
1336.33,1.335389,653727,30200
1339.69,1.331148,652497,30439
1343.04,1.338304,649913,29823
1346.39,1.332154,647671,30144
1349.73,1.329234,645338,30238
1354.18,1.330652,641175,29945
1357.52,1.328941,638376,29932
1360.85,1.330758,635805,29687
1364.17,1.324305,633413,30018
1367.49,1.328433,631026,29622
1370.81,1.332909,628050,29180
1374.12,1.336813,625034,28780
1378.54,1.330319,620272,28991
1381.84,1.329101,616892,28914
1385.14,1.327673,613613,28855
1388.43,1.327611,611526,28761
1391.72,1.331018,610663,28496
1395.01,1.329476,610634,28596
1398.29,1.327402,611700,28783
1402.66,1.333878,614051,28466
1405.93,1.330860,616268,28768
1409.2,1.334782,617795,28580
1412.46,1.332359,618872,28790
1415.72,1.330045,619795,28987
1418.98,1.329801,620495,29036
1422.23,1.333489,621087,28818
1426.56,1.331210,621375,28983
1429.8,1.331229,621616,28993
1433.04,1.330764,622129,29048
1436.27,1.334535,621526,28769
1439.5,1.328443,621113,29156
1442.72,1.334958,620921,28713
1445.94,1.336427,620270,28586
1450.23,1.333892,618860,28688
1453.44,1.337289,617697,28411
1456.64,1.338364,616264,28275
1459.85,1.338242,614413,28198
1463.04,1.338433,612307,28089
1466.24,1.337002,610032,28077
1469.43,1.337131,607345,27945
1473.67,1.336919,603789,27795
1476.85,1.338501,601175,27574
1480.02,1.333748,597737,27718
1483.19,1.333432,594479,27587
1486.36,1.336694,591232,27231
1489.52,1.340438,587853,26843
1492.68,1.338931,583875,26754
1496.89,1.331512,578062,26944
1500.03,1.335655,574159,26508
1503.18,1.335691,570285,26327
1506.32,1.333244,565444,26251
1509.45,1.337280,560571,25784
1512.58,1.333113,555821,25812
1515.71,1.337582,550344,25296
1519.87,1.331882,543983,25334
1522.99,1.340870,538764,24577
1526.1,1.339919,533692,24399
1529.21,1.340825,527902,24084
1532.32,1.332685,521886,24260
1535.42,1.334648,515888,23873
1538.51,1.335089,509987,23576
1541.6,1.332733,503936,23423
1545.72,1.334198,494694,22916
1548.8,1.338450,488378,22403
1551.88,1.335292,481832,22264
1554.95,1.335031,474989,21961
1558.02,1.333417,467818,21710
1561.08,1.336435,460730,21233
1564.15,1.342509,454170,20640
1568.22,1.345272,444181,20058
1571.27,1.328251,436947,20520
1574.32,1.338993,429598,19682
1577.36,1.331173,422039,19687
1580.4,1.335225,414375,19150
1583.43,1.329055,406354,19048
1586.46,1.334334,398475,18453
1590.49,1.331340,388982,18138
1593.51,1.326866,380708,17936
1596.53,1.332141,372727,17348
1599.54,1.330487,365060,17056
1602.55,1.330664,357543,16698
1605.55,1.329101,349495,16381
1608.55,1.330271,341154,15947
1612.54,1.328132,330877,15543
1615.53,1.318098,322904,15523
1618.51,1.331804,315116,14678
1621.49,1.320305,307217,14694
1624.47,1.316141,299481,14462
1627.44,1.335183,292112,13501
1630.41,1.310616,284245,13902
1634.36,1.325371,274079,12957
1637.32,1.315920,266916,12896
1640.27,1.308134,259612,12770
1643.22,1.311440,251804,12292
1646.16,1.325464,244348,11549
1649.1,1.305647,236703,11710
1652.04,1.336451,228171,10515
1655.95,1.305790,215408,10653
1658.88,1.300050,204937,10270
1661.8,1.294511,193395,9816
1664.72,1.286039,179728,9302
1667.63,1.271738,163642,8753
1670.54,1.240381,146312,8412
1673.44,1.236057,128451,7459
1677.31,1.219225,105080,6343
1680.21,1.225229,88906,5293
1683.1,1.235268,75033,4365
1685.99,1.208076,63520,3934
1688.87,1.222232,53714,3220
1691.75,1.226340,45653,2711
1694.62,1.212195,39137,2401
1697.49,1.328853,33776,1584
1701.31,1.266594,28175,1525