File: ML/samples/unknown/Column 1_078800_20241121_172247.csv
Method:,Column 1,,
Host Date-Time:,21/11/24 @ 17:22:47,,
Header Version:,1,,
System Temp (C):,36.56,,
Detector Temp (C):,35.29,,
Humidity (%):,0.63,,
Lamp PD:,3797,,
Shift Vector Coefficients:,-10.5391,0.0761263,-0.000134223,,
Pixel to Wavelength Coefficients:,1775.68,-0.916766,-0.000235065,,
Serial Number:,5510004,,
Scan Config Name:,Column 1,,
Scan Config Type:,Slew,,
Section 1,,
Start wavelength (nm):,900,,
End wavelength (nm):,1700,,
Pattern Pixel Width (nm):,   7.03,,,,
Exposure (ms):,  0.635,,,,
Digital Resolution:,228,,
Num Repeats:,6,,
PGA Gain:,64,,
Total Measurement Time in sec:,  2.723,,
Wavelength (nm),Absorbance (AU),Reference Signal (unitless),Sample Signal (unitless)
901.51,1.315376,108485,5248
905.376,1.336005,121306,5596
909.237,1.322107,131909,6283
913.095,1.320870,143299,6845
916.948,1.325387,156982,7421
922.079,1.354098,179937,7962
925.923,1.336075,200504,9248
929.762,1.327322,222660,10479
933.597,1.330900,244426,11409
937.427,1.330032,263972,12346
941.254,1.319226,281845,13514
945.076,1.313646,297271,14438
950.165,1.314793,315605,15288
953.978,1.310059,328029,16064
957.786,1.329182,340470,15955
961.59,1.323516,352317,16727
965.389,1.322430,363056,17280
969.185,1.316528,373162,18004
972.976,1.313689,382632,18582
976.763,1.315755,391202,18908
981.806,1.306150,400190,19775
985.583,1.306462,406088,20052
989.355,1.305096,410162,20317
993.124,1.305033,412868,20454
996.888,1.308797,414263,20346
1000.65,1.304531,415476,20607
1004.4,1.302852,415479,20687
1009.41,1.298270,414358,20850
1013.15,1.311788,412923,20141
1016.89,1.313194,411526,20008
1020.63,1.299828,409066,20510
1024.36,1.300110,406777,20382
1028.09,1.309693,404427,19822
1031.82,1.308365,401911,19759
1036.78,1.301085,398410,19918
1040.49,1.309290,396204,19437
1044.2,1.311461,394236,19244
1047.91,1.309489,392042,19224
1051.61,1.309016,389823,19136
1055.31,1.302413,388234,19350
1059,1.307122,387599,19110
1063.92,1.308539,386688,19003
1067.61,1.304185,386598,19190
1071.29,1.303771,387377,19247
1074.96,1.312143,388536,18936
1078.63,1.310575,389855,19069
1082.3,1.307624,391215,19266
1085.96,1.318789,393215,18873
1090.84,1.314102,396270,19226
1094.49,1.312798,398760,19405
1098.14,1.314278,400987,19447
1101.79,1.311176,403477,19708
1105.43,1.324332,406116,19245
1109.06,1.315765,407701,19705
1112.7,1.316189,409859,19790
1117.53,1.312632,412494,20081
1121.15,1.322540,414909,19743
1124.77,1.325321,416559,19695
1128.38,1.323596,418532,19867
1131.99,1.313765,419956,20391
1135.6,1.320121,421946,20190
1139.2,1.320326,423881,20273
1143.99,1.324687,426786,20208
1147.58,1.321844,428617,20428
1151.17,1.323169,431169,20487
1154.75,1.324510,433579,20538
1158.33,1.316456,436264,21052
1161.91,1.310803,439132,21468
1165.48,1.319653,442389,21191
1169.04,1.315865,446101,21556
1173.79,1.316594,451929,21801
1177.34,1.316606,456026,21998
1180.9,1.315451,461306,22312
1184.44,1.315051,467657,22640
1187.99,1.318864,473969,22745
1191.52,1.315473,479856,23208
1195.06,1.309699,487372,23887
1199.76,1.318789,497347,23871
1203.29,1.314260,504311,24459
1206.81,1.321729,511507,24385
1210.33,1.322624,519078,24695
1213.84,1.317094,527163,25401
1217.35,1.318268,534208,25671
1220.85,1.318720,540472,25945
1225.51,1.323783,549929,26093
1229.01,1.321801,556888,26544
1232.5,1.317339,562180,27073
1235.98,1.318803,567975,27260
1239.46,1.320527,574815,27479
1242.94,1.320494,582782,27862
1246.41,1.316772,591476,28521
1251.03,1.315056,604016,29241
1254.5,1.320593,612289,29266
1257.96,1.324259,619125,29344
1261.41,1.320740,624551,29842
1264.86,1.325041,629900,29801
1268.31,1.319066,634345,30427
1271.75,1.328119,638574,29998
1276.33,1.326115,642499,30322
1279.76,1.326125,645905,30482
1283.19,1.323089,648307,30810
1286.61,1.335873,650446,30015
1290.03,1.329324,652132,30550
1293.44,1.325825,653907,30881
1296.85,1.327779,655963,30839
1301.39,1.325161,657349,31091
1304.8,1.323668,657558,31208
1308.19,1.324815,658515,31171
1311.58,1.328082,658804,30951
1314.97,1.322891,659011,31333
1318.36,1.323875,658272,31227
1321.73,1.327397,658022,30963
1326.23,1.333769,657870,30505
1329.6,1.329618,656482,30733
1332.97,1.327952,654926,30778
1336.33,1.330144,653727,30567
1339.69,1.329098,652497,30583
1343.04,1.330553,649913,30360
1346.39,1.327639,647671,30459
1349.73,1.333666,645338,29931
1354.18,1.327646,641175,30153
1357.52,1.328839,638376,29939
1360.85,1.322871,635805,30231
1364.17,1.327252,633413,29815
1367.49,1.324710,631026,29877
1370.81,1.325940,628050,29652
1374.12,1.329926,625034,29240
1378.54,1.327973,620272,29148
1381.84,1.325779,616892,29136
1385.14,1.323912,613613,29106
1388.43,1.325998,611526,28868
1391.72,1.324258,610663,28943
1395.01,1.317301,610634,29409
1398.29,1.327206,611700,28796
1402.66,1.324461,614051,29090
1405.93,1.325608,616268,29118
1409.2,1.335695,617795,28520
1412.46,1.325609,618872,29241
1415.72,1.331005,619795,28923
1418.98,1.321461,620495,29599
1422.23,1.328812,621087,29130
1426.56,1.325982,621375,29334
1429.8,1.328735,621616,29160
1433.04,1.322530,622129,29604
1436.27,1.327913,621526,29211
1439.5,1.336228,621113,28638
1442.72,1.331493,620921,28943
1445.94,1.335047,620270,28677
1450.23,1.330980,618860,28881
1453.44,1.334880,617697,28569
1456.64,1.330088,616264,28819
1459.85,1.328993,614413,28805
1463.04,1.331454,612307,28544
1466.24,1.333689,610032,28292
1469.43,1.332909,607345,28218
1473.67,1.329175,603789,28295
1476.85,1.333973,601175,27863
1480.02,1.332200,597737,27817
1483.19,1.332206,594479,27665
1486.36,1.336360,591232,27252
1489.52,1.338259,587853,26978
1492.68,1.335600,583875,26960
1496.89,1.326289,578062,27270
1500.03,1.338911,574159,26310
1503.18,1.327811,570285,26809
1506.32,1.334652,565444,26166
1509.45,1.330827,560571,26170
1512.58,1.336390,555821,25618
1515.71,1.331445,550344,25656
1519.87,1.333496,543983,25240
1522.99,1.338262,538764,24725
1526.1,1.333733,533692,24749
1529.21,1.332590,527902,24545
1532.32,1.334964,521886,24133
1535.42,1.330574,515888,24098
1538.51,1.330672,509987,23817
1541.6,1.333382,503936,23388
1545.72,1.333138,494694,22972
1548.8,1.334763,488378,22594
1551.88,1.341679,481832,21939
1554.95,1.332980,474989,22065
1558.02,1.339075,467818,21429
1561.08,1.324990,460730,21800
1564.15,1.333657,454170,21065
1568.22,1.337419,444181,20424
1571.27,1.330650,436947,20407
1574.32,1.336660,429598,19788
1577.36,1.332565,422039,19624
1580.4,1.334228,414375,19194
1583.43,1.336019,406354,18745
1586.46,1.327122,398475,18762
1590.49,1.324451,388982,18428
1593.51,1.324524,380708,18033
1596.53,1.328427,372727,17497
1599.54,1.334298,365060,16907
1602.55,1.325236,357543,16908
1605.55,1.323150,349495,16607
1608.55,1.320683,341154,16303
1612.54,1.314679,330877,16032
1615.53,1.322371,322904,15371
1618.51,1.315685,315116,15233
1621.49,1.317653,307217,14784
1624.47,1.318550,299481,14382
1627.44,1.329368,292112,13683
1630.41,1.317861,284245,13672
1634.36,1.305008,274079,13579
1637.32,1.314776,266916,12930
1640.27,1.317206,259612,12506
1643.22,1.317632,251804,12118
1646.16,1.313704,244348,11866
1649.1,1.302101,236703,11806
1652.04,1.312742,228171,11105
1655.95,1.292343,215408,10988
1658.88,1.276631,204937,10839
1661.8,1.292700,193395,9857
1664.72,1.260519,179728,9865
1667.63,1.240813,163642,9399
1670.54,1.241414,146312,8392
1673.44,1.220446,128451,7732
1677.31,1.187227,105080,6828
1680.21,1.174341,88906,5951
1683.1,1.129475,75033,5569
1685.99,1.176776,63520,4228
1688.87,1.177419,53714,3570
1691.75,1.114905,45653,3504
1694.62,1.204486,39137,2444
1697.49,1.170673,33776,2280
1701.31,1.191706,28175,1812