File: ML/samples/unknown/Column 1_078517_20241121_170633.csv
Method:,Column 1,,
Host Date-Time:,21/11/24 @ 17:6:33,,
Header Version:,1,,
System Temp (C):,34.86,,
Detector Temp (C):,33.87,,
Humidity (%):,1.96,,
Lamp PD:,3800,,
Shift Vector Coefficients:,-10.5391,0.0761263,-0.000134223,,
Pixel to Wavelength Coefficients:,1775.68,-0.916766,-0.000235065,,
Serial Number:,5510004,,
Scan Config Name:,Column 1,,
Scan Config Type:,Slew,,
Section 1,,
Start wavelength (nm):,900,,
End wavelength (nm):,1700,,
Pattern Pixel Width (nm):,   7.03,,,,
Exposure (ms):,  0.635,,,,
Digital Resolution:,228,,
Num Repeats:,6,,
PGA Gain:,64,,
Total Measurement Time in sec:,  2.728,,
Wavelength (nm),Absorbance (AU),Reference Signal (unitless),Sample Signal (unitless)
901.51,1.293982,108485,5513
905.376,1.319557,121306,5812
909.237,1.313620,131909,6407
913.095,1.299635,143299,7188
916.948,1.316697,156982,7571
922.079,1.318707,179937,8638
925.923,1.321983,200504,9553
929.762,1.316072,222660,10754
933.597,1.314209,244426,11856
937.427,1.302500,263972,13154
941.254,1.310667,281845,13783
945.076,1.327863,297271,13973
950.165,1.317700,315605,15186
953.978,1.312716,328029,15966
957.786,1.300202,340470,17056
961.59,1.302261,352317,17566
965.389,1.303593,363056,18046
969.185,1.308688,373162,18332
972.976,1.297337,382632,19295
976.763,1.302834,391202,19479
981.806,1.307954,400190,19693
985.583,1.303893,406088,20171
989.355,1.309457,410162,20114
993.124,1.311407,412868,20156
996.888,1.310873,414263,20249
1000.65,1.295645,415476,21033
1004.4,1.305420,415479,20565
1009.41,1.298374,414358,20845
1013.15,1.305367,412923,20441
1016.89,1.301924,411526,20534
1020.63,1.307260,409066,20162
1024.36,1.310242,406777,19912
1028.09,1.309452,404427,19833
1031.82,1.312761,401911,19560
1036.78,1.303095,398410,19826
1040.49,1.302330,396204,19751
1044.2,1.306814,394236,19451
1047.91,1.312345,392042,19098
1051.61,1.298390,389823,19610
1055.31,1.313897,388234,18845
1059,1.299195,387599,19462
1063.92,1.303449,386688,19227
1067.61,1.300691,386598,19345
1071.29,1.305217,387377,19183
1074.96,1.302683,388536,19353
1078.63,1.310074,389855,19091
1082.3,1.304233,391215,19417
1085.96,1.310944,393215,19217
1090.84,1.306933,396270,19546
1094.49,1.305607,398760,19729
1098.14,1.319445,400987,19217
1101.79,1.304572,403477,20010
1105.43,1.321296,406116,19380
1109.06,1.317731,407701,19616
1112.7,1.313258,409859,19924
1117.53,1.317001,412494,19880
1121.15,1.314800,414909,20098
1124.77,1.314304,416559,20201
1128.38,1.314425,418532,20291
1131.99,1.306898,419956,20716
1135.6,1.317654,421946,20305
1139.2,1.314305,423881,20556
1143.99,1.312857,426786,20766
1147.58,1.314884,428617,20758
1151.17,1.315979,431169,20829
1154.75,1.308424,433579,21313
1158.33,1.310168,436264,21359
1161.91,1.315461,439132,21239
1165.48,1.316793,442389,21331
1169.04,1.306991,446101,22001
1173.79,1.321381,451929,21562
1177.34,1.307464,456026,22466
1180.9,1.307887,461306,22704
1184.44,1.316646,467657,22557
1187.99,1.310449,473969,23190
1191.52,1.313047,479856,23338
1195.06,1.306114,487372,24085
1199.76,1.320594,497347,23772
1203.29,1.314260,504311,24459
1206.81,1.317846,511507,24604
1210.33,1.324015,519078,24616
1213.84,1.316718,527163,25423
1217.35,1.312938,534208,25988
1220.85,1.315833,540472,26118
1225.51,1.315017,549929,26625
1229.01,1.322325,556888,26512
1232.5,1.315690,562180,27176
1235.98,1.319760,567975,27200
1239.46,1.322126,574815,27378
1242.94,1.315704,582782,28171
1246.41,1.320043,591476,28307
1251.03,1.323121,604016,28703
1254.5,1.316767,612289,29525
1257.96,1.317314,619125,29817
1261.41,1.321979,624551,29757
1264.86,1.326018,629900,29734
1268.31,1.326901,634345,29883
1271.75,1.328235,638574,29990
1276.33,1.327952,642499,30194
1279.76,1.323214,645905,30687
1283.19,1.322399,648307,30859
1286.61,1.325465,650446,30743
1290.03,1.326745,652132,30732
1293.44,1.323860,653907,31021
1296.85,1.327526,655963,30857
1301.39,1.320521,657349,31425
1304.8,1.322112,657558,31320
1308.19,1.326994,658515,31015
1311.58,1.324824,658804,31184
1314.97,1.324947,659011,31185
1318.36,1.326582,658272,31033
1321.73,1.322585,658022,31308
1326.23,1.327873,657870,30922
1329.6,1.322234,656482,31260
1332.97,1.325265,654926,30969
1336.33,1.327382,653727,30762
1339.69,1.326592,652497,30760
1343.04,1.329982,649913,30400
1346.39,1.329912,647671,30300
1349.73,1.330010,645338,30184
1354.18,1.327588,641175,30157
1357.52,1.325343,638376,30181
1360.85,1.320951,635805,30365
1364.17,1.326466,633413,29869
1367.49,1.322651,631026,30019
1370.81,1.324113,628050,29777
1374.12,1.320872,625034,29856
1378.54,1.322157,620272,29541
1381.84,1.318653,616892,29618
1385.14,1.326801,613613,28913
1388.43,1.325142,611526,28925
1391.72,1.316775,610663,29446
1395.01,1.317168,610634,29418
1398.29,1.321245,611700,29194
1402.66,1.319267,614051,29440
1405.93,1.318874,616268,29573
1409.2,1.330262,617795,28879
1412.46,1.324600,618872,29309
1415.72,1.330539,619795,28954
1418.98,1.324834,620495,29370
1422.23,1.325145,621087,29377
1426.56,1.333645,621375,28821
1429.8,1.324806,621616,29425
1433.04,1.330092,622129,29093
1436.27,1.329566,621526,29100
1439.5,1.326570,621113,29282
1442.72,1.326006,620921,29311
1445.94,1.332074,620270,28874
1450.23,1.325838,618860,29225
1453.44,1.326674,617697,29114
1456.64,1.334069,616264,28556
1459.85,1.335739,614413,28361
1463.04,1.330391,612307,28614
1466.24,1.330355,610032,28510
1469.43,1.328560,607345,28502
1473.67,1.330559,603789,28205
1476.85,1.334800,601175,27810
1480.02,1.330144,597737,27949
1483.19,1.332159,594479,27668
1486.36,1.333453,591232,27435
1489.52,1.330205,587853,27483
1492.68,1.321292,583875,27863
1496.89,1.336668,578062,26626
1500.03,1.328167,574159,26969
1503.18,1.329613,570285,26698
1506.32,1.330260,565444,26432
1509.45,1.330943,560571,26163
1512.58,1.334124,555821,25752
1515.71,1.332462,550344,25596
1519.87,1.333169,543983,25259
1522.99,1.333476,538764,24999
1526.1,1.332786,533692,24803
1529.21,1.334701,527902,24426
1532.32,1.332399,521886,24276
1535.42,1.335614,515888,23820
1538.51,1.334169,509987,23626
1541.6,1.322273,503936,23994
1545.72,1.327298,494694,23283
1548.8,1.334609,488378,22602
1551.88,1.329768,481832,22549
1554.95,1.333728,474989,22027
1558.02,1.328207,467818,21972
1561.08,1.333378,460730,21383
1564.15,1.330944,454170,21197
1568.22,1.327580,444181,20892
1571.27,1.330820,436947,20399
1574.32,1.324135,429598,20367
1577.36,1.324866,422039,19975
1580.4,1.320378,414375,19816
1583.43,1.326282,406354,19170
1586.46,1.319459,398475,19096
1590.49,1.334922,388982,17989
1593.51,1.314855,380708,18439
1596.53,1.321215,372727,17790
1599.54,1.329190,365060,17107
1602.55,1.337559,357543,16435
1605.55,1.312941,349495,17002
1608.55,1.319885,341154,16333
1612.54,1.325874,330877,15624
1615.53,1.314393,322904,15656
1618.51,1.319637,315116,15095
1621.49,1.333874,307217,14242
1624.47,1.307518,299481,14752
1627.44,1.332682,292112,13579
1630.41,1.316877,284245,13703
1634.36,1.326849,274079,12913
1637.32,1.311430,266916,13030
1640.27,1.311206,259612,12680
1643.22,1.307851,251804,12394
1646.16,1.319007,244348,11722
1649.1,1.302027,236703,11808
1652.04,1.310285,228171,11168
1655.95,1.292264,215408,10990
1658.88,1.297436,204937,10332
1661.8,1.281265,193395,10120
1664.72,1.257448,179728,9935
1667.63,1.240121,163642,9414
1670.54,1.245365,146312,8316
1673.44,1.231943,128451,7530
1677.31,1.177416,105080,6984
1680.21,1.169046,88906,6024
1683.1,1.145683,75033,5365
1685.99,1.174624,63520,4249
1688.87,1.180226,53714,3547
1691.75,1.158958,45653,3166
1694.62,1.119247,39137,2974
1697.49,1.163682,33776,2317
1701.31,1.171110,28175,1900