File: ML/samples/unknown/Column 1_078788_20241121_172212.csv
Method:,Column 1,,
Host Date-Time:,21/11/24 @ 17:22:12,,
Header Version:,1,,
System Temp (C):,36.34,,
Detector Temp (C):,35.21,,
Humidity (%):,0.73,,
Lamp PD:,3797,,
Shift Vector Coefficients:,-10.5391,0.0761263,-0.000134223,,
Pixel to Wavelength Coefficients:,1775.68,-0.916766,-0.000235065,,
Serial Number:,5510004,,
Scan Config Name:,Column 1,,
Scan Config Type:,Slew,,
Section 1,,
Start wavelength (nm):,900,,
End wavelength (nm):,1700,,
Pattern Pixel Width (nm):,   7.03,,,,
Exposure (ms):,  0.635,,,,
Digital Resolution:,228,,
Num Repeats:,6,,
PGA Gain:,64,,
Total Measurement Time in sec:,  2.726,,
Wavelength (nm),Absorbance (AU),Reference Signal (unitless),Sample Signal (unitless)
901.51,1.308235,108485,5335
905.376,1.334842,121306,5611
909.237,1.335087,131909,6098
913.095,1.341663,143299,6525
916.948,1.316066,156982,7582
922.079,1.332706,179937,8364
925.923,1.339943,200504,9166
929.762,1.315064,222660,10779
933.597,1.319739,244426,11706
937.427,1.310598,263972,12911
941.254,1.321870,281845,13432
945.076,1.320742,297271,14204
950.165,1.306688,315605,15576
953.978,1.307525,328029,16158
957.786,1.314806,340470,16492
961.59,1.301618,352317,17592
965.389,1.309651,363056,17796
969.185,1.310397,373162,18260
972.976,1.300001,382632,19177
976.763,1.305182,391202,19374
981.806,1.306545,400190,19757
985.583,1.319165,406088,19474
989.355,1.313731,410162,19917
993.124,1.310610,412868,20193
996.888,1.308968,414263,20338
1000.65,1.306834,415476,20498
1004.4,1.305019,415479,20584
1009.41,1.308491,414358,20365
1013.15,1.312306,412923,20117
1016.89,1.307629,411526,20266
1020.63,1.310981,409066,19990
1024.36,1.310656,406777,19893
1028.09,1.306462,404427,19970
1031.82,1.304579,401911,19932
1036.78,1.306327,398410,19679
1040.49,1.305995,396204,19585
1044.2,1.302526,394236,19644
1047.91,1.312549,392042,19089
1051.61,1.305941,389823,19272
1055.31,1.314751,388234,18808
1059,1.315474,387599,18746
1063.92,1.311796,386688,18861
1067.61,1.313102,386598,18800
1071.29,1.305557,387377,19168
1074.96,1.303289,388536,19326
1078.63,1.320923,389855,18620
1082.3,1.311382,391215,19100
1085.96,1.318329,393215,18893
1090.84,1.316503,396270,19120
1094.49,1.311011,398760,19485
1098.14,1.305632,400987,19838
1101.79,1.314650,403477,19551
1105.43,1.320938,406116,19396
1109.06,1.319128,407701,19553
1112.7,1.318654,409859,19678
1117.53,1.318687,412494,19803
1121.15,1.316012,414909,20042
1124.77,1.314626,416559,20186
1128.38,1.317324,418532,20156
1131.99,1.308368,419956,20646
1135.6,1.312234,421946,20560
1139.2,1.317763,423881,20393
1143.99,1.309981,426786,20904
1147.58,1.317549,428617,20631
1151.17,1.310447,431169,21096
1154.75,1.321896,433579,20662
1158.33,1.314973,436264,21124
1161.91,1.313869,439132,21317
1165.48,1.317914,442389,21276
1169.04,1.313775,446101,21660
1173.79,1.319512,451929,21655
1177.34,1.313204,456026,22171
1180.9,1.312618,461306,22458
1184.44,1.318905,467657,22440
1187.99,1.316807,473969,22853
1191.52,1.321105,479856,22909
1195.06,1.311302,487372,23799
1199.76,1.318171,497347,23905
1203.29,1.321042,504311,24080
1206.81,1.320164,511507,24473
1210.33,1.312713,519078,25265
1213.84,1.322444,527163,25090
1217.35,1.318606,534208,25651
1220.85,1.326881,540472,25462
1225.51,1.327510,549929,25870
1229.01,1.326903,556888,26234
1232.5,1.321449,562180,26818
1235.98,1.317849,567975,27320
1239.46,1.321445,574815,27421
1242.94,1.315827,582782,28163
1246.41,1.320488,591476,28278
1251.03,1.325990,604016,28514
1254.5,1.319911,612289,29312
1257.96,1.324555,619125,29324
1261.41,1.323763,624551,29635
1264.86,1.325858,629900,29745
1268.31,1.322175,634345,30210
1271.75,1.325017,638574,30213
1276.33,1.325928,642499,30335
1279.76,1.328826,645905,30293
1283.19,1.329379,648307,30367
1286.61,1.327093,650446,30628
1290.03,1.329154,652132,30562
1293.44,1.323664,653907,31035
1296.85,1.321960,655963,31255
1301.39,1.324882,657349,31111
1304.8,1.328172,657558,30886
1308.19,1.329339,658515,30848
1311.58,1.323962,658804,31246
1314.97,1.327293,659011,31017
1318.36,1.327843,658272,30943
1321.73,1.331697,658022,30658
1326.23,1.330013,657870,30770
1329.6,1.329477,656482,30743
1332.97,1.327726,654926,30794
1336.33,1.328428,653727,30688
1339.69,1.330136,652497,30510
1343.04,1.325052,649913,30747
1346.39,1.326002,647671,30574
1349.73,1.327171,645338,30382
1354.18,1.326567,641175,30228
1357.52,1.321989,638376,30415
1360.85,1.328700,635805,29828
1364.17,1.325885,633413,29909
1367.49,1.324536,631026,29889
1370.81,1.325018,628050,29715
1374.12,1.322694,625034,29731
1378.54,1.325640,620272,29305
1381.84,1.326973,616892,29056
1385.14,1.328653,613613,28790
1388.43,1.323045,611526,29065
1391.72,1.329831,610663,28574
1395.01,1.327944,610634,28697
1398.29,1.326814,611700,28822
1402.66,1.326166,614051,28976
1405.93,1.332569,616268,28655
1409.2,1.326802,617795,29110
1412.46,1.328470,618872,29049
1415.72,1.329850,619795,29000
1418.98,1.329517,620495,29055
1422.23,1.326967,621087,29254
1426.56,1.331046,621375,28994
1429.8,1.334613,621616,28768
1433.04,1.329749,622129,29116
1436.27,1.331376,621526,28979
1439.5,1.326525,621113,29285
1442.72,1.326495,620921,29278
1445.94,1.331473,620270,28914
1450.23,1.336458,618860,28519
1453.44,1.329427,617697,28930
1456.64,1.333568,616264,28589
1459.85,1.331275,614413,28654
1463.04,1.327939,612307,28776
1466.24,1.331560,610032,28431
1469.43,1.336588,607345,27980
1473.67,1.335063,603789,27914
1476.85,1.331579,601175,28017
1480.02,1.332528,597737,27796
1483.19,1.338244,594479,27283
1486.36,1.338789,591232,27100
1489.52,1.329778,587853,27510
1492.68,1.331097,583875,27241
1496.89,1.336065,578062,26663
1500.03,1.336771,574159,26440
1503.18,1.330965,570285,26615
1506.32,1.332252,565444,26311
1509.45,1.337887,560571,25748
1512.58,1.334647,555821,25721
1515.71,1.332140,550344,25615
1519.87,1.331522,543983,25355
1522.99,1.332331,538764,25065
1526.1,1.325942,533692,25197
1529.21,1.333245,527902,24508
1532.32,1.329937,521886,24414
1535.42,1.337569,515888,23713
1538.51,1.328998,509987,23909
1541.6,1.331992,503936,23463
1545.72,1.333819,494694,22936
1548.8,1.331603,488378,22759
1551.88,1.333812,481832,22340
1554.95,1.328749,474989,22281
1558.02,1.330725,467818,21845
1561.08,1.329798,460730,21560
1564.15,1.338092,454170,20851
1568.22,1.332934,444181,20636
1571.27,1.319950,436947,20916
1574.32,1.324797,429598,20336
1577.36,1.335875,422039,19475
1580.4,1.323965,414375,19653
1583.43,1.333593,406354,18850
1586.46,1.332666,398475,18524
1590.49,1.323087,388982,18486
1593.51,1.323682,380708,18068
1596.53,1.332091,372727,17350
1599.54,1.335713,365060,16852
1602.55,1.322675,357543,17008
1605.55,1.315914,349495,16886
1608.55,1.315624,341154,16494
1612.54,1.325458,330877,15639
1615.53,1.330989,322904,15069
1618.51,1.322582,315116,14993
1621.49,1.328209,307217,14429
1624.47,1.319336,299481,14356
1627.44,1.319576,292112,13995
1630.41,1.312902,284245,13829
1634.36,1.323999,274079,12998
1637.32,1.319131,266916,12801
1640.27,1.306437,259612,12820
1643.22,1.325625,251804,11897
1646.16,1.305116,244348,12103
1649.1,1.313166,236703,11509
1652.04,1.301851,228171,11387
1655.95,1.298032,215408,10845
1658.88,1.290266,204937,10504
1661.8,1.291381,193395,9887
1664.72,1.285340,179728,9317
1667.63,1.257822,163642,9038
1670.54,1.243802,146312,8346
1673.44,1.216142,128451,7809
1677.31,1.155765,105080,7341
1680.21,1.154582,88906,6228
1683.1,1.177587,75033,4985
1685.99,1.152506,63520,4471
1688.87,1.195807,53714,3422
1691.75,1.162401,45653,3141
1694.62,1.125275,39137,2933
1697.49,1.187966,33776,2191
1701.31,1.172026,28175,1896