File: ML/samples/unknown/Column 1_078892_20241121_172713.csv
Method:,Column 1,,
Host Date-Time:,21/11/24 @ 17:27:13,,
Header Version:,1,,
System Temp (C):,37.12,,
Detector Temp (C):,36.28,,
Humidity (%):,0.39,,
Lamp PD:,3796,,
Shift Vector Coefficients:,-10.5391,0.0761263,-0.000134223,,
Pixel to Wavelength Coefficients:,1775.68,-0.916766,-0.000235065,,
Serial Number:,5510004,,
Scan Config Name:,Column 1,,
Scan Config Type:,Slew,,
Section 1,,
Start wavelength (nm):,900,,
End wavelength (nm):,1700,,
Pattern Pixel Width (nm):,   7.03,,,,
Exposure (ms):,  0.635,,,,
Digital Resolution:,228,,
Num Repeats:,6,,
PGA Gain:,64,,
Total Measurement Time in sec:,  2.724,,
Wavelength (nm),Absorbance (AU),Reference Signal (unitless),Sample Signal (unitless)
901.51,1.303700,108485,5391
905.376,1.361660,121306,5275
909.237,1.342630,131909,5993
913.095,1.328939,143299,6719
916.948,1.335153,156982,7256
922.079,1.333278,179937,8353
925.923,1.317956,200504,9642
929.762,1.320537,222660,10644
933.597,1.327110,244426,11509
937.427,1.315367,263972,12770
941.254,1.308278,281845,13859
945.076,1.320895,297271,14199
950.165,1.322474,315605,15020
953.978,1.309950,328029,16068
957.786,1.314621,340470,16499
961.59,1.312239,352317,17167
965.389,1.314140,363056,17613
969.185,1.305501,373162,18467
972.976,1.308046,382632,18825
976.763,1.298795,391202,19661
981.806,1.313347,400190,19450
985.583,1.309462,406088,19914
989.355,1.303943,410162,20371
993.124,1.311881,412868,20134
996.888,1.311388,414263,20225
1000.65,1.303226,415476,20669
1004.4,1.303503,415479,20656
1009.41,1.309922,414358,20298
1013.15,1.311831,412923,20139
1016.89,1.312933,411526,20020
1020.63,1.302248,409066,20396
1024.36,1.310940,406777,19880
1028.09,1.315094,404427,19577
1031.82,1.318280,401911,19313
1036.78,1.305555,398410,19714
1040.49,1.315523,396204,19160
1044.2,1.309345,394236,19338
1047.91,1.305285,392042,19411
1051.61,1.311315,389823,19035
1055.31,1.308310,388234,19089
1059,1.306350,387599,19144
1063.92,1.312049,386688,18850
1067.61,1.315674,386598,18689
1071.29,1.323292,387377,18401
1074.96,1.300333,388536,19458
1078.63,1.308100,389855,19178
1082.3,1.309567,391215,19180
1085.96,1.307344,393215,19377
1090.84,1.306356,396270,19572
1094.49,1.314300,398760,19338
1098.14,1.318046,400987,19279
1101.79,1.308693,403477,19821
1105.43,1.314162,406116,19701
1109.06,1.317576,407701,19623
1112.7,1.309503,409859,20097
1117.53,1.311854,412494,20117
1121.15,1.317771,414909,19961
1124.77,1.315552,416559,20143
1128.38,1.312141,418532,20398
1131.99,1.311196,419956,20512
1135.6,1.324183,421946,20002
1139.2,1.320647,423881,20258
1143.99,1.315143,426786,20657
1147.58,1.317233,428617,20646
1151.17,1.307309,431169,21249
1154.75,1.317837,433579,20856
1158.33,1.301612,436264,21784
1161.91,1.316587,439132,21184
1165.48,1.314782,442389,21430
1169.04,1.311734,446101,21762
1173.79,1.310619,451929,22103
1177.34,1.314735,456026,22093
1180.9,1.319715,461306,22094
1184.44,1.314802,467657,22653
1187.99,1.319093,473969,22733
1191.52,1.316222,479856,23168
1195.06,1.316442,487372,23519
1199.76,1.318062,497347,23911
1203.29,1.317039,504311,24303
1206.81,1.321569,511507,24394
1210.33,1.322377,519078,24709
1213.84,1.319684,527163,25250
1217.35,1.313406,534208,25960
1220.85,1.318351,540472,25967
1225.51,1.323683,549929,26099
1229.01,1.321115,556888,26586
1232.5,1.320220,562180,26894
1235.98,1.323287,567975,26980
1239.46,1.316610,574815,27728
1242.94,1.324125,582782,27630
1246.41,1.320212,591476,28296
1251.03,1.319640,604016,28934
1254.5,1.319881,612289,29314
1257.96,1.325979,619125,29228
1261.41,1.323558,624551,29649
1264.86,1.330467,629900,29431
1268.31,1.322160,634345,30211
1271.75,1.325564,638574,30175
1276.33,1.320975,642499,30683
1279.76,1.324305,645905,30610
1283.19,1.323583,648307,30775
1286.61,1.331296,650446,30333
1290.03,1.329637,652132,30528
1293.44,1.325361,653907,30914
1296.85,1.323129,655963,31171
1301.39,1.329104,657349,30810
1304.8,1.327231,657558,30953
1308.19,1.328959,658515,30875
1311.58,1.328559,658804,30917
1314.97,1.331076,659011,30748
1318.36,1.333536,658272,30540
1321.73,1.327945,658022,30924
1326.23,1.326989,657870,30985
1329.6,1.327728,656482,30867
1332.97,1.330201,654926,30619
1336.33,1.333495,653727,30332
1339.69,1.334457,652497,30208
1343.04,1.329011,649913,30468
1346.39,1.327325,647671,30481
1349.73,1.333956,645338,29911
1354.18,1.326725,641175,30217
1357.52,1.325948,638376,30139
1360.85,1.322182,635805,30279
1364.17,1.328112,633413,29756
1367.49,1.326809,631026,29733
1370.81,1.326453,628050,29617
1374.12,1.326023,625034,29504
1378.54,1.326753,620272,29230
1381.84,1.322616,616892,29349
1385.14,1.322452,613613,29204
1388.43,1.324496,611526,28968
1391.72,1.322655,610663,29050
1395.01,1.324778,610634,28907
1398.29,1.328445,611700,28714
1402.66,1.324073,614051,29116
1405.93,1.327372,616268,29000
1409.2,1.327235,617795,29081
1412.46,1.328410,618872,29053
1415.72,1.324270,619795,29375
1418.98,1.328189,620495,29144
1422.23,1.329633,621087,29075
1426.56,1.328611,621375,29157
1429.8,1.330212,621616,29061
1433.04,1.330241,622129,29083
1436.27,1.331016,621526,29003
1439.5,1.330503,621113,29018
1442.72,1.332966,620921,28845
1445.94,1.329779,620270,29027
1450.23,1.333196,618860,28734
1453.44,1.332757,617697,28709
1456.64,1.331159,616264,28748
1459.85,1.328149,614413,28861
1463.04,1.334554,612307,28341
1466.24,1.335442,610032,28178
1469.43,1.332248,607345,28261
1473.67,1.331268,603789,28159
1476.85,1.332743,601175,27942
1480.02,1.327866,597737,28096
1483.19,1.337942,594479,27302
1486.36,1.329890,591232,27661
1489.52,1.332026,587853,27368
1492.68,1.341569,583875,26592
1496.89,1.335756,578062,26682
1500.03,1.333253,574159,26655
1503.18,1.337940,570285,26191
1506.32,1.334835,565444,26155
1509.45,1.333657,560571,26000
1512.58,1.334765,555821,25714
1515.71,1.334452,550344,25479
1519.87,1.333720,543983,25227
1522.99,1.335286,538764,24895
1526.1,1.339687,533692,24412
1529.21,1.335609,527902,24375
1532.32,1.330631,521886,24375
1535.42,1.331368,515888,24054
1538.51,1.334702,509987,23597
1541.6,1.338388,503936,23120
1545.72,1.345312,494694,22337
1548.8,1.336342,488378,22512
1551.88,1.327655,481832,22659
1554.95,1.329822,474989,22226
1558.02,1.340415,467818,21363
1561.08,1.332931,460730,21405
1564.15,1.330821,454170,21203
1568.22,1.336612,444181,20462
1571.27,1.331630,436947,20361
1574.32,1.329046,429598,20138
1577.36,1.334450,422039,19539
1580.4,1.327025,414375,19515
1583.43,1.336042,406354,18744
1586.46,1.320347,398475,19057
1590.49,1.324121,388982,18442
1593.51,1.324620,380708,18029
1596.53,1.328601,372727,17490
1599.54,1.323516,365060,17332
1602.55,1.325930,357543,16881
1605.55,1.325904,349495,16502
1608.55,1.326152,341154,16099
1612.54,1.326960,330877,15585
1615.53,1.317427,322904,15547
1618.51,1.326306,315116,14865
1621.49,1.322171,307217,14631
1624.47,1.317796,299481,14407
1627.44,1.317194,292112,14072
1630.41,1.313499,284245,13810
1634.36,1.306610,274079,13529
1637.32,1.308673,266916,13113
1640.27,1.323855,259612,12316
1643.22,1.312608,251804,12259
1646.16,1.303826,244348,12139
1649.1,1.326034,236703,11173
1652.04,1.310013,228171,11175
1655.95,1.296593,215408,10881
1658.88,1.289233,204937,10529
1661.8,1.277675,193395,10204
1664.72,1.277212,179728,9493
1667.63,1.245272,163642,9303
1670.54,1.230479,146312,8606
1673.44,1.216031,128451,7811
1677.31,1.167153,105080,7151
1680.21,1.149315,88906,6304
1683.1,1.107429,75033,5859
1685.99,1.137142,63520,4632
1688.87,1.153631,53714,3771
1691.75,1.087295,45653,3734
1694.62,1.144190,39137,2808
1697.49,1.157171,33776,2352
1701.31,1.160052,28175,1949