File: ML/samples/unknown/Column 1_078391_20241121_170023.csv
Method:,Column 1,,
Host Date-Time:,21/11/24 @ 17:0:23,,
Header Version:,1,,
System Temp (C):,34.37,,
Detector Temp (C):,34.15,,
Humidity (%):,2.55,,
Lamp PD:,3802,,
Shift Vector Coefficients:,-10.5391,0.0761263,-0.000134223,,
Pixel to Wavelength Coefficients:,1775.68,-0.916766,-0.000235065,,
Serial Number:,5510004,,
Scan Config Name:,Column 1,,
Scan Config Type:,Slew,,
Section 1,,
Start wavelength (nm):,900,,
End wavelength (nm):,1700,,
Pattern Pixel Width (nm):,   7.03,,,,
Exposure (ms):,  0.635,,,,
Digital Resolution:,228,,
Num Repeats:,6,,
PGA Gain:,64,,
Total Measurement Time in sec:,  2.730,,
Wavelength (nm),Absorbance (AU),Reference Signal (unitless),Sample Signal (unitless)
901.51,1.319116,108485,5203
905.376,1.337326,121306,5579
909.237,1.283444,131909,6868
913.095,1.313509,143299,6962
916.948,1.303199,156982,7810
922.079,1.332966,179937,8359
925.923,1.319400,200504,9610
929.762,1.323033,222660,10583
933.597,1.332654,244426,11363
937.427,1.326703,263972,12441
941.254,1.324724,281845,13344
945.076,1.308651,297271,14605
950.165,1.329411,315605,14782
953.978,1.316816,328029,15816
957.786,1.322671,340470,16196
961.59,1.317969,352317,16942
965.389,1.310140,363056,17776
969.185,1.300707,373162,18672
972.976,1.308116,382632,18822
976.763,1.319516,391202,18745
981.806,1.314487,400190,19399
985.583,1.314705,406088,19675
989.355,1.318577,410162,19696
993.124,1.311256,412868,20163
996.888,1.308626,414263,20354
1000.65,1.304447,415476,20611
1004.4,1.297407,415479,20948
1009.41,1.309666,414358,20310
1013.15,1.305898,412923,20416
1016.89,1.306046,411526,20340
1020.63,1.313989,409066,19852
1024.36,1.311552,406777,19852
1028.09,1.304942,404427,20040
1031.82,1.314987,401911,19460
1036.78,1.316035,398410,19244
1040.49,1.307862,396204,19501
1044.2,1.308918,394236,19357
1047.91,1.310801,392042,19166
1051.61,1.310175,389823,19085
1055.31,1.311966,388234,18929
1059,1.310109,387599,18979
1063.92,1.322850,386688,18387
1067.61,1.316604,386598,18649
1071.29,1.317385,387377,18653
1074.96,1.308148,388536,19111
1078.63,1.311396,389855,19033
1082.3,1.315288,391215,18929
1085.96,1.311012,393215,19214
1090.84,1.313290,396270,19262
1094.49,1.312172,398760,19433
1098.14,1.318226,400987,19271
1101.79,1.321636,403477,19239
1105.43,1.322081,406116,19345
1109.06,1.315633,407701,19711
1112.7,1.315093,409859,19840
1117.53,1.311207,412494,20147
1121.15,1.308919,414909,20372
1124.77,1.314089,416559,20211
1128.38,1.316227,418532,20207
1131.99,1.314831,419956,20341
1135.6,1.319497,421946,20219
1139.2,1.314326,423881,20555
1143.99,1.323249,426786,20275
1147.58,1.317276,428617,20644
1151.17,1.320675,431169,20605
1154.75,1.313775,433579,21052
1158.33,1.314029,436264,21170
1161.91,1.309975,439132,21509
1165.48,1.315594,442389,21390
1169.04,1.312334,446101,21732
1173.79,1.315500,451929,21856
1177.34,1.316271,456026,22015
1180.9,1.315295,461306,22320
1184.44,1.311650,467657,22818
1187.99,1.316845,473969,22851
1191.52,1.319837,479856,22976
1195.06,1.326189,487372,22997
1199.76,1.319208,497347,23848
1203.29,1.316467,504311,24335
1206.81,1.325341,511507,24183
1210.33,1.323204,519078,24662
1213.84,1.319856,527163,25240
1217.35,1.316545,534208,25773
1220.85,1.325756,540472,25528
1225.51,1.328266,549929,25825
1229.01,1.324855,556888,26358
1232.5,1.327499,562180,26447
1235.98,1.323770,567975,26950
1239.46,1.322968,574815,27325
1242.94,1.321118,582782,27822
1246.41,1.326909,591476,27863
1251.03,1.324273,604016,28627
1254.5,1.324813,612289,28983
1257.96,1.327706,619125,29112
1261.41,1.329353,624551,29256
1264.86,1.329744,629900,29480
1268.31,1.331812,634345,29547
1271.75,1.328597,638574,29965
1276.33,1.333525,642499,29809
1279.76,1.325670,645905,30514
1283.19,1.330524,648307,30287
1286.61,1.325564,650446,30736
1290.03,1.326250,652132,30767
1293.44,1.330988,653907,30516
1296.85,1.330605,655963,30639
1301.39,1.330757,657349,30693
1304.8,1.329228,657558,30811
1308.19,1.334665,658515,30472
1311.58,1.327899,658804,30964
1314.97,1.332859,659011,30622
1318.36,1.331324,658272,30696
1321.73,1.328071,658022,30915
1326.23,1.330323,657870,30748
1329.6,1.332653,656482,30519
1332.97,1.331850,654926,30503
1336.33,1.328088,653727,30712
1339.69,1.329539,652497,30552
1343.04,1.329197,649913,30455
1346.39,1.329955,647671,30297
1349.73,1.326871,645338,30403
1354.18,1.329320,641175,30037
1357.52,1.334519,638376,29550
1360.85,1.327478,635805,29912
1364.17,1.323568,633413,30069
1367.49,1.331759,631026,29396
1370.81,1.326585,628050,29608
1374.12,1.327970,625034,29372
1378.54,1.324456,620272,29385
1381.84,1.331843,616892,28732
1385.14,1.325556,613613,28996
1388.43,1.329943,611526,28607
1391.72,1.325084,610663,28888
1395.01,1.325936,610634,28830
1398.29,1.329323,611700,28656
1402.66,1.326991,614051,28921
1405.93,1.336727,616268,28382
1409.2,1.332479,617795,28732
1412.46,1.330373,618872,28922
1415.72,1.330195,619795,28977
1418.98,1.332216,620495,28875
1422.23,1.333458,621087,28820
1426.56,1.327480,621375,29233
1429.8,1.330930,621616,29013
1433.04,1.333283,622129,28880
1436.27,1.334882,621526,28746
1439.5,1.336425,621113,28625
1442.72,1.334701,620921,28730
1445.94,1.335305,620270,28660
1450.23,1.334407,618860,28654
1453.44,1.332198,617697,28746
1456.64,1.334678,616264,28516
1459.85,1.331305,614413,28652
1463.04,1.333055,612307,28439
1466.24,1.334426,610032,28244
1469.43,1.336821,607345,27965
1473.67,1.338437,603789,27698
1476.85,1.334503,601175,27829
1480.02,1.331810,597737,27842
1483.19,1.338276,594479,27281
1486.36,1.344321,591232,26757
1489.52,1.337407,587853,27031
1492.68,1.344683,583875,26402
1496.89,1.332481,578062,26884
1500.03,1.340019,574159,26243
1503.18,1.333765,570285,26444
1506.32,1.331560,565444,26353
1509.45,1.339205,560571,25670
1512.58,1.339759,555821,25420
1515.71,1.334571,550344,25472
1519.87,1.333135,543983,25261
1522.99,1.339423,538764,24659
1526.1,1.333944,533692,24737
1529.21,1.336768,527902,24310
1532.32,1.340251,521886,23841
1535.42,1.335760,515888,23812
1538.51,1.336122,509987,23520
1541.6,1.341063,503936,22978
1545.72,1.335355,494694,22855
1548.8,1.338780,488378,22386
1551.88,1.340532,481832,21997
1554.95,1.332488,474989,22090
1558.02,1.336066,467818,21578
1561.08,1.334700,460730,21318
1564.15,1.336906,454170,20908
1568.22,1.331527,444181,20703
1571.27,1.330075,436947,20434
1574.32,1.339678,429598,19651
1577.36,1.327308,422039,19863
1580.4,1.333911,414375,19208
1583.43,1.344583,406354,18379
1586.46,1.333934,398475,18470
1590.49,1.330598,388982,18169
1593.51,1.334488,380708,17624
1596.53,1.317617,372727,17938
1599.54,1.338557,365060,16742
1602.55,1.327399,357543,16824
1605.55,1.326220,349495,16490
1608.55,1.327638,341154,16044
1612.54,1.322662,330877,15740
1615.53,1.325035,322904,15277
1618.51,1.324614,315116,14923
1621.49,1.318771,307217,14746
1624.47,1.321003,299481,14301
1627.44,1.331723,292112,13609
1630.41,1.312714,284245,13835
1634.36,1.321667,274079,13068
1637.32,1.304519,266916,13239
1640.27,1.311171,259612,12681
1643.22,1.321628,251804,12007
1646.16,1.323813,244348,11593
1649.1,1.314943,236703,11462
1652.04,1.329161,228171,10693
1655.95,1.329801,215408,10080
1658.88,1.303873,204937,10180
1661.8,1.297084,193395,9758
1664.72,1.282320,179728,9382
1667.63,1.264505,163642,8900
1670.54,1.249880,146312,8230
1673.44,1.232866,128451,7514
1677.31,1.183049,105080,6894
1680.21,1.185953,88906,5794
1683.1,1.181877,75033,4936
1685.99,1.176673,63520,4229
1688.87,1.139469,53714,3896
1691.75,1.201587,45653,2870
1694.62,1.163643,39137,2685
1697.49,1.191548,33776,2173
1701.31,1.135365,28175,2063