File: ML/samples/unknown/Column 1_078440_20241121_170247.csv
Method:,Column 1,,
Host Date-Time:,21/11/24 @ 17:2:47,,
Header Version:,1,,
System Temp (C):,34.9,,
Detector Temp (C):,33.77,,
Humidity (%):,1.96,,
Lamp PD:,3802,,
Shift Vector Coefficients:,-10.5391,0.0761263,-0.000134223,,
Pixel to Wavelength Coefficients:,1775.68,-0.916766,-0.000235065,,
Serial Number:,5510004,,
Scan Config Name:,Column 1,,
Scan Config Type:,Slew,,
Section 1,,
Start wavelength (nm):,900,,
End wavelength (nm):,1700,,
Pattern Pixel Width (nm):,   7.03,,,,
Exposure (ms):,  0.635,,,,
Digital Resolution:,228,,
Num Repeats:,6,,
PGA Gain:,64,,
Total Measurement Time in sec:,  2.706,,
Wavelength (nm),Absorbance (AU),Reference Signal (unitless),Sample Signal (unitless)
901.51,1.313230,108485,5274
905.376,1.334919,121306,5610
909.237,1.304232,131909,6547
913.095,1.317394,143299,6900
916.948,1.312302,156982,7648
922.079,1.315951,179937,8693
925.923,1.312985,200504,9753
929.762,1.320415,222660,10647
933.597,1.335107,244426,11299
937.427,1.323572,263972,12531
941.254,1.313924,281845,13680
945.076,1.306367,297271,14682
950.165,1.326249,315605,14890
953.978,1.306156,328029,16209
957.786,1.310691,340470,16649
961.59,1.312745,352317,17147
965.389,1.310824,363056,17748
969.185,1.318172,373162,17936
972.976,1.307723,382632,18839
976.763,1.316353,391202,18882
981.806,1.314532,400190,19397
985.583,1.308220,406088,19971
989.355,1.309803,410162,20098
993.124,1.303846,412868,20510
996.888,1.309823,414263,20298
1000.65,1.312142,415476,20249
1004.4,1.308961,415479,20398
1009.41,1.310286,414358,20281
1013.15,1.304688,412923,20473
1016.89,1.306794,411526,20305
1020.63,1.306184,409066,20212
1024.36,1.301454,406777,20319
1028.09,1.308162,404427,19892
1031.82,1.300437,401911,20123
1036.78,1.312484,398410,19402
1040.49,1.309916,396204,19409
1044.2,1.311551,394236,19240
1047.91,1.319591,392042,18782
1051.61,1.315073,389823,18871
1055.31,1.320258,388234,18571
1059,1.303163,387599,19285
1063.92,1.307147,386688,19064
1067.61,1.306363,386598,19094
1071.29,1.313884,387377,18804
1074.96,1.321041,388536,18552
1078.63,1.316514,389855,18810
1082.3,1.316598,391215,18872
1085.96,1.314872,393215,19044
1090.84,1.309116,396270,19448
1094.49,1.318135,398760,19168
1098.14,1.323737,400987,19028
1101.79,1.311882,403477,19676
1105.43,1.315796,406116,19627
1109.06,1.323504,407701,19357
1112.7,1.316826,409859,19761
1117.53,1.318972,412494,19790
1121.15,1.314995,414909,20089
1124.77,1.323209,416559,19791
1128.38,1.323859,418532,19855
1131.99,1.318799,419956,20156
1135.6,1.319906,421946,20200
1139.2,1.312829,423881,20626
1143.99,1.321624,426786,20351
1147.58,1.326031,428617,20232
1151.17,1.316000,431169,20828
1154.75,1.317442,433579,20875
1158.33,1.307917,436264,21470
1161.91,1.314215,439132,21300
1165.48,1.322140,442389,21070
1169.04,1.320117,446101,21346
1173.79,1.318851,451929,21688
1177.34,1.306730,456026,22504
1180.9,1.315490,461306,22310
1184.44,1.328354,467657,21957
1187.99,1.327173,473969,22314
1191.52,1.314837,479856,23242
1195.06,1.323403,487372,23145
1199.76,1.319062,497347,23856
1203.29,1.318560,504311,24218
1206.81,1.316225,511507,24696
1210.33,1.319278,519078,24886
1213.84,1.319942,527163,25235
1217.35,1.321460,534208,25483
1220.85,1.323889,540472,25638
1225.51,1.328384,549929,25818
1229.01,1.325350,556888,26328
1232.5,1.325860,562180,26547
1235.98,1.317261,567975,27357
1239.46,1.324736,574815,27214
1242.94,1.323905,582782,27644
1246.41,1.325913,591476,27927
1251.03,1.326310,604016,28493
1254.5,1.326389,612289,28878
1257.96,1.323062,619125,29425
1261.41,1.329086,624551,29274
1264.86,1.322759,629900,29958
1268.31,1.325450,634345,29983
1271.75,1.327945,638574,30010
1276.33,1.330158,642499,30041
1279.76,1.328726,645905,30300
1283.19,1.326514,648307,30568
1286.61,1.333780,650446,30160
1290.03,1.329196,652132,30559
1293.44,1.329015,653907,30655
1296.85,1.335594,655963,30289
1301.39,1.332089,657349,30599
1304.8,1.332553,657558,30576
1308.19,1.329508,658515,30836
1311.58,1.328348,658804,30932
1314.97,1.332009,659011,30682
1318.36,1.326694,658272,31025
1321.73,1.331767,658022,30653
1326.23,1.336454,657870,30317
1329.6,1.334106,656482,30417
1332.97,1.327811,654926,30788
1336.33,1.330755,653727,30524
1339.69,1.329496,652497,30555
1343.04,1.329825,649913,30411
1346.39,1.333799,647671,30030
1349.73,1.331827,645338,30058
1354.18,1.325319,641175,30315
1357.52,1.329159,638376,29917
1360.85,1.325884,635805,30022
1364.17,1.324088,633413,30033
1367.49,1.327101,631026,29713
1370.81,1.328924,628050,29449
1374.12,1.321717,625034,29798
1378.54,1.327512,620272,29179
1381.84,1.326033,616892,29119
1385.14,1.327207,613613,28886
1388.43,1.335012,611526,28275
1391.72,1.322177,610663,29082
1395.01,1.326057,610634,28822
1398.29,1.329732,611700,28629
1402.66,1.325896,614051,28994
1405.93,1.332206,616268,28679
1409.2,1.330142,617795,28887
1412.46,1.333326,618872,28726
1415.72,1.332841,619795,28801
1418.98,1.330041,620495,29020
1422.23,1.327799,621087,29198
1426.56,1.338052,621375,28530
1429.8,1.330077,621616,29070
1433.04,1.334956,622129,28769
1436.27,1.337184,621526,28594
1439.5,1.328800,621113,29132
1442.72,1.335366,620921,28686
1445.94,1.333113,620270,28805
1450.23,1.334847,618860,28625
1453.44,1.331172,617697,28814
1456.64,1.334282,616264,28542
1459.85,1.330881,614413,28680
1463.04,1.338325,612307,28096
1466.24,1.333520,610032,28303
1469.43,1.330347,607345,28385
1473.67,1.336154,603789,27844
1476.85,1.334753,601175,27813
1480.02,1.327773,597737,28102
1483.19,1.339073,594479,27231
1486.36,1.330566,591232,27618
1489.52,1.335451,587853,27153
1492.68,1.342157,583875,26556
1496.89,1.341722,578062,26318
1500.03,1.342076,574159,26119
1503.18,1.337112,570285,26241
1506.32,1.335250,565444,26130
1509.45,1.339814,560571,25634
1512.58,1.339077,555821,25460
1515.71,1.334708,550344,25464
1519.87,1.336085,543983,25090
1522.99,1.329086,538764,25253
1526.1,1.336974,533692,24565
1529.21,1.335805,527902,24364
1532.32,1.337527,521886,23991
1535.42,1.341358,515888,23507
1538.51,1.332646,509987,23709
1541.6,1.334852,503936,23309
1545.72,1.335869,494694,22828
1548.8,1.338275,488378,22412
1551.88,1.339940,481832,22027
1554.95,1.327989,474989,22320
1558.02,1.337881,467818,21488
1561.08,1.337070,460730,21202
1564.15,1.327312,454170,21375
1568.22,1.334706,444181,20552
1571.27,1.339942,436947,19975
1574.32,1.335915,429598,19822
1577.36,1.338044,422039,19378
1580.4,1.342313,414375,18840
1583.43,1.329329,406354,19036
1586.46,1.329955,398475,18640
1590.49,1.332347,388982,18096
1593.51,1.332030,380708,17724
1596.53,1.333495,372727,17294
1599.54,1.333656,365060,16932
1602.55,1.326496,357543,16859
1605.55,1.323071,349495,16610
1608.55,1.333360,341154,15834
1612.54,1.335089,330877,15296
1615.53,1.318798,322904,15498
1618.51,1.314887,315116,15261
1621.49,1.319862,307217,14709
1624.47,1.333292,299481,13902
1627.44,1.322941,292112,13887
1630.41,1.325714,284245,13427
1634.36,1.331175,274079,12785
1637.32,1.315011,266916,12923
1640.27,1.318423,259612,12471
1643.22,1.320580,251804,12036
1646.16,1.299944,244348,12248
1649.1,1.306464,236703,11688
1652.04,1.307997,228171,11227
1655.95,1.309064,215408,10573
1658.88,1.299965,204937,10272
1661.8,1.296862,193395,9763
1664.72,1.286460,179728,9293
1667.63,1.269363,163642,8801
1670.54,1.230984,146312,8596
1673.44,1.222134,128451,7702
1677.31,1.213579,105080,6426
1680.21,1.182370,88906,5842
1683.1,1.178285,75033,4977
1685.99,1.166623,63520,4328
1688.87,1.183915,53714,3517
1691.75,1.177597,45653,3033
1694.62,1.203421,39137,2450
1697.49,1.218127,33776,2044
1701.31,1.204351,28175,1760