File: ML/samples/unknown/Column 1_078548_20241121_170806.csv
Method:,Column 1,,
Host Date-Time:,21/11/24 @ 17:8:6,,
Header Version:,1,,
System Temp (C):,35.72,,
Detector Temp (C):,34.37,,
Humidity (%):,1.42,,
Lamp PD:,3800,,
Shift Vector Coefficients:,-10.5391,0.0761263,-0.000134223,,
Pixel to Wavelength Coefficients:,1775.68,-0.916766,-0.000235065,,
Serial Number:,5510004,,
Scan Config Name:,Column 1,,
Scan Config Type:,Slew,,
Section 1,,
Start wavelength (nm):,900,,
End wavelength (nm):,1700,,
Pattern Pixel Width (nm):,   7.03,,,,
Exposure (ms):,  0.635,,,,
Digital Resolution:,228,,
Num Repeats:,6,,
PGA Gain:,64,,
Total Measurement Time in sec:,  2.727,,
Wavelength (nm),Absorbance (AU),Reference Signal (unitless),Sample Signal (unitless)
901.51,1.307178,108485,5348
905.376,1.318735,121306,5823
909.237,1.317501,131909,6350
913.095,1.317457,143299,6899
916.948,1.338759,156982,7196
922.079,1.330789,179937,8401
925.923,1.305261,200504,9928
929.762,1.308307,222660,10948
933.597,1.332349,244426,11371
937.427,1.311170,263972,12894
941.254,1.317879,281845,13556
945.076,1.312744,297271,14468
950.165,1.313800,315605,15323
953.978,1.307820,328029,16147
957.786,1.308843,340470,16720
961.59,1.309566,352317,17273
965.389,1.312614,363056,17675
969.185,1.310278,373162,18265
972.976,1.306228,382632,18904
976.763,1.307226,391202,19283
981.806,1.315047,400190,19374
985.583,1.310466,406088,19868
989.355,1.301307,410162,20495
993.124,1.309966,412868,20223
996.888,1.308797,414263,20346
1000.65,1.300921,415476,20779
1004.4,1.303335,415479,20664
1009.41,1.309281,414358,20328
1013.15,1.302825,412923,20561
1016.89,1.298742,411526,20685
1020.63,1.301993,409066,20408
1024.36,1.311990,406777,19832
1028.09,1.299515,404427,20292
1031.82,1.310171,401911,19677
1036.78,1.300779,398410,19932
1040.49,1.305641,396204,19601
1044.2,1.307373,394236,19426
1047.91,1.312095,392042,19109
1051.61,1.310335,389823,19078
1055.31,1.293197,388234,19765
1059,1.309195,387599,19019
1063.92,1.306782,386688,19080
1067.61,1.300601,386598,19349
1071.29,1.308809,387377,19025
1074.96,1.304955,388536,19252
1078.63,1.309847,389855,19101
1082.3,1.306611,391215,19311
1085.96,1.309028,393215,19302
1090.84,1.306090,396270,19584
1094.49,1.308145,398760,19614
1098.14,1.309900,400987,19644
1101.79,1.316274,403477,19478
1105.43,1.312007,406116,19799
1109.06,1.313984,407701,19786
1112.7,1.314174,409859,19882
1117.53,1.311962,412494,20112
1121.15,1.311957,414909,20230
1124.77,1.306294,416559,20577
1128.38,1.318144,418532,20118
1131.99,1.319835,419956,20108
1135.6,1.311242,421946,20607
1139.2,1.319171,423881,20327
1143.99,1.316891,426786,20574
1147.58,1.311217,428617,20934
1151.17,1.312056,431169,21018
1154.75,1.313734,433579,21054
1158.33,1.324577,436264,20662
1161.91,1.317942,439132,21118
1165.48,1.318078,442389,21268
1169.04,1.317702,446101,21465
1173.79,1.315500,451929,21856
1177.34,1.310354,456026,22317
1180.9,1.315470,461306,22311
1184.44,1.321019,467657,22331
1187.99,1.320548,473969,22657
1191.52,1.319799,479856,22978
1195.06,1.316294,487372,23527
1199.76,1.318025,497347,23913
1203.29,1.312629,504311,24551
1206.81,1.314645,511507,24786
1210.33,1.309852,519078,25432
1213.84,1.321960,527163,25118
1217.35,1.316950,534208,25749
1220.85,1.319826,540472,25879
1225.51,1.314626,549929,26649
1229.01,1.321425,556888,26567
1232.5,1.321870,562180,26792
1235.98,1.312195,567975,27678
1239.46,1.322587,574815,27349
1242.94,1.314073,582782,28277
1246.41,1.325089,591476,27980
1251.03,1.316991,604016,29111
1254.5,1.325728,612289,28922
1257.96,1.324437,619125,29332
1261.41,1.320493,624551,29859
1264.86,1.323484,629900,29908
1268.31,1.324149,634345,30073
1271.75,1.327280,638574,30056
1276.33,1.318843,642499,30834
1279.76,1.321364,645905,30818
1283.19,1.327438,648307,30503
1286.61,1.325056,650446,30772
1290.03,1.331205,652132,30418
1293.44,1.326754,653907,30815
1296.85,1.323547,655963,31141
1301.39,1.328935,657349,30822
1304.8,1.324978,657558,31114
1308.19,1.331046,658515,30727
1311.58,1.326331,658804,31076
1314.97,1.325560,659011,31141
1318.36,1.328742,658272,30879
1321.73,1.330961,658022,30710
1326.23,1.328829,657870,30854
1329.6,1.332553,656482,30526
1332.97,1.328051,654926,30771
1336.33,1.327636,653727,30744
1339.69,1.318909,652497,31309
1343.04,1.330539,649913,30361
1346.39,1.329854,647671,30304
1349.73,1.328244,645338,30307
1354.18,1.322108,641175,30540
1357.52,1.325400,638376,30177
1360.85,1.326695,635805,29966
1364.17,1.320359,633413,30292
1367.49,1.331036,631026,29445
1370.81,1.320309,628050,30039
1374.12,1.325537,625034,29537
1378.54,1.318264,620272,29807
1381.84,1.318126,616892,29654
1385.14,1.325467,613613,29002
1388.43,1.323239,611526,29052
1391.72,1.324153,610663,28950
1395.01,1.322441,610634,29063
1398.29,1.322452,611700,29113
1402.66,1.330292,614051,28702
1405.93,1.329142,616268,28882
1409.2,1.329706,617795,28916
1412.46,1.324333,618872,29327
1415.72,1.333988,619795,28725
1418.98,1.328621,620495,29115
1422.23,1.333383,621087,28825
1426.56,1.327763,621375,29214
1429.8,1.325855,621616,29354
1433.04,1.330435,622129,29070
1436.27,1.328404,621526,29178
1439.5,1.327803,621113,29199
1442.72,1.329412,620921,29082
1445.94,1.331743,620270,28896
1450.23,1.328431,618860,29051
1453.44,1.334637,617697,28585
1456.64,1.330933,616264,28763
1459.85,1.331760,614413,28622
1463.04,1.332109,612307,28501
1466.24,1.329883,610032,28541
1469.43,1.329262,607345,28456
1473.67,1.332612,603789,28072
1476.85,1.335144,601175,27788
1480.02,1.331919,597737,27835
1483.19,1.329951,594479,27809
1486.36,1.334499,591232,27369
1489.52,1.335259,587853,27165
1492.68,1.331097,583875,27241
1496.89,1.334229,578062,26776
1500.03,1.329732,574159,26872
1503.18,1.334159,570285,26420
1506.32,1.333343,565444,26245
1509.45,1.328906,560571,26286
1512.58,1.337136,555821,25574
1515.71,1.331428,550344,25657
1519.87,1.326921,543983,25625
1522.99,1.331742,538764,25099
1526.1,1.332296,533692,24831
1529.21,1.341800,527902,24030
1532.32,1.330827,521886,24364
1535.42,1.324916,515888,24414
1538.51,1.326552,509987,24044
1541.6,1.327792,503936,23691
1545.72,1.326943,494694,23302
1548.8,1.337675,488378,22443
1551.88,1.335019,481832,22278
1554.95,1.328106,474989,22314
1558.02,1.331899,467818,21786
1561.08,1.330665,460730,21517
1564.15,1.329757,454170,21255
1568.22,1.335615,444181,20509
1571.27,1.327532,436947,20554
1574.32,1.322921,429598,20424
1577.36,1.330049,422039,19738
1580.4,1.324164,414375,19644
1583.43,1.335903,406354,18750
1586.46,1.331122,398475,18590
1590.49,1.334271,388982,18016
1593.51,1.326963,380708,17932
1596.53,1.333998,372727,17274
1599.54,1.335275,365060,16869
1602.55,1.322190,357543,17027
1605.55,1.329950,349495,16349
1608.55,1.330489,341154,15939
1612.54,1.329279,330877,15502
1615.53,1.311793,322904,15750
1618.51,1.330445,315116,14724
1621.49,1.327337,307217,14458
1624.47,1.307018,299481,14769
1627.44,1.322253,292112,13909
1630.41,1.323777,284245,13487
1634.36,1.318257,274079,13171
1637.32,1.315953,266916,12895
1640.27,1.312269,259612,12649
1643.22,1.299522,251804,12634
1646.16,1.309624,244348,11978
1649.1,1.297855,236703,11922
1652.04,1.314309,228171,11065
1655.95,1.294483,215408,10934
1658.88,1.284720,204937,10639
1661.8,1.300346,193395,9685
1664.72,1.263744,179728,9792
1667.63,1.255426,163642,9088
1670.54,1.228515,146312,8645
1673.44,1.214532,128451,7838
1677.31,1.186337,105080,6842
1680.21,1.196345,88906,5657
1683.1,1.164966,75033,5132
1685.99,1.163524,63520,4359
1688.87,1.179859,53714,3550
1691.75,1.205845,45653,2842
1694.62,1.199363,39137,2473
1697.49,1.157171,33776,2352
1701.31,1.183397,28175,1847