File: ML/samples/unknown/Column 1_078680_20241121_171659.csv
Method:,Column 1,,
Host Date-Time:,21/11/24 @ 17:16:59,,
Header Version:,1,,
System Temp (C):,34.51,,
Detector Temp (C):,35.06,,
Humidity (%):,1.76,,
Lamp PD:,3802,,
Shift Vector Coefficients:,-10.5391,0.0761263,-0.000134223,,
Pixel to Wavelength Coefficients:,1775.68,-0.916766,-0.000235065,,
Serial Number:,5510004,,
Scan Config Name:,Column 1,,
Scan Config Type:,Slew,,
Section 1,,
Start wavelength (nm):,900,,
End wavelength (nm):,1700,,
Pattern Pixel Width (nm):,   7.03,,,,
Exposure (ms):,  0.635,,,,
Digital Resolution:,228,,
Num Repeats:,6,,
PGA Gain:,64,,
Total Measurement Time in sec:,  2.722,,
Wavelength (nm),Absorbance (AU),Reference Signal (unitless),Sample Signal (unitless)
901.51,1.311504,108485,5295
905.376,1.315688,121306,5864
909.237,1.314027,131909,6401
913.095,1.295666,143299,7254
916.948,1.313041,156982,7635
922.079,1.316901,179937,8674
925.923,1.325040,200504,9486
929.762,1.323855,222660,10563
933.597,1.329949,244426,11434
937.427,1.315741,263972,12759
941.254,1.311581,281845,13754
945.076,1.312084,297271,14490
950.165,1.306939,315605,15567
953.978,1.306907,328029,16181
957.786,1.319332,340470,16321
961.59,1.304193,352317,17488
965.389,1.312344,363056,17686
969.185,1.297878,373162,18794
972.976,1.303776,382632,19011
976.763,1.307091,391202,19289
981.806,1.303631,400190,19890
985.583,1.310007,406088,19889
989.355,1.304327,410162,20353
993.124,1.296330,412868,20868
996.888,1.307157,414263,20423
1000.65,1.298420,415476,20899
1004.4,1.308259,415479,20431
1009.41,1.301762,414358,20683
1013.15,1.306665,412923,20380
1016.89,1.313563,411526,19991
1020.63,1.299595,409066,20521
1024.36,1.311837,406777,19839
1028.09,1.302070,404427,20173
1031.82,1.299596,401911,20162
1036.78,1.301259,398410,19910
1040.49,1.305796,396204,19594
1044.2,1.307708,394236,19411
1047.91,1.311345,392042,19142
1051.61,1.298412,389823,19609
1055.31,1.304866,388234,19241
1059,1.301051,387599,19379
1063.92,1.307785,386688,19036
1067.61,1.310936,386598,18894
1071.29,1.306010,387377,19148
1074.96,1.311089,388536,18982
1078.63,1.295974,389855,19721
1082.3,1.308075,391215,19246
1085.96,1.303661,393215,19542
1090.84,1.310100,396270,19404
1094.49,1.315334,398760,19292
1098.14,1.306005,400987,19821
1101.79,1.311176,403477,19708
1105.43,1.315730,406116,19630
1109.06,1.315589,407701,19713
1112.7,1.311062,409859,20025
1117.53,1.316805,412494,19889
1121.15,1.312946,414909,20184
1124.77,1.313981,416559,20216
1128.38,1.311673,418532,20420
1131.99,1.309632,419956,20586
1135.6,1.317782,421946,20299
1139.2,1.317976,423881,20383
1143.99,1.317758,426786,20533
1147.58,1.317844,428617,20617
1151.17,1.313609,431169,20943
1154.75,1.309362,433579,21267
1158.33,1.313803,436264,21181
1161.91,1.311208,439132,21448
1165.48,1.317608,442389,21291
1169.04,1.313174,446101,21690
1173.79,1.310226,451929,22123
1177.34,1.314381,456026,22111
1180.9,1.312908,461306,22443
1184.44,1.316454,467657,22567
1187.99,1.315213,473969,22937
1191.52,1.318459,479856,23049
1195.06,1.318014,487372,23434
1199.76,1.316937,497347,23973
1203.29,1.311410,504311,24620
1206.81,1.316014,511507,24708
1210.33,1.320326,519078,24826
1213.84,1.320889,527163,25180
1217.35,1.322501,534208,25422
1220.85,1.312504,540472,26319
1225.51,1.316488,549929,26535
1229.01,1.318720,556888,26733
1232.5,1.315306,562180,27200
1235.98,1.319553,567975,27213
1239.46,1.316829,574815,27714
1242.94,1.321258,582782,27813
1246.41,1.325074,591476,27981
1251.03,1.317111,604016,29103
1254.5,1.316825,612289,29521
1257.96,1.321515,619125,29530
1261.41,1.318360,624551,30006
1264.86,1.317041,629900,30355
1268.31,1.322103,634345,30215
1271.75,1.317748,638574,30723
1276.33,1.320225,642499,30736
1279.76,1.323412,645905,30673
1283.19,1.322160,648307,30876
1286.61,1.326101,650446,30698
1290.03,1.324222,652132,30911
1293.44,1.323370,653907,31056
1296.85,1.321391,655963,31296
1301.39,1.320908,657349,31397
1304.8,1.328271,657558,30879
1308.19,1.326630,658515,31041
1311.58,1.329994,658804,30815
1314.97,1.323709,659011,31274
1318.36,1.328995,658272,30861
1321.73,1.329577,658022,30808
1326.23,1.325743,657870,31074
1329.6,1.327349,656482,30894
1332.97,1.328997,654926,30704
1336.33,1.325986,653727,30861
1339.69,1.333394,652497,30282
1343.04,1.328015,649913,30538
1346.39,1.324273,647671,30696
1349.73,1.328603,645338,30282
1354.18,1.323118,641175,30469
1357.52,1.326423,638376,30106
1360.85,1.332429,635805,29573
1364.17,1.322991,633413,30109
1367.49,1.326064,631026,29784
1370.81,1.320612,628050,30018
1374.12,1.325155,625034,29563
1378.54,1.325626,620272,29306
1381.84,1.321065,616892,29454
1385.14,1.316529,613613,29605
1388.43,1.322283,611526,29116
1391.72,1.319958,610663,29231
1395.01,1.318854,610634,29304
1398.29,1.323497,611700,29043
1402.66,1.321337,614051,29300
1405.93,1.328316,616268,28937
1409.2,1.321700,617795,29454
1412.46,1.328171,618872,29069
1415.72,1.331786,619795,28871
1418.98,1.332472,620495,28858
1422.23,1.323831,621087,29466
1426.56,1.325051,621375,29397
1429.8,1.330197,621616,29062
1433.04,1.327695,622129,29254
1436.27,1.327126,621526,29264
1439.5,1.331777,621113,28933
1442.72,1.334096,620921,28770
1445.94,1.327272,620270,29195
1450.23,1.334862,618860,28624
1453.44,1.324768,617697,29242
1456.64,1.326396,616264,29065
1459.85,1.328029,614413,28869
1463.04,1.326643,612307,28862
1466.24,1.326005,610032,28797
1469.43,1.331082,607345,28337
1473.67,1.325873,603789,28511
1476.85,1.327061,601175,28310
1480.02,1.331654,597737,27852
1483.19,1.326328,594479,28042
1486.36,1.324786,591232,27988
1489.52,1.330806,587853,27445
1492.68,1.349463,583875,26113
1496.89,1.332335,578062,26893
1500.03,1.333775,574159,26623
1503.18,1.332240,570285,26537
1506.32,1.327573,565444,26596
1509.45,1.334393,560571,25956
1512.58,1.332021,555821,25877
1515.71,1.330380,550344,25719
1519.87,1.334323,543983,25192
1522.99,1.332834,538764,25036
1526.1,1.332716,533692,24807
1529.21,1.337537,527902,24267
1532.32,1.333186,521886,24232
1535.42,1.329746,515888,24144
1538.51,1.329925,509987,23858
1541.6,1.327957,503936,23682
1545.72,1.330086,494694,23134
1548.8,1.327898,488378,22954
1551.88,1.328115,481832,22635
1554.95,1.331271,474989,22152
1558.02,1.333277,467818,21717
1561.08,1.321281,460730,21987
1564.15,1.325447,454170,21467
1568.22,1.328142,444181,20865
1571.27,1.330373,436947,20420
1574.32,1.328981,429598,20141
1577.36,1.327636,422039,19848
1580.4,1.322266,414375,19730
1583.43,1.324790,406354,19236
1586.46,1.324353,398475,18882
1590.49,1.333212,388982,18060
1593.51,1.323706,380708,18067
1596.53,1.332893,372727,17318
1599.54,1.322489,365060,17373
1602.55,1.324312,357543,16944
1605.55,1.334409,349495,16182
1608.55,1.329618,341154,15971
1612.54,1.317505,330877,15928
1615.53,1.305687,322904,15973
1618.51,1.314233,315116,15284
1621.49,1.305973,307217,15187
1624.47,1.306636,299481,14782
1627.44,1.306946,292112,14408
1630.41,1.303735,284245,14124
1634.36,1.296928,274079,13834
1637.32,1.314776,266916,12930
1640.27,1.318319,259612,12474
1643.22,1.320978,251804,12025
1646.16,1.299766,244348,12253
1649.1,1.304092,236703,11752
1652.04,1.304452,228171,11319
1655.95,1.298633,215408,10830
1658.88,1.295925,204937,10368
1661.8,1.284106,193395,10054
1664.72,1.268740,179728,9680
1667.63,1.250721,163642,9187
1670.54,1.253271,146312,8166
1673.44,1.217646,128451,7782
1677.31,1.219773,105080,6335
1680.21,1.159139,88906,6163
1683.1,1.139813,75033,5438
1685.99,1.139210,63520,4610
1688.87,1.136137,53714,3926
1691.75,1.133518,45653,3357
1694.62,1.146983,39137,2790
1697.49,1.164245,33776,2314
1701.31,1.117628,28175,2149