File: ML/samples/unknown/Column 1_078466_20241121_170403.csv
Method:,Column 1,,
Host Date-Time:,21/11/24 @ 17:4:3,,
Header Version:,1,,
System Temp (C):,34.74,,
Detector Temp (C):,33.79,,
Humidity (%):,1.86,,
Lamp PD:,3802,,
Shift Vector Coefficients:,-10.5391,0.0761263,-0.000134223,,
Pixel to Wavelength Coefficients:,1775.68,-0.916766,-0.000235065,,
Serial Number:,5510004,,
Scan Config Name:,Column 1,,
Scan Config Type:,Slew,,
Section 1,,
Start wavelength (nm):,900,,
End wavelength (nm):,1700,,
Pattern Pixel Width (nm):,   7.03,,,,
Exposure (ms):,  0.635,,,,
Digital Resolution:,228,,
Num Repeats:,6,,
PGA Gain:,64,,
Total Measurement Time in sec:,  2.726,,
Wavelength (nm),Absorbance (AU),Reference Signal (unitless),Sample Signal (unitless)
901.51,1.321124,108485,5179
905.376,1.301840,121306,6054
909.237,1.313213,131909,6413
913.095,1.324565,143299,6787
916.948,1.324335,156982,7439
922.079,1.315052,179937,8711
925.923,1.317821,200504,9645
929.762,1.316355,222660,10747
933.597,1.321039,244426,11671
937.427,1.323503,263972,12533
941.254,1.327467,281845,13260
945.076,1.309753,297271,14568
950.165,1.323053,315605,15000
953.978,1.305754,328029,16224
957.786,1.307598,340470,16768
961.59,1.310976,352317,17217
965.389,1.315820,363056,17545
969.185,1.309351,373162,18304
972.976,1.310104,382632,18736
976.763,1.304980,391202,19383
981.806,1.304768,400190,19838
985.583,1.309004,406088,19935
989.355,1.302198,410162,20453
993.124,1.304269,412868,20490
996.888,1.311087,414263,20239
1000.65,1.313173,415476,20201
1004.4,1.313951,415479,20165
1009.41,1.303530,414358,20599
1013.15,1.307646,412923,20334
1016.89,1.315762,411526,19890
1020.63,1.311176,409066,19981
1024.36,1.300621,406777,20358
1028.09,1.306419,404427,19972
1031.82,1.313628,401911,19521
1036.78,1.313604,398410,19352
1040.49,1.304424,396204,19656
1044.2,1.308066,394236,19395
1047.91,1.311232,392042,19147
1051.61,1.308064,389823,19178
1055.31,1.310134,388234,19009
1059,1.310224,387599,18974
1063.92,1.309042,386688,18981
1067.61,1.310752,386598,18902
1071.29,1.310089,387377,18969
1074.96,1.316337,388536,18754
1078.63,1.312698,389855,18976
1082.3,1.308685,391215,19219
1085.96,1.315260,393215,19027
1090.84,1.319443,396270,18991
1094.49,1.316868,398760,19224
1098.14,1.312695,400987,19518
1101.79,1.317145,403477,19439
1105.43,1.312204,406116,19790
1109.06,1.324717,407701,19303
1112.7,1.315421,409859,19825
1117.53,1.309186,412494,20241
1121.15,1.316120,414909,20037
1124.77,1.320278,416559,19925
1128.38,1.315647,418532,20234
1131.99,1.315558,419956,20307
1135.6,1.305734,421946,20870
1139.2,1.316444,423881,20455
1143.99,1.317124,426786,20563
1147.58,1.325258,428617,20268
1151.17,1.317692,431169,20747
1154.75,1.316880,433579,20902
1158.33,1.313967,436264,21173
1161.91,1.324052,439132,20823
1165.48,1.319448,442389,21201
1169.04,1.312593,446101,21719
1173.79,1.317292,451929,21766
1177.34,1.311757,456026,22245
1180.9,1.319616,461306,22099
1184.44,1.315608,467657,22611
1187.99,1.319112,473969,22732
1191.52,1.319138,479856,23013
1195.06,1.316608,487372,23510
1199.76,1.313275,497347,24176
1203.29,1.317164,504311,24296
1206.81,1.329582,511507,23948
1210.33,1.321815,519078,24741
1213.84,1.322929,527163,25062
1217.35,1.320031,534208,25567
1220.85,1.323923,540472,25636
1225.51,1.329850,549929,25731
1229.01,1.321736,556888,26548
1232.5,1.319913,562180,26913
1235.98,1.319425,567975,27221
1239.46,1.316907,574815,27709
1242.94,1.322212,582782,27752
1246.41,1.319905,591476,28316
1251.03,1.320752,604016,28860
1254.5,1.321990,612289,29172
1257.96,1.326812,619125,29172
1261.41,1.321906,624551,29762
1264.86,1.331013,629900,29394
1268.31,1.323802,634345,30097
1271.75,1.328568,638574,29967
1276.33,1.327894,642499,30198
1279.76,1.326952,645905,30424
1283.19,1.325053,648307,30671
1286.61,1.325366,650446,30750
1290.03,1.328969,652132,30575
1293.44,1.327643,653907,30752
1296.85,1.324804,655963,31051
1301.39,1.325371,657349,31076
1304.8,1.325691,657558,31063
1308.19,1.329648,658515,30826
1311.58,1.329023,658804,30884
1314.97,1.333015,659011,30611
1318.36,1.332769,658272,30594
1321.73,1.329986,658022,30779
1326.23,1.331979,657870,30631
1329.6,1.327996,656482,30848
1332.97,1.334735,654926,30301
1336.33,1.331296,653727,30486
1339.69,1.327384,652497,30704
1343.04,1.332187,649913,30246
1346.39,1.329282,647671,30344
1349.73,1.331278,645338,30096
1354.18,1.327416,641175,30169
1357.52,1.328622,638376,29954
1360.85,1.326246,635805,29997
1364.17,1.323308,633413,30087
1367.49,1.327759,631026,29668
1370.81,1.325589,628050,29676
1374.12,1.326686,625034,29459
1378.54,1.328719,620272,29098
1381.84,1.324930,616892,29193
1385.14,1.329317,613613,28746
1388.43,1.323209,611526,29054
1391.72,1.322013,610663,29093
1395.01,1.323922,610634,28964
1398.29,1.325160,611700,28932
1402.66,1.331034,614051,28653
1405.93,1.339151,616268,28224
1409.2,1.329781,617795,28911
1412.46,1.331575,618872,28842
1415.72,1.329940,619795,28994
1418.98,1.332036,620495,28887
1422.23,1.334288,621087,28765
1426.56,1.327540,621375,29229
1429.8,1.330481,621616,29043
1433.04,1.334443,622129,28803
1436.27,1.336304,621526,28652
1439.5,1.330234,621113,29036
1442.72,1.335578,620921,28672
1445.94,1.333596,620270,28773
1450.23,1.325274,618860,29263
1453.44,1.333621,617697,28652
1456.64,1.332915,616264,28632
1459.85,1.341054,614413,28016
1463.04,1.331683,612307,28529
1466.24,1.330965,610032,28470
1469.43,1.333525,607345,28178
1473.67,1.335406,603789,27892
1476.85,1.343061,601175,27286
1480.02,1.331997,597737,27830
1483.19,1.334393,594479,27526
1486.36,1.335866,591232,27283
1489.52,1.337198,587853,27044
1492.68,1.332742,583875,27138
1496.89,1.339746,578062,26438
1500.03,1.336065,574159,26483
1503.18,1.330639,570285,26635
1506.32,1.339929,565444,25850
1509.45,1.341614,560571,25528
1512.58,1.333012,555821,25818
1515.71,1.339320,550344,25195
1519.87,1.335462,543983,25126
1522.99,1.338052,538764,24737
1526.1,1.337186,533692,24553
1529.21,1.332325,527902,24560
1532.32,1.344057,521886,23633
1535.42,1.336143,515888,23791
1538.51,1.334776,509987,23593
1541.6,1.338087,503936,23136
1545.72,1.333043,494694,22977
1548.8,1.330764,488378,22803
1551.88,1.336093,481832,22223
1554.95,1.335863,474989,21919
1558.02,1.332199,467818,21771
1561.08,1.335904,460730,21259
1564.15,1.341941,454170,20667
1568.22,1.334241,444181,20574
1571.27,1.333297,436947,20283
1574.32,1.324306,429598,20359
1577.36,1.332078,422039,19646
1580.4,1.335656,414375,19131
1583.43,1.331043,406354,18961
1586.46,1.330911,398475,18599
1590.49,1.323110,388982,18485
1593.51,1.330514,380708,17786
1596.53,1.332617,372727,17329
1599.54,1.328328,365060,17141
1602.55,1.326239,357543,16869
1605.55,1.320491,349495,16709
1608.55,1.325478,341154,16124
1612.54,1.320021,330877,15836
1615.53,1.314892,322904,15638
1618.51,1.331597,315116,14685
1621.49,1.325090,307217,14533
1624.47,1.317705,299481,14410
1627.44,1.332810,292112,13575
1630.41,1.310772,284245,13897
1634.36,1.316973,274079,13210
1637.32,1.316830,266916,12869
1640.27,1.312028,259612,12656
1643.22,1.300864,251804,12595
1646.16,1.304721,244348,12114
1649.1,1.292604,236703,12067
1652.04,1.304031,228171,11330
1655.95,1.307096,215408,10621
1658.88,1.296386,204937,10357
1661.8,1.283330,193395,10072
1664.72,1.256967,179728,9946
1667.63,1.251762,163642,9165
1670.54,1.231590,146312,8584
1673.44,1.221514,128451,7713
1677.31,1.201450,105080,6608
1680.21,1.187154,88906,5778
1683.1,1.144551,75033,5379
1685.99,1.169240,63520,4302
1688.87,1.166014,53714,3665
1691.75,1.163509,45653,3133
1694.62,1.175282,39137,2614
1697.49,1.117662,33776,2576
1701.31,1.177326,28175,1873