File: ML/samples/unknown/Column 1_078724_20241121_171907.csv
Method:,Column 1,,
Host Date-Time:,21/11/24 @ 17:19:7,,
Header Version:,1,,
System Temp (C):,36.08,,
Detector Temp (C):,34.47,,
Humidity (%):,1.47,,
Lamp PD:,3799,,
Shift Vector Coefficients:,-10.5391,0.0761263,-0.000134223,,
Pixel to Wavelength Coefficients:,1775.68,-0.916766,-0.000235065,,
Serial Number:,5510004,,
Scan Config Name:,Column 1,,
Scan Config Type:,Slew,,
Section 1,,
Start wavelength (nm):,900,,
End wavelength (nm):,1700,,
Pattern Pixel Width (nm):,   7.03,,,,
Exposure (ms):,  0.635,,,,
Digital Resolution:,228,,
Num Repeats:,6,,
PGA Gain:,64,,
Total Measurement Time in sec:,  2.663,,
Wavelength (nm),Absorbance (AU),Reference Signal (unitless),Sample Signal (unitless)
901.51,1.313230,108485,5274
905.376,1.317841,121306,5835
909.237,1.325508,131909,6234
913.095,1.308856,143299,7037
916.948,1.321426,156982,7489
922.079,1.318355,179937,8645
925.923,1.329504,200504,9389
929.762,1.321968,222660,10609
933.597,1.305937,244426,12084
937.427,1.308082,263972,12986
941.254,1.306933,281845,13902
945.076,1.323903,297271,14101
950.165,1.309906,315605,15461
953.978,1.303512,328029,16308
957.786,1.310534,340470,16655
961.59,1.308486,352317,17316
965.389,1.311976,363056,17701
969.185,1.304468,373162,18511
972.976,1.303023,382632,19044
976.763,1.302411,391202,19498
981.806,1.305579,400190,19801
985.583,1.309964,406088,19891
989.355,1.303986,410162,20369
993.124,1.303846,412868,20510
996.888,1.299129,414263,20804
1000.65,1.300378,415476,20805
1004.4,1.298839,415479,20879
1009.41,1.309302,414358,20327
1013.15,1.301875,412923,20606
1016.89,1.301564,411526,20551
1020.63,1.304961,409066,20269
1024.36,1.306052,406777,20105
1028.09,1.313036,404427,19670
1031.82,1.308959,401911,19732
1036.78,1.306040,398410,19692
1040.49,1.299044,396204,19901
1044.2,1.300013,394236,19758
1047.91,1.302164,392042,19551
1051.61,1.313144,389823,18955
1055.31,1.302390,388234,19351
1059,1.295839,387599,19613
1063.92,1.305033,386688,19157
1067.61,1.307091,386598,19062
1071.29,1.313837,387377,18806
1074.96,1.304414,388536,19276
1078.63,1.305031,389855,19314
1082.3,1.300425,391215,19588
1085.96,1.311510,393215,19192
1090.84,1.309563,396270,19428
1094.49,1.309254,398760,19564
1098.14,1.313943,400987,19462
1101.79,1.302472,403477,20107
1105.43,1.316195,406116,19609
1109.06,1.318951,407701,19561
1112.7,1.303239,409859,20389
1117.53,1.307024,412494,20342
1121.15,1.303033,414909,20650
1124.77,1.313895,416559,20220
1128.38,1.308283,418532,20580
1131.99,1.306437,419956,20738
1135.6,1.307068,421946,20806
1139.2,1.317273,423881,20416
1143.99,1.310396,426786,20884
1147.58,1.314884,428617,20758
1151.17,1.313712,431169,20938
1154.75,1.314250,433579,21029
1158.33,1.312411,436264,21249
1161.91,1.310035,439132,21506
1165.48,1.315919,442389,21374
1169.04,1.315784,446101,21560
1173.79,1.319813,451929,21640
1177.34,1.308180,456026,22429
1180.9,1.313063,461306,22435
1184.44,1.319563,467657,22406
1187.99,1.317168,473969,22834
1191.52,1.312229,479856,23382
1195.06,1.319425,487372,23358
1199.76,1.308772,497347,24428
1203.29,1.319242,504311,24180
1206.81,1.323871,511507,24265
1210.33,1.311477,519078,25337
1213.84,1.312722,527163,25658
1217.35,1.314377,534208,25902
1220.85,1.317216,540472,26035
1225.51,1.315621,549929,26588
1229.01,1.322375,556888,26509
1232.5,1.322633,562180,26745
1235.98,1.318517,567975,27278
1239.46,1.323047,574815,27320
1242.94,1.315735,582782,28169
1246.41,1.315708,591476,28591
1251.03,1.319265,604016,28959
1254.5,1.321499,612289,29205
1257.96,1.320883,619125,29573
1261.41,1.318939,624551,29966
1264.86,1.319193,629900,30205
1268.31,1.324539,634345,30046
1271.75,1.319987,638574,30565
1276.33,1.322463,642499,30578
1279.76,1.326282,645905,30471
1283.19,1.322160,648307,30876
1286.61,1.324083,650446,30841
1290.03,1.325235,652132,30839
1293.44,1.323091,653907,31076
1296.85,1.323756,655963,31126
1301.39,1.327753,657349,30906
1304.8,1.326292,657558,31020
1308.19,1.323563,658515,31261
1311.58,1.327605,658804,30985
1314.97,1.331938,659011,30687
1318.36,1.321835,658272,31374
1321.73,1.325285,658022,31114
1326.23,1.328899,657870,30849
1329.6,1.327503,656482,30883
1332.97,1.323502,654926,31095
1336.33,1.321200,653727,31203
1339.69,1.323735,652497,30963
1343.04,1.323178,649913,30880
1346.39,1.322663,647671,30810
1349.73,1.322536,645338,30708
1354.18,1.324003,641175,30407
1357.52,1.325113,638376,30197
1360.85,1.325552,635805,30045
1364.17,1.321637,633413,30203
1367.49,1.325161,631026,29846
1370.81,1.319789,628050,30075
1374.12,1.329600,625034,29262
1378.54,1.322878,620272,29492
1381.84,1.319519,616892,29559
1385.14,1.317117,613613,29565
1388.43,1.317654,611526,29428
1391.72,1.316805,610663,29444
1395.01,1.322142,610634,29083
1398.29,1.322332,611700,29121
1402.66,1.323089,614051,29182
1405.93,1.323154,616268,29283
1409.2,1.326102,617795,29157
1412.46,1.328066,618872,29076
1415.72,1.325010,619795,29325
1418.98,1.328965,620495,29092
1422.23,1.327294,621087,29232
1426.56,1.323208,621375,29522
1429.8,1.329137,621616,29133
1433.04,1.325696,622129,29389
1436.27,1.327586,621526,29233
1439.5,1.329770,621113,29067
1442.72,1.332514,620921,28875
1445.94,1.331563,620270,28908
1450.23,1.328297,618860,29060
1453.44,1.325869,617697,29168
1456.64,1.329741,616264,28842
1459.85,1.332261,614413,28589
1463.04,1.325981,612307,28906
1466.24,1.330264,610032,28516
1469.43,1.325932,607345,28675
1473.67,1.333092,603789,28041
1476.85,1.329492,601175,28152
1480.02,1.324693,597737,28302
1483.19,1.335389,594479,27463
1486.36,1.332662,591232,27485
1489.52,1.333249,587853,27291
1492.68,1.332566,583875,27149
1496.89,1.335073,578062,26724
1500.03,1.341129,574159,26176
1503.18,1.328217,570285,26784
1506.32,1.329652,565444,26469
1509.45,1.332473,560571,26071
1512.58,1.328661,555821,26078
1515.71,1.332683,550344,25583
1519.87,1.323949,543983,25801
1522.99,1.332712,538764,25043
1526.1,1.331510,533692,24876
1529.21,1.329171,527902,24739
1532.32,1.331719,521886,24314
1535.42,1.329458,515888,24160
1538.51,1.333930,509987,23639
1541.6,1.325890,503936,23795
1545.72,1.335603,494694,22842
1548.8,1.327671,488378,22966
1551.88,1.328384,481832,22621
1554.95,1.329568,474989,22239
1558.02,1.325724,467818,22098
1561.08,1.327969,460730,21651
1564.15,1.325245,454170,21477
1568.22,1.327725,444181,20885
1571.27,1.327807,436947,20541
1574.32,1.323241,429598,20409
1577.36,1.329478,422039,19764
1580.4,1.323368,414375,19680
1583.43,1.328486,406354,19073
1586.46,1.327933,398475,18727
1590.49,1.325017,388982,18404
1593.51,1.325199,380708,18005
1596.53,1.312993,372727,18130
1599.54,1.326331,365060,17220
1602.55,1.330898,357543,16689
1605.55,1.316686,349495,16856
1608.55,1.332374,341154,15870
1612.54,1.310286,330877,16195
1615.53,1.318658,322904,15503
1618.51,1.317084,315116,15184
1621.49,1.319272,307217,14729
1624.47,1.304994,299481,14838
1627.44,1.339191,292112,13377
1630.41,1.318369,284245,13656
1634.36,1.307799,274079,13492
1637.32,1.298266,266916,13431
1640.27,1.315093,259612,12567
1643.22,1.322678,251804,11978
1646.16,1.308647,244348,12005
1649.1,1.299058,236703,11889
1652.04,1.312039,228171,11123
1655.95,1.292264,215408,10990
1658.88,1.274234,204937,10899
1661.8,1.284495,193395,10045
1664.72,1.247252,179728,10171
1667.63,1.265433,163642,8881
1670.54,1.217405,146312,8869
1673.44,1.224509,128451,7660
1677.31,1.178350,105080,6969
1680.21,1.174633,88906,5947
1683.1,1.164543,75033,5137
1685.99,1.147676,63520,4521
1688.87,1.141592,53714,3877
1691.75,1.121776,45653,3449
1694.62,1.197961,39137,2481
1697.49,1.157171,33776,2352
1701.31,1.177558,28175,1872