File: ML/samples/unknown/Column 1_078992_20241121_173202.csv
Method:,Column 1,,
Host Date-Time:,21/11/24 @ 17:32:2,,
Header Version:,1,,
System Temp (C):,37.77,,
Detector Temp (C):,36.96,,
Humidity (%):,0.98,,
Lamp PD:,3795,,
Shift Vector Coefficients:,-10.5391,0.0761263,-0.000134223,,
Pixel to Wavelength Coefficients:,1775.68,-0.916766,-0.000235065,,
Serial Number:,5510004,,
Scan Config Name:,Column 1,,
Scan Config Type:,Slew,,
Section 1,,
Start wavelength (nm):,900,,
End wavelength (nm):,1700,,
Pattern Pixel Width (nm):,   7.03,,,,
Exposure (ms):,  0.635,,,,
Digital Resolution:,228,,
Num Repeats:,6,,
PGA Gain:,64,,
Total Measurement Time in sec:,  2.723,,
Wavelength (nm),Absorbance (AU),Reference Signal (unitless),Sample Signal (unitless)
901.51,1.301932,108485,5413
905.376,1.313251,121306,5897
909.237,1.309639,131909,6466
913.095,1.354222,143299,6339
916.948,1.321542,156982,7487
922.079,1.326622,179937,8482
925.923,1.322575,200504,9540
929.762,1.327239,222660,10481
933.597,1.330139,244426,11429
937.427,1.326703,263972,12441
941.254,1.318392,281845,13540
945.076,1.317786,297271,14301
950.165,1.312470,315605,15370
953.978,1.314351,328029,15906
957.786,1.305763,340470,16839
961.59,1.308310,352317,17323
965.389,1.308068,363056,17861
969.185,1.310302,373162,18264
972.976,1.312102,382632,18650
976.763,1.296043,391202,19786
981.806,1.302258,400190,19953
985.583,1.306073,406088,20070
989.355,1.304348,410162,20352
993.124,1.302936,412868,20553
996.888,1.307369,414263,20413
1000.65,1.294119,415476,21107
1004.4,1.306351,415479,20521
1009.41,1.298103,414358,20858
1013.15,1.299270,412923,20730
1016.89,1.306452,411526,20321
1020.63,1.304897,409066,20272
1024.36,1.296439,406777,20555
1028.09,1.311317,404427,19748
1031.82,1.313984,401911,19505
1036.78,1.302264,398410,19864
1040.49,1.302660,396204,19736
1044.2,1.312410,394236,19202
1047.91,1.300811,392042,19612
1051.61,1.314061,389823,18915
1055.31,1.310020,388234,19014
1059,1.309675,387599,18998
1063.92,1.316193,386688,18671
1067.61,1.307684,386598,19036
1071.29,1.320751,387377,18509
1074.96,1.309719,388536,19042
1078.63,1.311259,389855,19039
1082.3,1.307106,391215,19289
1085.96,1.325211,393215,18596
1090.84,1.318758,396270,19021
1094.49,1.312127,398760,19435
1098.14,1.316809,400987,19334
1101.79,1.318353,403477,19385
1105.43,1.313655,406116,19724
1109.06,1.314335,407701,19770
1112.7,1.311496,409859,20005
1117.53,1.311509,412494,20133
1121.15,1.307217,414909,20452
1124.77,1.325475,416559,19688
1128.38,1.323138,418532,19888
1131.99,1.319144,419956,20140
1135.6,1.316223,421946,20372
1139.2,1.316381,423881,20458
1143.99,1.313360,426786,20742
1147.58,1.311528,428617,20919
1151.17,1.325358,431169,20384
1154.75,1.317275,433579,20883
1158.33,1.317096,436264,21021
1161.91,1.313971,439132,21312
1165.48,1.310949,442389,21620
1169.04,1.313154,446101,21691
1173.79,1.316474,451929,21807
1177.34,1.316547,456026,22001
1180.9,1.316015,461306,22283
1184.44,1.314533,467657,22667
1187.99,1.315460,473969,22924
1191.52,1.314259,479856,23273
1195.06,1.316941,487372,23492
1199.76,1.325056,497347,23529
1203.29,1.318578,504311,24217
1206.81,1.318641,511507,24559
1210.33,1.317223,519078,25004
1213.84,1.315251,527163,25509
1217.35,1.319301,534208,25610
1220.85,1.320733,540472,25825
1225.51,1.319229,549929,26368
1229.01,1.321834,556888,26542
1232.5,1.316186,562180,27145
1235.98,1.319329,567975,27227
1239.46,1.316829,574815,27714
1242.94,1.320447,582782,27865
1246.41,1.317946,591476,28444
1251.03,1.315606,604016,29204
1254.5,1.322243,612289,29155
1257.96,1.324555,619125,29324
1261.41,1.321818,624551,29768
1264.86,1.320546,629900,30111
1268.31,1.324857,634345,30024
1271.75,1.326400,638574,30117
1276.33,1.325342,642499,30376
1279.76,1.326924,645905,30426
1283.19,1.327638,648307,30489
1286.61,1.325677,650446,30728
1290.03,1.327693,652132,30665
1293.44,1.330008,653907,30585
1296.85,1.324049,655963,31105
1301.39,1.324143,657349,31164
1304.8,1.331971,657558,30617
1308.19,1.323368,658515,31275
1311.58,1.331519,658804,30707
1314.97,1.325811,659011,31123
1318.36,1.326106,658272,31067
1321.73,1.324323,658022,31183
1326.23,1.329660,657870,30795
1329.6,1.329618,656482,30733
1332.97,1.326206,654926,30902
1336.33,1.328782,653727,30663
1339.69,1.325436,652497,30842
1343.04,1.328456,649913,30507
1346.39,1.326187,647671,30561
1349.73,1.324648,645338,30559
1354.18,1.326438,641175,30237
1357.52,1.324567,638376,30235
1360.85,1.326391,635805,29987
1364.17,1.321752,633413,30195
1367.49,1.323737,631026,29944
1370.81,1.325501,628050,29682
1374.12,1.325596,625034,29533
1378.54,1.325552,620272,29311
1381.84,1.325124,616892,29180
1385.14,1.327628,613613,28858
1388.43,1.320408,611526,29242
1391.72,1.320181,610663,29216
1395.01,1.323099,610634,29019
1398.29,1.322541,611700,29107
1402.66,1.321544,614051,29286
1405.93,1.328631,616268,28916
1409.2,1.330458,617795,28866
1412.46,1.330793,618872,28894
1415.72,1.330720,619795,28942
1418.98,1.331345,620495,28933
1422.23,1.325382,621087,29361
1426.56,1.329520,621375,29096
1429.8,1.331274,621616,28990
1433.04,1.333028,622129,28897
1436.27,1.330508,621526,29037
1439.5,1.330833,621113,28996
1442.72,1.334761,620921,28726
1445.94,1.330378,620270,28987
1450.23,1.331853,618860,28823
1453.44,1.333257,617697,28676
1456.64,1.333006,616264,28626
1459.85,1.332353,614413,28583
1463.04,1.329723,612307,28658
1466.24,1.334934,610032,28211
1469.43,1.353151,607345,26933
1473.67,1.332550,603789,28076
1476.85,1.325010,601175,28444
1480.02,1.328748,597737,28039
1483.19,1.325059,594479,28124
1486.36,1.337189,591232,27200
1489.52,1.336877,587853,27064
1492.68,1.334410,583875,27034
1496.89,1.332933,578062,26856
1500.03,1.332001,574159,26732
1503.18,1.330004,570285,26674
1506.32,1.334802,565444,26157
1509.45,1.334560,560571,25946
1512.58,1.333315,555821,25800
1515.71,1.334469,550344,25478
1519.87,1.339857,543983,24873
1522.99,1.332106,538764,25078
1526.1,1.327496,533692,25107
1529.21,1.335912,527902,24358
1532.32,1.331630,521886,24319
1535.42,1.328561,515888,24210
1538.51,1.333287,509987,23674
1541.6,1.333661,503936,23373
1545.72,1.324435,494694,23437
1548.8,1.326821,488378,23011
1551.88,1.330983,481832,22486
1554.95,1.332881,474989,22070
1558.02,1.329613,467818,21901
1561.08,1.324114,460730,21844
1564.15,1.329533,454170,21266
1568.22,1.330291,444181,20762
1571.27,1.327807,436947,20541
1574.32,1.330991,429598,20048
1577.36,1.330622,422039,19712
1580.4,1.335542,414375,19136
1583.43,1.326532,406354,19159
1586.46,1.336836,398475,18347
1590.49,1.320767,388982,18585
1593.51,1.325127,380708,18008
1596.53,1.332242,372727,17344
1599.54,1.327038,365060,17192
1602.55,1.328433,357543,16784
1605.55,1.327038,349495,16459
1608.55,1.318637,341154,16380
1612.54,1.318406,330877,15895
1615.53,1.319555,322904,15471
1618.51,1.315942,315116,15224
1621.49,1.305602,307217,15200
1624.47,1.317977,299481,14401
1627.44,1.320011,292112,13981
1630.41,1.312118,284245,13854
1634.36,1.299889,274079,13740
1637.32,1.308938,266916,13105
1640.27,1.322447,259612,12356
1643.22,1.308412,251804,12378
1646.16,1.312754,244348,11892
1649.1,1.291454,236703,12099
1652.04,1.317144,228171,10993
1655.95,1.272375,215408,11505
1658.88,1.272603,204937,10940
1661.8,1.272681,193395,10322
1664.72,1.265878,179728,9744
1667.63,1.230043,163642,9635
1670.54,1.222677,146312,8762
1673.44,1.186064,128451,8369
1677.31,1.169528,105080,7112
1680.21,1.184680,88906,5811
1683.1,1.134732,75033,5502
1685.99,1.129429,63520,4715
1688.87,1.112353,53714,4147
1691.75,1.139904,45653,3308
1694.62,1.099129,39137,3115
1697.49,1.151484,33776,2383
1701.31,1.112405,28175,2175