File: ML/samples/unknown/Column 1_078109_20241121_164554.csv
Method:,Column 1,,
Host Date-Time:,21/11/24 @ 16:45:54,,
Header Version:,1,,
System Temp (C):,32.53,,
Detector Temp (C):,27.84,,
Humidity (%):,4.1,,
Lamp PD:,3807,,
Shift Vector Coefficients:,-10.5391,0.0761263,-0.000134223,,
Pixel to Wavelength Coefficients:,1775.68,-0.916766,-0.000235065,,
Serial Number:,5510004,,
Scan Config Name:,Column 1,,
Scan Config Type:,Slew,,
Section 1,,
Start wavelength (nm):,900,,
End wavelength (nm):,1700,,
Pattern Pixel Width (nm):,   7.03,,,,
Exposure (ms):,  0.635,,,,
Digital Resolution:,228,,
Num Repeats:,6,,
PGA Gain:,64,,
Total Measurement Time in sec:,  2.726,,
Wavelength (nm),Absorbance (AU),Reference Signal (unitless),Sample Signal (unitless)
901.51,1.300330,108485,5433
905.376,1.326866,121306,5715
909.237,1.303834,131909,6553
913.095,1.328486,143299,6726
916.948,1.303644,156982,7802
922.079,1.301602,179937,8985
925.923,1.315486,200504,9697
929.762,1.307752,222660,10962
933.597,1.317519,244426,11766
937.427,1.311406,263972,12887
941.254,1.317815,281845,13558
945.076,1.317058,297271,14325
950.165,1.321175,315605,15065
953.978,1.321731,328029,15638
957.786,1.321279,340470,16248
961.59,1.311430,352317,17199
965.389,1.308676,363056,17836
969.185,1.317567,373162,17961
972.976,1.306894,382632,18875
976.763,1.297781,391202,19707
981.806,1.312610,400190,19483
985.583,1.307873,406088,19987
989.355,1.311448,410162,20022
993.124,1.313848,412868,20043
996.888,1.311925,414263,20200
1000.65,1.304257,415476,20620
1004.4,1.307495,415479,20467
1009.41,1.310865,414358,20254
1013.15,1.304264,412923,20493
1016.89,1.308573,411526,20222
1020.63,1.310633,409066,20006
1024.36,1.315773,406777,19660
1028.09,1.308074,404427,19896
1031.82,1.311011,401911,19639
1036.78,1.312999,398410,19379
1040.49,1.309491,396204,19428
1044.2,1.315565,394236,19063
1047.91,1.311118,392042,19152
1051.61,1.307770,389823,19191
1055.31,1.320071,388234,18579
1059,1.323329,387599,18410
1063.92,1.311842,386688,18859
1067.61,1.314745,386598,18729
1071.29,1.321103,387377,18494
1074.96,1.309103,388536,19069
1078.63,1.310666,389855,19065
1082.3,1.315793,391215,18907
1085.96,1.306784,393215,19402
1090.84,1.314622,396270,19203
1094.49,1.319133,398760,19124
1098.14,1.321143,400987,19142
1101.79,1.322608,403477,19196
1105.43,1.313611,406116,19726
1109.06,1.316957,407701,19651
1112.7,1.313738,409859,19902
1117.53,1.323849,412494,19569
1121.15,1.318511,414909,19927
1124.77,1.318864,416559,19990
1128.38,1.318079,418532,20121
1131.99,1.319317,419956,20132
1135.6,1.325989,421946,19919
1139.2,1.314115,423881,20565
1143.99,1.326906,426786,20105
1147.58,1.320803,428617,20477
1151.17,1.322174,431169,20534
1154.75,1.320176,433579,20744
1158.33,1.317985,436264,20978
1161.91,1.325368,439132,20760
1165.48,1.314965,442389,21421
1169.04,1.325212,446101,21097
1173.79,1.317551,451929,21753
1177.34,1.325724,456026,21541
1180.9,1.318419,461306,22160
1184.44,1.315723,467657,22605
1187.99,1.324572,473969,22448
1191.52,1.317010,479856,23126
1195.06,1.320207,487372,23316
1199.76,1.325351,497347,23513
1203.29,1.326322,504311,23789
1206.81,1.327646,511507,24055
1210.33,1.322219,519078,24718
1213.84,1.331787,527163,24556
1217.35,1.329718,534208,25003
1220.85,1.328898,540472,25344
1225.51,1.322155,549929,26191
1229.01,1.327881,556888,26175
1232.5,1.322876,562180,26730
1235.98,1.318039,567975,27308
1239.46,1.320290,574815,27494
1242.94,1.321836,582782,27776
1246.41,1.328393,591476,27768
1251.03,1.321204,604016,28830
1254.5,1.331229,612289,28558
1257.96,1.325281,619125,29275
1261.41,1.329591,624551,29240
1264.86,1.326808,629900,29680
1268.31,1.331371,634345,29577
1271.75,1.336967,638574,29393
1276.33,1.329566,642499,30082
1279.76,1.328396,645905,30323
1283.19,1.329737,648307,30342
1286.61,1.331697,650446,30305
1290.03,1.328926,652132,30578
1293.44,1.333271,653907,30356
1296.85,1.337203,655963,30177
1301.39,1.334665,657349,30418
1304.8,1.329948,657558,30760
1308.19,1.334864,658515,30458
1311.58,1.333489,658804,30568
1314.97,1.329229,659011,30879
1318.36,1.335789,658272,30382
1321.73,1.329408,658022,30820
1326.23,1.331341,657870,30676
1329.6,1.332055,656482,30561
1332.97,1.329563,654926,30664
1336.33,1.336844,653727,30099
1339.69,1.340275,652497,29806
1343.04,1.331126,649913,30320
1346.39,1.329296,647671,30343
1349.73,1.332999,645338,29977
1354.18,1.330681,641175,29943
1357.52,1.331969,638376,29724
1360.85,1.328933,635805,29812
1364.17,1.329765,633413,29643
1367.49,1.333224,631026,29297
1370.81,1.330682,628050,29330
1374.12,1.320799,625034,29861
1378.54,1.330979,620272,28947
1381.84,1.329853,616892,28864
1385.14,1.327177,613613,28888
1388.43,1.328563,611526,28698
1391.72,1.331216,610663,28483
1395.01,1.327551,610634,28723
1398.29,1.333266,611700,28397
1402.66,1.332857,614051,28533
1405.93,1.332130,616268,28684
1409.2,1.335193,617795,28553
1412.46,1.331365,618872,28856
1415.72,1.333912,619795,28730
1418.98,1.338778,620495,28442
1422.23,1.338918,621087,28460
1426.56,1.331300,621375,28977
1429.8,1.332309,621616,28921
1433.04,1.337925,622129,28573
1436.27,1.335820,621526,28684
1439.5,1.327758,621113,29202
1442.72,1.335730,620921,28662
1445.94,1.332586,620270,28840
1450.23,1.331612,618860,28839
1453.44,1.334577,617697,28589
1456.64,1.342904,616264,27981
1459.85,1.334760,614413,28425
1463.04,1.333896,612307,28384
1466.24,1.335643,610032,28165
1469.43,1.337551,607345,27918
1473.67,1.340370,603789,27575
1476.85,1.332091,601175,27984
1480.02,1.334517,597737,27669
1483.19,1.337513,594479,27329
1486.36,1.345947,591232,26657
1489.52,1.334572,587853,27208
1492.68,1.342468,583875,26537
1496.89,1.340469,578062,26394
1500.03,1.338878,574159,26312
1503.18,1.341553,570285,25974
1506.32,1.343624,565444,25631
1509.45,1.340187,560571,25612
1512.58,1.342846,555821,25240
1515.71,1.337960,550344,25274
1519.87,1.341029,543983,24806
1522.99,1.336474,538764,24827
1526.1,1.334646,533692,24697
1529.21,1.336929,527902,24301
1532.32,1.336009,521886,24075
1535.42,1.342561,515888,23442
1538.51,1.335052,509987,23578
1541.6,1.337299,503936,23178
1545.72,1.334748,494694,22887
1548.8,1.334898,488378,22587
1551.88,1.340177,481832,22015
1554.95,1.329764,474989,22229
1558.02,1.342882,467818,21242
1561.08,1.336763,460730,21217
1564.15,1.340452,454170,20738
1568.22,1.332535,444181,20655
1571.27,1.337017,436947,20110
1574.32,1.341161,429598,19584
1577.36,1.336612,422039,19442
1580.4,1.339029,414375,18983
1583.43,1.338645,406354,18632
1586.46,1.335890,398475,18387
1590.49,1.342742,388982,17668
1593.51,1.331100,380708,17762
1596.53,1.318077,372727,17919
1599.54,1.323491,365060,17333
1602.55,1.323672,357543,16969
1605.55,1.324040,349495,16573
1608.55,1.331635,341154,15897
1612.54,1.328747,330877,15521
1615.53,1.328288,322904,15163
1618.51,1.324905,315116,14913
1621.49,1.317683,307217,14783
1624.47,1.321215,299481,14294
1627.44,1.321785,292112,13924
1630.41,1.322491,284245,13527
1634.36,1.315824,274079,13245
1637.32,1.325212,266916,12623
1640.27,1.328606,259612,12182
1643.22,1.315201,251804,12186
1646.16,1.319749,244348,11702
1649.1,1.340619,236703,10804
1652.04,1.315016,228171,11047
1655.95,1.297272,215408,10864
1658.88,1.304385,204937,10168
1661.8,1.293936,193395,9829
1664.72,1.300228,179728,9003
1667.63,1.305785,163642,8093
1670.54,1.298756,146312,7354
1673.44,1.297833,128451,6470
1677.31,1.302686,105080,5234
1680.21,1.292641,88906,4532
1683.1,1.300642,75033,3755
1685.99,1.297489,63520,3202
1688.87,1.289336,53714,2759
1691.75,1.292300,45653,2329
1694.62,1.232183,39137,2293
1697.49,1.211799,33776,2074
1701.31,1.152760,28175,1982