File: ML/samples/unknown/Column 1_078951_20241121_173003.csv
Method:,Column 1,,
Host Date-Time:,21/11/24 @ 17:30:3,,
Header Version:,1,,
System Temp (C):,37.83,,
Detector Temp (C):,36.7,,
Humidity (%):,0.48,,
Lamp PD:,3795,,
Shift Vector Coefficients:,-10.5391,0.0761263,-0.000134223,,
Pixel to Wavelength Coefficients:,1775.68,-0.916766,-0.000235065,,
Serial Number:,5510004,,
Scan Config Name:,Column 1,,
Scan Config Type:,Slew,,
Section 1,,
Start wavelength (nm):,900,,
End wavelength (nm):,1700,,
Pattern Pixel Width (nm):,   7.03,,,,
Exposure (ms):,  0.635,,,,
Digital Resolution:,228,,
Num Repeats:,6,,
PGA Gain:,64,,
Total Measurement Time in sec:,  2.721,,
Wavelength (nm),Absorbance (AU),Reference Signal (unitless),Sample Signal (unitless)
901.51,1.325252,108485,5130
905.376,1.335307,121306,5605
909.237,1.329778,131909,6173
913.095,1.331662,143299,6677
916.948,1.336231,156982,7238
922.079,1.326315,179937,8488
925.923,1.334809,200504,9275
929.762,1.322582,222660,10594
933.597,1.329759,244426,11439
937.427,1.321256,263972,12598
941.254,1.314941,281845,13648
945.076,1.324581,297271,14079
950.165,1.321232,315605,15063
953.978,1.324014,328029,15556
957.786,1.311892,340470,16603
961.59,1.310976,352317,17217
965.389,1.314362,363056,17604
969.185,1.309185,373162,18311
972.976,1.310406,382632,18723
976.763,1.301254,391202,19550
981.806,1.304659,400190,19843
985.583,1.308003,406088,19981
989.355,1.310841,410162,20050
993.124,1.311860,412868,20135
996.888,1.314145,414263,20097
1000.65,1.307725,415476,20456
1004.4,1.303692,415479,20647
1009.41,1.305389,414358,20511
1013.15,1.307668,412923,20333
1016.89,1.300614,411526,20596
1020.63,1.298538,409066,20571
1024.36,1.309152,406777,19962
1028.09,1.311779,404427,19727
1031.82,1.314051,401911,19502
1036.78,1.312394,398410,19406
1040.49,1.311036,396204,19359
1044.2,1.311190,394236,19256
1047.91,1.317262,392042,18883
1051.61,1.314613,389823,18891
1055.31,1.308697,388234,19072
1059,1.314179,387599,18802
1063.92,1.312626,386688,18825
1067.61,1.309719,386598,18947
1071.29,1.310456,387377,18953
1074.96,1.306062,388536,19203
1078.63,1.321017,389855,18616
1082.3,1.305488,391215,19361
1085.96,1.311872,393215,19176
1090.84,1.319238,396270,19000
1094.49,1.309032,398760,19574
1098.14,1.318474,400987,19260
1101.79,1.307861,403477,19859
1105.43,1.318549,406116,19503
1109.06,1.324155,407701,19328
1112.7,1.319670,409859,19632
1117.53,1.317657,412494,19850
1121.15,1.322188,414909,19759
1124.77,1.317389,416559,20058
1128.38,1.318878,418532,20084
1131.99,1.321545,419956,20029
1135.6,1.316991,421946,20336
1139.2,1.312051,423881,20663
1143.99,1.317462,426786,20547
1147.58,1.314445,428617,20779
1151.17,1.313484,431169,20949
1154.75,1.313754,433579,21053
1158.33,1.315570,436264,21095
1161.91,1.321266,439132,20957
1165.48,1.320864,442389,21132
1169.04,1.316732,446101,21513
1173.79,1.320215,451929,21620
1177.34,1.319220,456026,21866
1180.9,1.320561,461306,22051
1184.44,1.315954,467657,22593
1187.99,1.318597,473969,22759
1191.52,1.310727,479856,23463
1195.06,1.319444,487372,23357
1199.76,1.324042,497347,23584
1203.29,1.320051,504311,24135
1206.81,1.323835,511507,24267
1210.33,1.325801,519078,24515
1213.84,1.320010,527163,25231
1217.35,1.314394,534208,25901
1220.85,1.320935,540472,25813
1225.51,1.326772,549929,25914
1229.01,1.316290,556888,26883
1232.5,1.319607,562180,26932
1235.98,1.323835,567975,26946
1239.46,1.324895,574815,27204
1242.94,1.314211,582782,28268
1246.41,1.317702,591476,28460
1251.03,1.324941,604016,28583
1254.5,1.321514,612289,29204
1257.96,1.325994,619125,29227
1261.41,1.326689,624551,29436
1264.86,1.317414,629900,30329
1268.31,1.322707,634345,30173
1271.75,1.328032,638574,30004
1276.33,1.325256,642499,30382
1279.76,1.318933,645905,30991
1283.19,1.320419,648307,31000
1286.61,1.320968,650446,31063
1290.03,1.332893,652132,30300
1293.44,1.324533,653907,30973
1296.85,1.331044,655963,30608
1301.39,1.323711,657349,31195
1304.8,1.330428,657558,30726
1308.19,1.331569,658515,30690
1311.58,1.327493,658804,30993
1314.97,1.329455,659011,30863
1318.36,1.326750,658272,31021
1321.73,1.319324,658022,31544
1326.23,1.329364,657870,30816
1329.6,1.331558,656482,30596
1332.97,1.328079,654926,30769
1336.33,1.331267,653727,30488
1339.69,1.333122,652497,30301
1343.04,1.328228,649913,30523
1346.39,1.330098,647671,30287
1349.73,1.328187,645338,30311
1354.18,1.328352,641175,30104
1357.52,1.328303,638376,29976
1360.85,1.326565,635805,29975
1364.17,1.326466,633413,29869
1367.49,1.325205,631026,29843
1370.81,1.329381,628050,29418
1374.12,1.325905,625034,29512
1378.54,1.330034,620272,29010
1381.84,1.329176,616892,28909
1385.14,1.325272,613613,29015
1388.43,1.329290,611526,28650
1391.72,1.328132,610663,28686
1395.01,1.331897,610634,28437
1398.29,1.329171,611700,28666
1402.66,1.326616,614051,28946
1405.93,1.328992,616268,28892
1409.2,1.331090,617795,28824
1412.46,1.331726,618872,28832
1415.72,1.332388,619795,28831
1418.98,1.338564,620495,28456
1422.23,1.329304,621087,29097
1426.56,1.334067,621375,28793
1429.8,1.333452,621616,28845
1433.04,1.335046,622129,28763
1436.27,1.333976,621526,28806
1439.5,1.334095,621113,28779
1442.72,1.337948,620921,28516
1445.94,1.337431,620270,28520
1450.23,1.332819,618860,28759
1453.44,1.334121,617697,28619
1456.64,1.334937,616264,28499
1459.85,1.327277,614413,28919
1463.04,1.334569,612307,28340
1466.24,1.336986,610032,28078
1469.43,1.335983,607345,28019
1473.67,1.332736,603789,28064
1476.85,1.335394,601175,27772
1480.02,1.332075,597737,27825
1483.19,1.331155,594479,27732
1486.36,1.332836,591232,27474
1489.52,1.336332,587853,27098
1492.68,1.336261,583875,26919
1496.89,1.336114,578062,26660
1500.03,1.340383,574159,26221
1503.18,1.328265,570285,26781
1506.32,1.331906,565444,26332
1509.45,1.337938,560571,25745
1512.58,1.334765,555821,25714
1515.71,1.332564,550344,25590
1519.87,1.330923,543983,25390
1522.99,1.336247,538764,24840
1526.1,1.336886,533692,24570
1529.21,1.340915,527902,24079
1532.32,1.336804,521886,24031
1535.42,1.338743,515888,23649
1538.51,1.336196,509987,23516
1541.6,1.335187,503936,23291
1545.72,1.334368,494694,22907
1548.8,1.332501,488378,22712
1551.88,1.340295,481832,22009
1554.95,1.332350,474989,22097
1558.02,1.333257,467818,21718
1561.08,1.329516,460730,21574
1564.15,1.338633,454170,20825
1568.22,1.329873,444181,20782
1571.27,1.331566,436947,20364
1574.32,1.330558,429598,20068
1577.36,1.329588,422039,19759
1580.4,1.326625,414375,19533
1583.43,1.327530,406354,19115
1586.46,1.323939,398475,18900
1590.49,1.335792,388982,17953
1593.51,1.328954,380708,17850
1596.53,1.326644,372727,17569
1599.54,1.317222,365060,17585
1602.55,1.332776,357543,16617
1605.55,1.328942,349495,16387
1608.55,1.325963,341154,16106
1612.54,1.317424,330877,15931
1615.53,1.320933,322904,15422
1618.51,1.324004,315116,14944
1621.49,1.316216,307217,14833
1624.47,1.322037,299481,14267
1627.44,1.316176,292112,14105
1630.41,1.325682,284245,13428
1634.36,1.313339,274079,13321
1637.32,1.312064,266916,13011
1640.27,1.310521,259612,12700
1643.22,1.307396,251804,12407
1646.16,1.317306,244348,11768
1649.1,1.292532,236703,12069
1652.04,1.309663,228171,11184
1655.95,1.284199,215408,11196
1658.88,1.284965,204937,10633
1661.8,1.265628,193395,10491
1664.72,1.271802,179728,9612
1667.63,1.246487,163642,9277
1670.54,1.234586,146312,8525
1673.44,1.201703,128451,8073
1677.31,1.162082,105080,7235
1680.21,1.167391,88906,6047
1683.1,1.167682,75033,5100
1685.99,1.146716,63520,4531
1688.87,1.141144,53714,3881
1691.75,1.135983,45653,3338
1694.62,1.145895,39137,2797
1697.49,1.167069,33776,2299
1701.31,1.175937,28175,1879