File: ML/samples/unknown/Column 1_078498_20241121_170537.csv
Method:,Column 1,,
Host Date-Time:,21/11/24 @ 17:5:37,,
Header Version:,1,,
System Temp (C):,34.63,,
Detector Temp (C):,33.87,,
Humidity (%):,1.71,,
Lamp PD:,3801,,
Shift Vector Coefficients:,-10.5391,0.0761263,-0.000134223,,
Pixel to Wavelength Coefficients:,1775.68,-0.916766,-0.000235065,,
Serial Number:,5510004,,
Scan Config Name:,Column 1,,
Scan Config Type:,Slew,,
Section 1,,
Start wavelength (nm):,900,,
End wavelength (nm):,1700,,
Pattern Pixel Width (nm):,   7.03,,,,
Exposure (ms):,  0.635,,,,
Digital Resolution:,228,,
Num Repeats:,6,,
PGA Gain:,64,,
Total Measurement Time in sec:,  2.669,,
Wavelength (nm),Absorbance (AU),Reference Signal (unitless),Sample Signal (unitless)
901.51,1.316370,108485,5236
905.376,1.308126,121306,5967
909.237,1.315931,131909,6373
913.095,1.318718,143299,6879
916.948,1.326970,156982,7394
922.079,1.313311,179937,8746
925.923,1.327611,200504,9430
929.762,1.325049,222660,10534
933.597,1.322493,244426,11632
937.427,1.331512,263972,12304
941.254,1.323911,281845,13369
945.076,1.305953,297271,14696
950.165,1.310103,315605,15454
953.978,1.305808,328029,16222
957.786,1.313675,340470,16535
961.59,1.315286,352317,17047
965.389,1.313771,363056,17628
969.185,1.306914,373162,18407
972.976,1.312802,382632,18620
976.763,1.307272,391202,19281
981.806,1.300737,400190,20023
985.583,1.305057,406088,20117
989.355,1.306638,410162,20245
993.124,1.307097,412868,20357
996.888,1.299526,414263,20785
1000.65,1.318168,415476,19970
1004.4,1.303966,415479,20634
1009.41,1.305304,414358,20515
1013.15,1.300760,412923,20659
1016.89,1.299877,411526,20631
1020.63,1.311394,409066,19971
1024.36,1.316370,406777,19633
1028.09,1.310504,404427,19785
1031.82,1.305976,401911,19868
1036.78,1.309295,398410,19545
1040.49,1.299918,396204,19861
1044.2,1.308559,394236,19373
1047.91,1.306136,392042,19373
1051.61,1.309607,389823,19110
1055.31,1.313322,388234,18870
1059,1.307054,387599,19113
1063.92,1.298798,386688,19434
1067.61,1.308323,386598,19008
1071.29,1.321690,387377,18469
1074.96,1.316453,388536,18749
1078.63,1.307828,389855,19190
1082.3,1.319206,391215,18759
1085.96,1.325000,393215,18605
1090.84,1.307645,396270,19514
1094.49,1.319565,398760,19105
1098.14,1.315127,400987,19409
1101.79,1.316096,403477,19486
1105.43,1.315929,406116,19621
1109.06,1.303788,407701,20256
1112.7,1.323023,409859,19481
1117.53,1.316979,412494,19881
1121.15,1.315968,414909,20044
1124.77,1.316697,416559,20090
1128.38,1.322745,418532,19906
1131.99,1.319489,419956,20124
1135.6,1.324683,421946,19979
1139.2,1.312114,423881,20660
1143.99,1.318456,426786,20500
1147.58,1.305611,428617,21206
1151.17,1.319601,431169,20656
1154.75,1.323750,433579,20574
1158.33,1.311553,436264,21291
1161.91,1.320148,439132,21011
1165.48,1.314033,442389,21467
1169.04,1.312114,446101,21743
1173.79,1.310757,451929,22096
1177.34,1.320374,456026,21808
1180.9,1.317617,461306,22201
1184.44,1.312431,467657,22777
1187.99,1.319858,473969,22693
1191.52,1.312712,479856,23356
1195.06,1.319499,487372,23354
1199.76,1.318734,497347,23874
1203.29,1.318757,504311,24207
1206.81,1.318889,511507,24545
1210.33,1.316928,519078,25021
1213.84,1.323762,527163,25014
1217.35,1.319555,534208,25595
1220.85,1.321692,540472,25768
1225.51,1.315294,549929,26608
1229.01,1.323490,556888,26441
1232.5,1.343420,562180,25495
1235.98,1.319218,567975,27234
1239.46,1.318462,574815,27610
1242.94,1.318689,582782,27978
1246.41,1.321596,591476,28206
1251.03,1.322018,604016,28776
1254.5,1.327956,612289,28774
1257.96,1.324911,619125,29300
1261.41,1.328997,624551,29280
1264.86,1.330304,629900,29442
1268.31,1.325277,634345,29995
1271.75,1.323181,638574,30341
1276.33,1.326545,642499,30292
1279.76,1.328396,645905,30323
1283.19,1.322709,648307,30837
1286.61,1.328897,650446,30501
1290.03,1.324237,652132,30910
1293.44,1.327177,653907,30785
1296.85,1.329798,655963,30696
1301.39,1.334437,657349,30434
1304.8,1.326390,657558,31013
1308.19,1.334351,658515,30494
1311.58,1.331476,658804,30710
1314.97,1.326579,659011,31068
1318.36,1.319985,658272,31508
1321.73,1.331527,658022,30670
1326.23,1.331285,657870,30680
1329.6,1.332411,656482,30536
1332.97,1.330996,654926,30563
1336.33,1.325944,653727,30864
1339.69,1.332091,652497,30373
1343.04,1.332015,649913,30258
1346.39,1.326400,647671,30546
1349.73,1.327543,645338,30356
1354.18,1.325405,641175,30309
1357.52,1.324423,638376,30245
1360.85,1.327319,635805,29923
1364.17,1.327310,633413,29811
1367.49,1.327335,631026,29697
1370.81,1.328128,628050,29503
1374.12,1.332220,625034,29086
1378.54,1.327214,620272,29199
1381.84,1.321596,616892,29418
1385.14,1.324225,613613,29085
1388.43,1.327989,611526,28736
1391.72,1.328647,610663,28652
1395.01,1.330967,610634,28498
1398.29,1.332869,611700,28423
1402.66,1.329521,614051,28753
1405.93,1.331676,616268,28714
1409.2,1.327250,617795,29080
1412.46,1.327932,618872,29085
1415.72,1.326211,619795,29244
1418.98,1.333105,620495,28816
1422.23,1.337866,621087,28529
1426.56,1.330417,621375,29036
1429.8,1.329018,621616,29141
1433.04,1.330779,622129,29047
1436.27,1.332952,621526,28874
1439.5,1.335910,621113,28659
1442.72,1.331778,620921,28924
1445.94,1.335941,620270,28618
1450.23,1.329149,618860,29003
1453.44,1.337258,617697,28413
1456.64,1.333735,616264,28578
1459.85,1.332976,614413,28542
1463.04,1.336474,612307,28216
1466.24,1.331041,610032,28465
1469.43,1.331741,607345,28294
1473.67,1.336997,603789,27790
1476.85,1.330774,601175,28069
1480.02,1.336105,597737,27568
1483.19,1.337290,594479,27343
1486.36,1.330896,591232,27597
1489.52,1.332645,587853,27329
1492.68,1.340069,583875,26684
1496.89,1.336017,578062,26666
1500.03,1.339771,574159,26258
1503.18,1.330835,570285,26623
1506.32,1.339946,565444,25849
1509.45,1.336758,560571,25815
1512.58,1.337731,555821,25539
1515.71,1.337376,550344,25308
1519.87,1.334564,543983,25178
1522.99,1.335635,538764,24875
1526.1,1.336762,533692,24577
1529.21,1.330684,527902,24653
1532.32,1.339560,521886,23879
1535.42,1.339662,515888,23599
1538.51,1.335974,509987,23528
1541.6,1.339215,503936,23076
1545.72,1.335127,494694,22867
1548.8,1.328883,488378,22902
1551.88,1.335312,481832,22263
1554.95,1.335744,474989,21925
1558.02,1.331939,467818,21784
1561.08,1.335924,460730,21258
1564.15,1.339949,454170,20762
1568.22,1.337653,444181,20413
1571.27,1.338856,436947,20025
1574.32,1.322581,429598,20440
1577.36,1.329060,422039,19783
1580.4,1.330802,414375,19346
1583.43,1.330357,406354,18991
1586.46,1.328652,398475,18696
1590.49,1.324781,388982,18414
1593.51,1.329246,380708,17838
1596.53,1.326372,372727,17580
1599.54,1.325978,365060,17234
1602.55,1.319926,357543,17116
1605.55,1.321766,349495,16660
1608.55,1.325155,341154,16136
1612.54,1.314435,330877,16041
1615.53,1.319415,322904,15476
1618.51,1.318689,315116,15128
1621.49,1.329505,307217,14386
1624.47,1.312582,299481,14581
1627.44,1.318182,292112,14040
1630.41,1.328016,284245,13356
1634.36,1.317466,274079,13195
1637.32,1.314776,266916,12930
1640.27,1.320553,259612,12410
1643.22,1.300761,251804,12598
1646.16,1.312243,244348,11906
1649.1,1.324986,236703,11200
1652.04,1.288112,228171,11753
1655.95,1.302662,215408,10730
1658.88,1.291218,204937,10481
1661.8,1.261919,193395,10581
1664.72,1.294526,179728,9122
1667.63,1.251099,163642,9179
1670.54,1.248352,146312,8259
1673.44,1.202780,128451,8053
1677.31,1.180474,105080,6935
1680.21,1.165528,88906,6073
1683.1,1.151386,75033,5295
1685.99,1.156507,63520,4430
1688.87,1.186144,53714,3499
1691.75,1.173890,45653,3059
1694.62,1.210210,39137,2412
1697.49,1.121387,33776,2554
1701.31,1.230018,28175,1659