File: ML/samples/unknown/Column 1_078412_20241121_170124.csv
Method:,Column 1,,
Host Date-Time:,21/11/24 @ 17:1:24,,
Header Version:,1,,
System Temp (C):,34.78,,
Detector Temp (C):,33.73,,
Humidity (%):,2.16,,
Lamp PD:,3802,,
Shift Vector Coefficients:,-10.5391,0.0761263,-0.000134223,,
Pixel to Wavelength Coefficients:,1775.68,-0.916766,-0.000235065,,
Serial Number:,5510004,,
Scan Config Name:,Column 1,,
Scan Config Type:,Slew,,
Section 1,,
Start wavelength (nm):,900,,
End wavelength (nm):,1700,,
Pattern Pixel Width (nm):,   7.03,,,,
Exposure (ms):,  0.635,,,,
Digital Resolution:,228,,
Num Repeats:,6,,
PGA Gain:,64,,
Total Measurement Time in sec:,  2.730,,
Wavelength (nm),Absorbance (AU),Reference Signal (unitless),Sample Signal (unitless)
901.51,1.319450,108485,5199
905.376,1.291841,121306,6195
909.237,1.318185,131909,6340
913.095,1.320806,143299,6846
916.948,1.303922,156982,7797
922.079,1.335938,179937,8302
925.923,1.316562,200504,9673
929.762,1.312693,222660,10838
933.597,1.319813,244426,11704
937.427,1.325622,263972,12472
941.254,1.328680,281845,13223
945.076,1.308413,297271,14613
950.165,1.311933,315605,15389
953.978,1.305808,328029,16222
957.786,1.311134,340470,16632
961.59,1.312821,352317,17144
965.389,1.304171,363056,18022
969.185,1.303999,373162,18531
972.976,1.304005,382632,19001
976.763,1.304241,391202,19416
981.806,1.306457,400190,19761
985.583,1.310422,406088,19870
989.355,1.303453,410162,20394
993.124,1.307439,412868,20341
996.888,1.306201,414263,20468
1000.65,1.299752,415476,20835
1004.4,1.304155,415479,20625
1009.41,1.303930,414358,20580
1013.15,1.311508,412923,20154
1016.89,1.305534,411526,20364
1020.63,1.299426,409066,20529
1024.36,1.300451,406777,20366
1028.09,1.305289,404427,20024
1031.82,1.305823,401911,19875
1036.78,1.301063,398410,19919
1040.49,1.309938,396204,19408
1044.2,1.305232,394236,19522
1047.91,1.309873,392042,19207
1051.61,1.306550,389823,19245
1055.31,1.309085,388234,19055
1059,1.310155,387599,18977
1063.92,1.309683,386688,18953
1067.61,1.307661,386598,19037
1071.29,1.301475,387377,19349
1074.96,1.312143,388536,18936
1078.63,1.311738,389855,19018
1082.3,1.304860,391215,19389
1085.96,1.297570,393215,19818
1090.84,1.312704,396270,19288
1094.49,1.315830,398760,19270
1098.14,1.318294,400987,19268
1101.79,1.317346,403477,19430
1105.43,1.321812,406116,19357
1109.06,1.310943,407701,19925
1112.7,1.325415,409859,19374
1117.53,1.318270,412494,19822
1121.15,1.317270,414909,19984
1124.77,1.316070,416559,20119
1128.38,1.328631,418532,19638
1131.99,1.314277,419956,20367
1135.6,1.321888,421946,20108
1139.2,1.309703,423881,20775
1143.99,1.315711,426786,20630
1147.58,1.320104,428617,20510
1151.17,1.313505,431169,20948
1154.75,1.318462,433579,20826
1158.33,1.315488,436264,21099
1161.91,1.317141,439132,21157
1165.48,1.320802,442389,21135
1169.04,1.323589,446101,21176
1173.79,1.313082,451929,21978
1177.34,1.309868,456026,22342
1180.9,1.313450,461306,22415
1184.44,1.320281,467657,22369
1187.99,1.321411,473969,22612
1191.52,1.311821,479856,23404
1195.06,1.321512,487372,23246
1199.76,1.316702,497347,23986
1203.29,1.317128,504311,24298
1206.81,1.321141,511507,24418
1210.33,1.316720,519078,25033
1213.84,1.320906,527163,25179
1217.35,1.316916,534208,25751
1220.85,1.322840,540472,25700
1225.51,1.320252,549929,26306
1229.01,1.319582,556888,26680
1232.5,1.323722,562180,26678
1235.98,1.321777,567975,27074
1239.46,1.339110,574815,26328
1242.94,1.320946,582782,27833
1246.41,1.323293,591476,28096
1251.03,1.322003,604016,28777
1254.5,1.318063,612289,29437
1257.96,1.326872,619125,29168
1261.41,1.322285,624551,29736
1264.86,1.326764,629900,29683
1268.31,1.326698,634345,29897
1271.75,1.323453,638574,30322
1276.33,1.321683,642499,30633
1279.76,1.328798,645905,30295
1283.19,1.324883,648307,30683
1286.61,1.323731,650446,30866
1290.03,1.333165,652132,30281
1293.44,1.323133,653907,31073
1296.85,1.324287,655963,31088
1301.39,1.329415,657349,30788
1304.8,1.327990,657558,30899
1308.19,1.323382,658515,31274
1311.58,1.330389,658804,30787
1314.97,1.333313,659011,30590
1318.36,1.330843,658272,30730
1321.73,1.329760,658022,30795
1326.23,1.334967,657870,30421
1329.6,1.329985,656482,30707
1332.97,1.332519,654926,30456
1336.33,1.328753,653727,30665
1339.69,1.332921,652497,30315
1343.04,1.328441,649913,30508
1346.39,1.325619,647671,30601
1349.73,1.332623,645338,30003
1354.18,1.327056,641175,30194
1357.52,1.328810,638376,29941
1360.85,1.324570,635805,30113
1364.17,1.327704,633413,29784
1367.49,1.323216,631026,29980
1370.81,1.327745,628050,29529
1374.12,1.323279,625034,29691
1378.54,1.322510,620272,29517
1381.84,1.325630,616892,29146
1385.14,1.331392,613613,28609
1388.43,1.323553,611526,29031
1391.72,1.323164,610663,29016
1395.01,1.327279,610634,28741
1398.29,1.326092,611700,28870
1402.66,1.329551,614051,28751
1405.93,1.328767,616268,28907
1409.2,1.330322,617795,28875
1412.46,1.329083,618872,29008
1415.72,1.333474,619795,28759
1418.98,1.329368,620495,29065
1422.23,1.328499,621087,29151
1426.56,1.331106,621375,28990
1429.8,1.332985,621616,28876
1433.04,1.335288,622129,28747
1436.27,1.333133,621526,28862
1439.5,1.331072,621113,28980
1442.72,1.334263,620921,28759
1445.94,1.334411,620270,28719
1450.23,1.334680,618860,28636
1453.44,1.328602,617697,28985
1456.64,1.333112,616264,28619
1459.85,1.330624,614413,28697
1463.04,1.334539,612307,28342
1466.24,1.333106,610032,28330
1469.43,1.329353,607345,28450
1473.67,1.332736,603789,28064
1476.85,1.331765,601175,28005
1480.02,1.331623,597737,27854
1483.19,1.333779,594479,27565
1486.36,1.335277,591232,27320
1489.52,1.326679,587853,27707
1492.68,1.338558,583875,26777
1496.89,1.333953,578062,26793
1500.03,1.333384,574159,26647
1503.18,1.332862,570285,26499
1506.32,1.339258,565444,25890
1509.45,1.337078,560571,25796
1512.58,1.340563,555821,25373
1515.71,1.335032,550344,25445
1519.87,1.335065,543983,25149
1522.99,1.332834,538764,25036
1526.1,1.335809,533692,24631
1529.21,1.337233,527902,24284
1532.32,1.339105,521886,23904
1535.42,1.328597,515888,24208
1538.51,1.328671,509987,23927
1541.6,1.332103,503936,23457
1545.72,1.339633,494694,22631
1548.8,1.320730,488378,23336
1551.88,1.335507,481832,22253
1554.95,1.332134,474989,22108
1558.02,1.324703,467818,22150
1561.08,1.330100,460730,21545
1564.15,1.332134,454170,21139
1568.22,1.338996,444181,20350
1571.27,1.339464,436947,19997
1574.32,1.320610,429598,20533
1577.36,1.332388,422039,19632
1580.4,1.331117,414375,19332
1583.43,1.325943,406354,19185
1586.46,1.339448,398475,18237
1590.49,1.328595,388982,18253
1593.51,1.332422,380708,17708
1596.53,1.331141,372727,17388
1599.54,1.335635,365060,16855
1602.55,1.326136,357543,16873
1605.55,1.318364,349495,16791
1608.55,1.327421,341154,16052
1612.54,1.324764,330877,15664
1615.53,1.323815,322904,15320
1618.51,1.324847,315116,14915
1621.49,1.327367,307217,14457
1624.47,1.318429,299481,14386
1627.44,1.314425,292112,14162
1630.41,1.310584,284245,13903
1634.36,1.307735,274079,13494
1637.32,1.305505,266916,13209
1640.27,1.310418,259612,12703
1643.22,1.322787,251804,11975
1646.16,1.312243,244348,11906
1649.1,1.308363,236703,11637
1652.04,1.306105,228171,11276
1655.95,1.301571,215408,10757
1658.88,1.283985,204937,10657
1661.8,1.297129,193395,9757
1664.72,1.285619,179728,9311
1667.63,1.252236,163642,9155
1670.54,1.217699,146312,8863
1673.44,1.224679,128451,7657
1677.31,1.203294,105080,6580
1680.21,1.218957,88906,5370
1683.1,1.163529,75033,5149
1685.99,1.170352,63520,4291
1688.87,1.174268,53714,3596
1691.75,1.183218,45653,2994
1694.62,1.161385,39137,2699
1697.49,1.161066,33776,2331
1701.31,1.164307,28175,1930