File: ML/samples/unknown/Column 1_078097_20241121_164519.csv
Method:,Column 1,,
Host Date-Time:,21/11/24 @ 16:45:19,,
Header Version:,1,,
System Temp (C):,32.26,,
Detector Temp (C):,27.36,,
Humidity (%):,4.3,,
Lamp PD:,3807,,
Shift Vector Coefficients:,-10.5391,0.0761263,-0.000134223,,
Pixel to Wavelength Coefficients:,1775.68,-0.916766,-0.000235065,,
Serial Number:,5510004,,
Scan Config Name:,Column 1,,
Scan Config Type:,Slew,,
Section 1,,
Start wavelength (nm):,900,,
End wavelength (nm):,1700,,
Pattern Pixel Width (nm):,   7.03,,,,
Exposure (ms):,  0.635,,,,
Digital Resolution:,228,,
Num Repeats:,6,,
PGA Gain:,64,,
Total Measurement Time in sec:,  2.722,,
Wavelength (nm),Absorbance (AU),Reference Signal (unitless),Sample Signal (unitless)
901.51,1.299611,108485,5442
905.376,1.311047,121306,5927
909.237,1.304697,131909,6540
913.095,1.295785,143299,7252
916.948,1.307951,156982,7725
922.079,1.305340,179937,8908
925.923,1.306751,200504,9894
929.762,1.312974,222660,10831
933.597,1.304645,244426,12120
937.427,1.316286,263972,12743
941.254,1.313543,281845,13692
945.076,1.304743,297271,14737
950.165,1.310356,315605,15445
953.978,1.310383,328029,16052
957.786,1.307960,340470,16754
961.59,1.302632,352317,17551
965.389,1.306442,363056,17928
969.185,1.307221,373162,18394
972.976,1.313642,382632,18584
976.763,1.303348,391202,19456
981.806,1.307139,400190,19730
985.583,1.311232,406088,19833
989.355,1.310495,410162,20066
993.124,1.305670,412868,20424
996.888,1.307923,414263,20387
1000.65,1.305459,415476,20563
1004.4,1.312832,415479,20217
1009.41,1.299877,414358,20773
1013.15,1.310948,412923,20180
1016.89,1.310597,411526,20128
1020.63,1.299151,409066,20542
1024.36,1.311508,406777,19854
1028.09,1.301661,404427,20192
1031.82,1.304013,401911,19958
1036.78,1.321120,398410,19020
1040.49,1.310184,396204,19397
1044.2,1.308582,394236,19372
1047.91,1.305755,392042,19390
1051.61,1.303850,389823,19365
1055.31,1.306834,388234,19154
1059,1.309858,387599,18990
1063.92,1.313619,386688,18782
1067.61,1.310086,386598,18931
1071.29,1.313422,387377,18824
1074.96,1.314835,388536,18819
1078.63,1.317439,389855,18770
1082.3,1.319021,391215,18767
1085.96,1.313824,393215,19090
1090.84,1.315505,396270,19164
1094.49,1.312977,398760,19397
1098.14,1.315418,400987,19396
1101.79,1.311132,403477,19710
1105.43,1.313061,406116,19751
1109.06,1.317576,407701,19623
1112.7,1.314699,409859,19858
1117.53,1.314040,412494,20016
1121.15,1.322122,414909,19762
1124.77,1.317497,416559,20053
1128.38,1.318576,418532,20098
1131.99,1.316736,419956,20252
1135.6,1.311369,421946,20601
1139.2,1.319085,423881,20331
1143.99,1.318266,426786,20509
1147.58,1.315973,428617,20706
1151.17,1.322195,431169,20533
1154.75,1.317296,433579,20882
1158.33,1.326367,436264,20577
1161.91,1.319756,439132,21030
1165.48,1.318078,442389,21268
1169.04,1.322708,446101,21219
1173.79,1.325632,451929,21352
1177.34,1.305439,456026,22571
1180.9,1.318302,461306,22166
1184.44,1.324926,467657,22131
1187.99,1.322295,473969,22566
1191.52,1.326388,479856,22632
1195.06,1.319797,487372,23338
1199.76,1.321691,497347,23712
1203.29,1.327950,504311,23700
1206.81,1.325431,511507,24178
1210.33,1.324668,519078,24579
1213.84,1.323866,527163,25008
1217.35,1.322945,534208,25396
1220.85,1.355667,540472,23829
1225.51,1.319988,549929,26322
1229.01,1.321752,556888,26547
1232.5,1.325108,562180,26593
1235.98,1.321825,567975,27071
1239.46,1.324720,574815,27215
1242.94,1.317651,582782,28045
1246.41,1.326115,591476,27914
1251.03,1.328802,604016,28330
1254.5,1.326209,612289,28890
1257.96,1.322664,619125,29452
1261.41,1.331481,624551,29113
1264.86,1.330688,629900,29416
1268.31,1.325871,634345,29954
1271.75,1.332586,638574,29691
1276.33,1.329017,642499,30120
1279.76,1.329443,645905,30250
1283.19,1.332652,648307,30139
1286.61,1.329011,650446,30493
1290.03,1.329339,652132,30549
1293.44,1.329270,653907,30637
1296.85,1.331897,655963,30548
1301.39,1.333724,657349,30484
1304.8,1.329680,657558,30779
1308.19,1.335921,658515,30384
1311.58,1.329557,658804,30846
1314.97,1.336920,659011,30337
1318.36,1.329221,658272,30845
1321.73,1.333315,658022,30544
1326.23,1.330408,657870,30742
1329.6,1.337245,656482,30198
1332.97,1.336315,654926,30191
1336.33,1.327537,653727,30751
1339.69,1.334385,652497,30213
1343.04,1.332101,649913,30252
1346.39,1.327739,647671,30452
1349.73,1.326685,645338,30416
1354.18,1.329667,641175,30013
1357.52,1.331400,638376,29763
1360.85,1.328132,635805,29867
1364.17,1.323424,633413,30079
1367.49,1.330446,631026,29485
1370.81,1.326482,628050,29615
1374.12,1.331891,625034,29108
1378.54,1.329945,620272,29016
1381.84,1.327497,616892,29021
1385.14,1.330225,613613,28686
1388.43,1.328942,611526,28673
1391.72,1.327965,610663,28697
1395.01,1.323937,610634,28963
1398.29,1.327342,611700,28787
1402.66,1.333177,614051,28512
1405.93,1.329127,616268,28883
1409.2,1.332207,617795,28750
1412.46,1.336939,618872,28488
1415.72,1.328893,619795,29064
1418.98,1.332788,620495,28837
1422.23,1.329051,621087,29114
1426.56,1.332336,621375,28908
1429.8,1.330541,621616,29039
1433.04,1.334548,622129,28796
1436.27,1.335078,621526,28733
1439.5,1.334185,621113,28773
1442.72,1.335154,620921,28700
1445.94,1.330318,620270,28991
1450.23,1.337373,618860,28459
1453.44,1.333045,617697,28690
1456.64,1.337520,616264,28330
1459.85,1.341302,614413,28000
1463.04,1.331409,612307,28547
1466.24,1.337497,610032,28045
1469.43,1.337629,607345,27913
1473.67,1.332442,603789,28083
1476.85,1.337023,601175,27668
1480.02,1.335633,597737,27598
1483.19,1.333731,594479,27568
1486.36,1.331368,591232,27567
1489.52,1.345090,587853,26557
1492.68,1.341798,583875,26578
1496.89,1.335154,578062,26719
1500.03,1.339886,574159,26251
1503.18,1.339485,570285,26098
1506.32,1.342034,565444,25725
1509.45,1.338934,560571,25686
1512.58,1.336034,555821,25639
1515.71,1.336982,550344,25331
1519.87,1.339142,543983,24914
1522.99,1.340163,538764,24617
1526.1,1.337770,533692,24520
1529.21,1.341113,527902,24068
1532.32,1.337962,521886,23967
1535.42,1.339000,515888,23635
1538.51,1.341267,509987,23243
1541.6,1.333996,503936,23355
1545.72,1.336497,494694,22795
1548.8,1.331050,488378,22788
1551.88,1.333851,481832,22338
1554.95,1.334518,474989,21987
1558.02,1.336126,467818,21575
1561.08,1.342449,460730,20941
1564.15,1.333636,454170,21066
1568.22,1.328017,444181,20871
1571.27,1.333339,436947,20281
1574.32,1.337253,429598,19761
1577.36,1.337864,422039,19386
1580.4,1.331769,414375,19303
1583.43,1.333754,406354,18843
1586.46,1.338591,398475,18273
1590.49,1.333573,388982,18045
1593.51,1.333897,380708,17648
1596.53,1.330168,372727,17427
1599.54,1.329292,365060,17103
1602.55,1.333063,357543,16606
1605.55,1.317847,349495,16811
1608.55,1.331335,341154,15908
1612.54,1.322331,330877,15752
1615.53,1.321299,322904,15409
1618.51,1.325342,315116,14898
1621.49,1.316363,307217,14828
1624.47,1.318520,299481,14383
1627.44,1.334059,292112,13536
1630.41,1.314980,284245,13763
1634.36,1.319148,274079,13144
1637.32,1.319844,266916,12780
1640.27,1.325303,259612,12275
1643.22,1.319751,251804,12059
1646.16,1.310677,244348,11949
1649.1,1.316348,236703,11425
1652.04,1.317856,228171,10975
1655.95,1.313979,215408,10454
1658.88,1.301151,204937,10244
1661.8,1.296062,193395,9781
1664.72,1.307476,179728,8854
1667.63,1.312927,163642,7961
1670.54,1.281278,146312,7656
1673.44,1.278791,128451,6760
1677.31,1.243079,105080,6004
1680.21,1.260956,88906,4875
1683.1,1.254492,75033,4176
1685.99,1.317899,63520,3055
1688.87,1.295359,53714,2721
1691.75,1.339531,45653,2089
1694.62,1.312009,39137,1908
1697.49,1.238351,33776,1951
1701.31,1.270025,28175,1513