File: ML/samples/unknown/Column 1_078064_20241121_164342.csv
Method:,Column 1,,
Host Date-Time:,21/11/24 @ 16:43:42,,
Header Version:,1,,
System Temp (C):,31.37,,
Detector Temp (C):,26.12,,
Humidity (%):,5.37,,
Lamp PD:,3809,,
Shift Vector Coefficients:,-10.5391,0.0761263,-0.000134223,,
Pixel to Wavelength Coefficients:,1775.68,-0.916766,-0.000235065,,
Serial Number:,5510004,,
Scan Config Name:,Column 1,,
Scan Config Type:,Slew,,
Section 1,,
Start wavelength (nm):,900,,
End wavelength (nm):,1700,,
Pattern Pixel Width (nm):,   7.03,,,,
Exposure (ms):,  0.635,,,,
Digital Resolution:,228,,
Num Repeats:,6,,
PGA Gain:,64,,
Total Measurement Time in sec:,  2.707,,
Wavelength (nm),Absorbance (AU),Reference Signal (unitless),Sample Signal (unitless)
901.51,1.335619,108485,5009
905.376,1.311781,121306,5917
909.237,1.301653,131909,6586
913.095,1.297345,143299,7226
916.948,1.299820,156982,7871
922.079,1.314504,179937,8722
925.923,1.313118,200504,9750
929.762,1.324143,222660,10556
933.597,1.309328,244426,11990
937.427,1.307080,263972,13016
941.254,1.313924,281845,13680
945.076,1.323072,297271,14128
950.165,1.322098,315605,15033
953.978,1.300962,328029,16404
957.786,1.305273,340470,16858
961.59,1.309943,352317,17258
965.389,1.318128,363056,17452
969.185,1.305219,373162,18479
972.976,1.311404,382632,18680
976.763,1.303660,391202,19442
981.806,1.310099,400190,19596
985.583,1.312196,406088,19789
989.355,1.310560,410162,20063
993.124,1.315803,412868,19953
996.888,1.308051,414263,20381
1000.65,1.315177,415476,20108
1004.4,1.311310,415479,20288
1009.41,1.307746,414358,20400
1013.15,1.309594,412923,20243
1016.89,1.315457,411526,19904
1020.63,1.314449,409066,19831
1024.36,1.306874,406777,20067
1028.09,1.308358,404427,19883
1031.82,1.319970,401911,19238
1036.78,1.310541,398410,19489
1040.49,1.312024,396204,19315
1044.2,1.312274,394236,19208
1047.91,1.311005,392042,19157
1051.61,1.310745,389823,19060
1055.31,1.319347,388234,18610
1059,1.307213,387599,19106
1063.92,1.305986,386688,19115
1067.61,1.307981,386598,19023
1071.29,1.309723,387377,18985
1074.96,1.313383,388536,18882
1078.63,1.316537,389855,18809
1082.3,1.319646,391215,18740
1085.96,1.319711,393215,18833
1090.84,1.317823,396270,19062
1094.49,1.313358,398760,19380
1098.14,1.315978,400987,19371
1101.79,1.313740,403477,19592
1105.43,1.322014,406116,19348
1109.06,1.318596,407701,19577
1112.7,1.324945,409859,19395
1117.53,1.323184,412494,19599
1121.15,1.316055,414909,20040
1124.77,1.324770,416559,19720
1128.38,1.322265,418532,19928
1131.99,1.319144,419956,20140
1135.6,1.319089,421946,20238
1139.2,1.325281,423881,20043
1143.99,1.324794,426786,20203
1147.58,1.314361,428617,20783
1151.17,1.328716,431169,20227
1154.75,1.324574,433579,20535
1158.33,1.318918,436264,20933
1161.91,1.321764,439132,20933
1165.48,1.322821,442389,21037
1169.04,1.326057,446101,21056
1173.79,1.309148,451929,22178
1177.34,1.322930,456026,21680
1180.9,1.326290,461306,21762
1184.44,1.322500,467657,22255
1187.99,1.321872,473969,22588
1191.52,1.324034,479856,22755
1195.06,1.316885,487372,23495
1199.76,1.323177,497347,23631
1203.29,1.325338,504311,23843
1206.81,1.319668,511507,24501
1210.33,1.327843,519078,24400
1213.84,1.326129,527163,24878
1217.35,1.322347,534208,25431
1220.85,1.321423,540472,25784
1225.51,1.325099,549929,26014
1229.01,1.324477,556888,26381
1232.5,1.324716,562180,26617
1235.98,1.317467,567975,27344
1239.46,1.321065,574815,27445
1242.94,1.327550,582782,27413
1246.41,1.317534,591476,28471
1251.03,1.327149,604016,28438
1254.5,1.330697,612289,28593
1257.96,1.327348,619125,29136
1261.41,1.324584,624551,29579
1264.86,1.329508,629900,29496
1268.31,1.328693,634345,29760
1271.75,1.324285,638574,30264
1276.33,1.331925,642499,29919
1279.76,1.327738,645905,30369
1283.19,1.327353,648307,30509
1286.61,1.330366,650446,30398
1290.03,1.334861,652132,30163
1293.44,1.328930,653907,30661
1296.85,1.333435,655963,30440
1301.39,1.331748,657349,30623
1304.8,1.333734,657558,30493
1308.19,1.332972,658515,30591
1311.58,1.335340,658804,30438
1314.97,1.333413,659011,30583
1318.36,1.327296,658272,30982
1321.73,1.335310,658022,30404
1326.23,1.337702,657870,30230
1329.6,1.331203,656482,30621
1332.97,1.332462,654926,30460
1336.33,1.336426,653727,30128
1339.69,1.329311,652497,30568
1343.04,1.333021,649913,30188
1346.39,1.331736,647671,30173
1349.73,1.329450,645338,30223
1354.18,1.330638,641175,29946
1357.52,1.332232,638376,29706
1360.85,1.334844,635805,29409
1364.17,1.327821,633413,29776
1367.49,1.328726,631026,29602
1370.81,1.328378,628050,29486
1374.12,1.329229,625034,29287
1378.54,1.324412,620272,29388
1381.84,1.330877,616892,28796
1385.14,1.328261,613613,28816
1388.43,1.328881,611526,28677
1391.72,1.327587,610663,28722
1395.01,1.331806,610634,28443
1398.29,1.332899,611700,28421
1402.66,1.334901,614051,28399
1405.93,1.329428,616268,28863
1409.2,1.326757,617795,29113
1412.46,1.331786,618872,28828
1415.72,1.330945,619795,28927
1418.98,1.329712,620495,29042
1422.23,1.326967,621087,29254
1426.56,1.335169,621375,28720
1429.8,1.331184,621616,28996
1433.04,1.331168,622129,29021
1436.27,1.335199,621526,28725
1439.5,1.330518,621113,29017
1442.72,1.333689,620921,28797
1445.94,1.329360,620270,29055
1450.23,1.334498,618860,28648
1453.44,1.333712,617697,28646
1456.64,1.331643,616264,28716
1459.85,1.332991,614413,28541
1463.04,1.338201,612307,28104
1466.24,1.332401,610032,28376
1469.43,1.332356,607345,28254
1473.67,1.334876,603789,27926
1476.85,1.338753,601175,27558
1480.02,1.336058,597737,27571
1483.19,1.336529,594479,27391
1486.36,1.335929,591232,27279
1489.52,1.338114,587853,26987
1492.68,1.335648,583875,26957
1496.89,1.344071,578062,26176
1500.03,1.337116,574159,26419
1503.18,1.337774,570285,26201
1506.32,1.340770,565444,25800
1509.45,1.340560,560571,25590
1512.58,1.341231,555821,25334
1515.71,1.337239,550344,25316
1519.87,1.344174,543983,24627
1522.99,1.337157,538764,24788
1526.1,1.342328,533692,24264
1529.21,1.343738,527902,23923
1532.32,1.340197,521886,23844
1535.42,1.336051,515888,23796
1538.51,1.340185,509987,23301
1541.6,1.334126,503936,23348
1545.72,1.338081,494694,22712
1548.8,1.325859,488378,23062
1551.88,1.339192,481832,22065
1554.95,1.337133,474989,21855
1558.02,1.337275,467818,21518
1561.08,1.339432,460730,21087
1564.15,1.330698,454170,21209
1568.22,1.331212,444181,20718
1571.27,1.339095,436947,20014
1574.32,1.343161,429598,19494
1577.36,1.335073,422039,19511
1580.4,1.338297,414375,19015
1583.43,1.335232,406354,18779
1586.46,1.338330,398475,18284
1590.49,1.333284,388982,18057
1593.51,1.328054,380708,17887
1596.53,1.329322,372727,17461
1599.54,1.334246,365060,16909
1602.55,1.336872,357543,16461
1605.55,1.338643,349495,16025
1608.55,1.332729,341154,15857
1612.54,1.321064,330877,15798
1615.53,1.329435,322904,15123
1618.51,1.331212,315116,14698
1621.49,1.330291,307217,14360
1624.47,1.321641,299481,14280
1627.44,1.330862,292112,13636
1630.41,1.332002,284245,13234
1634.36,1.331617,274079,12772
1637.32,1.325832,266916,12605
1640.27,1.327751,259612,12206
1643.22,1.338180,251804,11558
1646.16,1.329127,244348,11452
1649.1,1.346121,236703,10668
1652.04,1.309314,228171,11193
1655.95,1.316312,215408,10398
1658.88,1.338354,204937,9403
1661.8,1.322044,193395,9213
1664.72,1.317298,179728,8656
1667.63,1.319523,163642,7841
1670.54,1.300532,146312,7324
1673.44,1.321844,128451,6122
1677.31,1.310135,105080,5145
1680.21,1.314756,88906,4307
1683.1,1.327601,75033,3529
1685.99,1.305704,63520,3142
1688.87,1.354790,53714,2373
1691.75,1.358874,45653,1998
1694.62,1.392558,39137,1585
1697.49,1.330501,33776,1578
1701.31,1.275223,28175,1495