File: ML/samples/unknown/Column 1_078163_20241121_164834.csv
Method:,Column 1,,
Host Date-Time:,21/11/24 @ 16:48:34,,
Header Version:,1,,
System Temp (C):,33.39,,
Detector Temp (C):,29.58,,
Humidity (%):,3.28,,
Lamp PD:,3805,,
Shift Vector Coefficients:,-10.5391,0.0761263,-0.000134223,,
Pixel to Wavelength Coefficients:,1775.68,-0.916766,-0.000235065,,
Serial Number:,5510004,,
Scan Config Name:,Column 1,,
Scan Config Type:,Slew,,
Section 1,,
Start wavelength (nm):,900,,
End wavelength (nm):,1700,,
Pattern Pixel Width (nm):,   7.03,,,,
Exposure (ms):,  0.635,,,,
Digital Resolution:,228,,
Num Repeats:,6,,
PGA Gain:,64,,
Total Measurement Time in sec:,  2.671,,
Wavelength (nm),Absorbance (AU),Reference Signal (unitless),Sample Signal (unitless)
901.51,1.331477,108485,5057
905.376,1.311414,121306,5922
909.237,1.326694,131909,6217
913.095,1.317709,143299,6895
916.948,1.321542,156982,7487
922.079,1.335154,179937,8317
925.923,1.322165,200504,9549
929.762,1.331989,222660,10367
933.597,1.314796,244426,11840
937.427,1.310934,263972,12901
941.254,1.327041,281845,13273
945.076,1.320192,297271,14222
950.165,1.323951,315605,14969
953.978,1.311765,328029,16001
957.786,1.324660,340470,16122
961.59,1.322038,352317,16784
965.389,1.323109,363056,17253
969.185,1.316070,373162,18023
972.976,1.309641,382632,18756
976.763,1.308264,391202,19237
981.806,1.310609,400190,19573
985.583,1.317407,406088,19553
989.355,1.323032,410162,19495
993.124,1.311321,412868,20160
996.888,1.315942,414263,20014
1000.65,1.314465,415476,20141
1004.4,1.306689,415479,20505
1009.41,1.316672,414358,19985
1013.15,1.312306,412923,20117
1016.89,1.314607,411526,19943
1020.63,1.313268,409066,19885
1024.36,1.313328,406777,19771
1028.09,1.313787,404427,19636
1031.82,1.314586,401911,19478
1036.78,1.322126,398410,18976
1040.49,1.310834,396204,19368
1044.2,1.318422,394236,18938
1047.91,1.316228,392042,18928
1051.61,1.317774,389823,18754
1055.31,1.318718,388234,18637
1059,1.316704,387599,18693
1063.92,1.316472,386688,18659
1067.61,1.319408,386598,18529
1071.29,1.325090,387377,18325
1074.96,1.310221,388536,19020
1078.63,1.320644,389855,18632
1082.3,1.324775,391215,18520
1085.96,1.320426,393215,18802
1090.84,1.314125,396270,19225
1094.49,1.319519,398760,19107
1098.14,1.325980,400987,18930
1101.79,1.316698,403477,19459
1105.43,1.328094,406116,19079
1109.06,1.320909,407701,19473
1112.7,1.329288,409859,19202
1117.53,1.322254,412494,19641
1121.15,1.320324,414909,19844
1124.77,1.318473,416559,20008
1128.38,1.327196,418532,19703
1131.99,1.328693,419956,19702
1135.6,1.320379,421946,20178
1139.2,1.318317,423881,20367
1143.99,1.332253,426786,19859
1147.58,1.323334,428617,20358
1151.17,1.320759,431169,20601
1154.75,1.322001,433579,20657
1158.33,1.322920,436264,20741
1161.91,1.315257,439132,21249
1165.48,1.315797,442389,21380
1169.04,1.320402,446101,21332
1173.79,1.326018,451929,21333
1177.34,1.319836,456026,21835
1180.9,1.322475,461306,21954
1184.44,1.323203,467657,22219
1187.99,1.318864,473969,22745
1191.52,1.319761,479856,22980
1195.06,1.328727,487372,22863
1199.76,1.324835,497347,23541
1203.29,1.328941,504311,23646
1206.81,1.326294,511507,24130
1210.33,1.327060,519078,24444
1213.84,1.319151,527163,25281
1217.35,1.330797,534208,24941
1220.85,1.320346,540472,25848
1225.51,1.323583,549929,26105
1229.01,1.327815,556888,26179
1232.5,1.324162,562180,26651
1235.98,1.329644,567975,26588
1239.46,1.327297,574815,27054
1242.94,1.317868,582782,28031
1246.41,1.326878,591476,27865
1251.03,1.332141,604016,28113
1254.5,1.324065,612289,29033
1257.96,1.325875,619125,29235
1261.41,1.327915,624551,29353
1264.86,1.329995,629900,29463
1268.31,1.328722,634345,29758
1271.75,1.330063,638574,29864
1276.33,1.328585,642499,30150
1279.76,1.332700,645905,30024
1283.19,1.335123,648307,29968
1286.61,1.335208,650446,30061
1290.03,1.329296,652132,30552
1293.44,1.328731,653907,30675
1296.85,1.336097,655963,30254
1301.39,1.332188,657349,30592
1304.8,1.333620,657558,30501
1308.19,1.334280,658515,30499
1311.58,1.331081,658804,30738
1314.97,1.333526,659011,30575
1318.36,1.332145,658272,30638
1321.73,1.335867,658022,30365
1326.23,1.334681,657870,30441
1329.6,1.339378,656482,30050
1332.97,1.330584,654926,30592
1336.33,1.333982,653727,30298
1339.69,1.338138,652497,29953
1343.04,1.332273,649913,30240
1346.39,1.330557,647671,30255
1349.73,1.333347,645338,29953
1354.18,1.329306,641175,30038
1357.52,1.334225,638376,29570
1360.85,1.332223,635805,29587
1364.17,1.328697,633413,29716
1367.49,1.328873,631026,29592
1370.81,1.334071,628050,29102
1374.12,1.328814,625034,29315
1378.54,1.326843,620272,29224
1381.84,1.334512,616892,28556
1385.14,1.337199,613613,28229
1388.43,1.329215,611526,28655
1391.72,1.330774,610663,28512
1395.01,1.327914,610634,28699
1398.29,1.324860,611700,28952
1402.66,1.334443,614051,28429
1405.93,1.324937,616268,29163
1409.2,1.334402,617795,28605
1412.46,1.333507,618872,28714
1415.72,1.330930,619795,28928
1418.98,1.334085,620495,28751
1422.23,1.337333,621087,28564
1426.56,1.335820,621375,28677
1429.8,1.333437,621616,28846
1433.04,1.335469,622129,28735
1436.27,1.339377,621526,28450
1439.5,1.334035,621113,28783
1442.72,1.335033,620921,28708
1445.94,1.337995,620270,28483
1450.23,1.335697,618860,28569
1453.44,1.340111,617697,28227
1456.64,1.340412,616264,28142
1459.85,1.337258,614413,28262
1463.04,1.339765,612307,28003
1466.24,1.338551,610032,27977
1469.43,1.338376,607345,27865
1473.67,1.337278,603789,27772
1476.85,1.342473,601175,27323
1480.02,1.336231,597737,27560
1483.19,1.337942,594479,27302
1486.36,1.343267,591232,26822
1489.52,1.338372,587853,26971
1492.68,1.339029,583875,26748
1496.89,1.337730,578062,26561
1500.03,1.343425,574159,26038
1503.18,1.346277,570285,25693
1506.32,1.337383,565444,26002
1509.45,1.344550,560571,25356
1512.58,1.333719,555821,25776
1515.71,1.340701,550344,25115
1519.87,1.339421,543983,24898
1522.99,1.341931,538764,24517
1526.1,1.336603,533692,24586
1529.21,1.344865,527902,23861
1532.32,1.343855,521886,23644
1535.42,1.337313,515888,23727
1538.51,1.336843,509987,23481
1541.6,1.342350,503936,22910
1545.72,1.341710,494694,22523
1548.8,1.345564,488378,22039
1551.88,1.338936,481832,22078
1554.95,1.334044,474989,22011
1558.02,1.339095,467818,21428
1561.08,1.340669,460730,21027
1564.15,1.346101,454170,20470
1568.22,1.340706,444181,20270
1571.27,1.340943,436947,19929
1574.32,1.340297,429598,19623
1577.36,1.334406,422039,19541
1580.4,1.344207,414375,18758
1583.43,1.330220,406354,18997
1586.46,1.341596,398475,18147
1590.49,1.335140,388982,17980
1593.51,1.337604,380708,17498
1596.53,1.336519,372727,17174
1599.54,1.340012,365060,16686
1602.55,1.336529,357543,16474
1605.55,1.329684,349495,16359
1608.55,1.329809,341154,15964
1612.54,1.330429,330877,15461
1615.53,1.332548,322904,15015
1618.51,1.333078,315116,14635
1621.49,1.334454,307217,14223
1624.47,1.324907,299481,14173
1627.44,1.336537,292112,13459
1630.41,1.333975,284245,13174
1634.36,1.313959,274079,13302
1637.32,1.324215,266916,12652
1640.27,1.321429,259612,12385
1643.22,1.335222,251804,11637
1646.16,1.318785,244348,11728
1649.1,1.315095,236703,11458
1652.04,1.304990,228171,11305
1655.95,1.314312,215408,10446
1658.88,1.300812,204937,10252
1661.8,1.299405,193395,9706
1664.72,1.305714,179728,8890
1667.63,1.293615,163642,8323
1670.54,1.265624,146312,7937
1673.44,1.279820,128451,6744
1677.31,1.274575,105080,5584
1680.21,1.269503,88906,4780
1683.1,1.251693,75033,4203
1685.99,1.243962,63520,3622
1688.87,1.285106,53714,2786
1691.75,1.279258,45653,2400
1694.62,1.237136,39137,2267
1697.49,1.273336,33776,1800
1701.31,1.336924,28175,1297