File: ML/samples/unknown/Column 1_078671_20241121_171634.csv
Method:,Column 1,,
Host Date-Time:,21/11/24 @ 17:16:34,,
Header Version:,1,,
System Temp (C):,34.55,,
Detector Temp (C):,35.43,,
Humidity (%):,1.37,,
Lamp PD:,3803,,
Shift Vector Coefficients:,-10.5391,0.0761263,-0.000134223,,
Pixel to Wavelength Coefficients:,1775.68,-0.916766,-0.000235065,,
Serial Number:,5510004,,
Scan Config Name:,Column 1,,
Scan Config Type:,Slew,,
Section 1,,
Start wavelength (nm):,900,,
End wavelength (nm):,1700,,
Pattern Pixel Width (nm):,   7.03,,,,
Exposure (ms):,  0.635,,,,
Digital Resolution:,228,,
Num Repeats:,6,,
PGA Gain:,64,,
Total Measurement Time in sec:,  2.723,,
Wavelength (nm),Absorbance (AU),Reference Signal (unitless),Sample Signal (unitless)
901.51,1.309132,108485,5324
905.376,1.324592,121306,5745
909.237,1.300467,131909,6604
913.095,1.325783,143299,6768
916.948,1.330095,156982,7341
922.079,1.320471,179937,8603
925.923,1.338194,200504,9203
929.762,1.316840,222660,10735
933.597,1.326055,244426,11537
937.427,1.313162,263972,12835
941.254,1.299285,281845,14149
945.076,1.310499,297271,14543
950.165,1.318731,315605,15150
953.978,1.306102,328029,16211
957.786,1.318588,340470,16349
961.59,1.312087,352317,17173
965.389,1.310091,363056,17778
969.185,1.307576,373162,18379
972.976,1.308231,382632,18817
976.763,1.308309,391202,19235
981.806,1.309302,400190,19632
985.583,1.304647,406088,20136
989.355,1.299742,410162,20569
993.124,1.298709,412868,20754
996.888,1.308008,414263,20383
1000.65,1.297051,415476,20965
1004.4,1.304239,415479,20621
1009.41,1.311187,414358,20239
1013.15,1.311659,412923,20147
1016.89,1.292095,411526,21004
1020.63,1.300676,409066,20470
1024.36,1.302674,406777,20262
1028.09,1.297104,404427,20405
1031.82,1.299898,401911,20148
1036.78,1.302942,398410,19833
1040.49,1.304534,396204,19651
1044.2,1.310604,394236,19282
1047.91,1.302319,392042,19544
1051.61,1.307091,389823,19221
1055.31,1.309449,388234,19039
1059,1.303321,387599,19278
1063.92,1.309270,386688,18971
1067.61,1.309719,386598,18947
1071.29,1.301655,387377,19341
1074.96,1.313936,388536,18858
1078.63,1.305954,389855,19273
1082.3,1.313799,391215,18994
1085.96,1.312008,393215,19170
1090.84,1.301787,396270,19779
1094.49,1.317569,398760,19193
1098.14,1.305829,400987,19829
1101.79,1.305615,403477,19962
1105.43,1.318994,406116,19483
1109.06,1.310878,407701,19928
1112.7,1.308769,409859,20131
1117.53,1.312092,412494,20106
1121.15,1.312860,414909,20188
1124.77,1.312544,416559,20283
1128.38,1.308283,418532,20580
1131.99,1.309379,419956,20598
1135.6,1.315329,421946,20414
1139.2,1.316190,423881,20467
1143.99,1.317758,426786,20533
1147.58,1.313776,428617,20811
1151.17,1.312883,431169,20978
1154.75,1.319193,433579,20791
1158.33,1.314562,436264,21144
1161.91,1.315195,439132,21252
1165.48,1.314316,442389,21453
1169.04,1.308969,446101,21901
1173.79,1.311583,451929,22054
1177.34,1.311055,456026,22281
1180.9,1.310169,461306,22585
1184.44,1.308899,467657,22963
1187.99,1.313117,473969,23048
1191.52,1.318176,479856,23064
1195.06,1.316589,487372,23511
1199.76,1.315382,497347,24059
1203.29,1.314651,504311,24437
1206.81,1.319615,511507,24504
1210.33,1.316512,519078,25045
1213.84,1.315200,527163,25512
1217.35,1.320116,534208,25562
1220.85,1.321086,540472,25804
1225.51,1.313974,549929,26689
1229.01,1.320038,556888,26652
1232.5,1.315706,562180,27175
1235.98,1.317086,567975,27368
1239.46,1.315452,574815,27802
1242.94,1.324330,582782,27617
1246.41,1.314888,591476,28645
1251.03,1.313929,604016,29317
1254.5,1.316502,612289,29543
1257.96,1.318102,619125,29763
1261.41,1.323675,624551,29641
1264.86,1.323528,629900,29905
1268.31,1.324004,634345,30083
1271.75,1.324831,638574,30226
1276.33,1.319971,642499,30754
1279.76,1.319087,645905,30980
1283.19,1.323865,648307,30755
1286.61,1.319670,650446,31156
1290.03,1.322974,652132,31000
1293.44,1.318766,653907,31387
1296.85,1.324566,655963,31068
1301.39,1.330177,657349,30734
1304.8,1.327666,657558,30922
1308.19,1.326658,658515,31039
1311.58,1.325689,658804,31122
1314.97,1.332476,659011,30649
1318.36,1.326512,658272,31038
1321.73,1.327117,658022,30983
1326.23,1.334239,657870,30472
1329.6,1.322401,656482,31248
1332.97,1.327515,654926,30809
1336.33,1.325101,653727,30924
1339.69,1.327851,652497,30671
1343.04,1.323797,649913,30836
1346.39,1.322437,647671,30826
1349.73,1.328173,645338,30312
1354.18,1.326151,641175,30257
1357.52,1.325285,638376,30185
1360.85,1.319879,635805,30440
1364.17,1.322544,633413,30140
1367.49,1.327013,631026,29719
1370.81,1.321684,628050,29944
1374.12,1.319159,625034,29974
1378.54,1.321056,620272,29616
1381.84,1.323208,616892,29309
1385.14,1.318514,613613,29470
1388.43,1.323703,611526,29021
1391.72,1.321223,610663,29146
1395.01,1.320487,610634,29194
1398.29,1.325776,611700,28891
1402.66,1.329839,614051,28732
1405.93,1.326803,616268,29038
1409.2,1.327384,617795,29071
1412.46,1.329443,618872,28984
1415.72,1.332162,619795,28846
1418.98,1.334372,620495,28732
1422.23,1.327264,621087,29234
1426.56,1.329998,621375,29064
1429.8,1.327099,621616,29270
1433.04,1.329108,622129,29159
1436.27,1.330897,621526,29011
1439.5,1.322819,621113,29536
1442.72,1.329502,620921,29076
1445.94,1.328882,620270,29087
1450.23,1.327938,618860,29084
1453.44,1.329983,617697,28893
1456.64,1.329275,616264,28873
1459.85,1.329641,614413,28762
1463.04,1.329405,612307,28679
1466.24,1.334519,610032,28238
1469.43,1.336138,607345,28009
1473.67,1.335717,603789,27872
1476.85,1.324126,601175,28502
1480.02,1.327479,597737,28121
1483.19,1.326699,594479,28018
1486.36,1.330126,591232,27646
1489.52,1.333170,587853,27296
1492.68,1.328902,583875,27379
1496.89,1.331883,578062,26921
1500.03,1.329344,574159,26896
1503.18,1.333174,570285,26480
1506.32,1.331774,565444,26340
1509.45,1.331707,560571,26117
1512.58,1.333955,555821,25762
1515.71,1.331259,550344,25667
1519.87,1.332825,543983,25279
1522.99,1.332296,538764,25067
1526.1,1.332681,533692,24809
1529.21,1.336500,527902,24325
1532.32,1.322372,521886,24843
1535.42,1.322734,515888,24537
1538.51,1.332719,509987,23705
1541.6,1.333977,503936,23356
1545.72,1.334900,494694,22879
1548.8,1.333918,488378,22638
1551.88,1.335331,481832,22262
1554.95,1.331957,474989,22117
1558.02,1.324546,467818,22158
1561.08,1.324293,460730,21835
1564.15,1.328533,454170,21315
1568.22,1.332198,444181,20671
1571.27,1.331992,436947,20344
1574.32,1.332597,429598,19974
1577.36,1.326172,422039,19915
1580.4,1.330713,414375,19350
1583.43,1.329032,406354,19049
1586.46,1.323893,398475,18902
1590.49,1.328619,388982,18252
1593.51,1.324861,380708,18019
1596.53,1.320849,372727,17805
1599.54,1.323240,365060,17343
1602.55,1.313503,357543,17371
1605.55,1.317796,349495,16813
1608.55,1.324536,341154,16159
1612.54,1.329503,330877,15494
1615.53,1.318518,322904,15508
1618.51,1.322090,315116,15010
1621.49,1.324732,307217,14545
1624.47,1.312910,299481,14570
1627.44,1.316762,292112,14086
1630.41,1.318210,284245,13661
1634.36,1.298816,274079,13774
1637.32,1.317235,266916,12857
1640.27,1.320658,259612,12407
1643.22,1.314703,251804,12200
1646.16,1.320678,244348,11677
1649.1,1.313884,236703,11490
1652.04,1.298167,228171,11484
1655.95,1.316437,215408,10395
1658.88,1.275871,204937,10858
1661.8,1.280922,193395,10128
1664.72,1.276709,179728,9504
1667.63,1.240767,163642,9400
1670.54,1.241311,146312,8394
1673.44,1.212322,128451,7878
1677.31,1.188373,105080,6810
1680.21,1.169407,88906,6019
1683.1,1.135917,75033,5487
1685.99,1.153673,63520,4459
1688.87,1.212232,53714,3295
1691.75,1.156224,45653,3186
1694.62,1.172797,39137,2629
1697.49,1.143181,33776,2429
1701.31,1.177094,28175,1874