File: ML/samples/unknown/Column 1_078315_20241121_165602.csv
Method:,Column 1,,
Host Date-Time:,21/11/24 @ 16:56:2,,
Header Version:,1,,
System Temp (C):,34.68,,
Detector Temp (C):,32.84,,
Humidity (%):,2.25,,
Lamp PD:,3802,,
Shift Vector Coefficients:,-10.5391,0.0761263,-0.000134223,,
Pixel to Wavelength Coefficients:,1775.68,-0.916766,-0.000235065,,
Serial Number:,5510004,,
Scan Config Name:,Column 1,,
Scan Config Type:,Slew,,
Section 1,,
Start wavelength (nm):,900,,
End wavelength (nm):,1700,,
Pattern Pixel Width (nm):,   7.03,,,,
Exposure (ms):,  0.635,,,,
Digital Resolution:,228,,
Num Repeats:,6,,
PGA Gain:,64,,
Total Measurement Time in sec:,  2.730,,
Wavelength (nm),Absorbance (AU),Reference Signal (unitless),Sample Signal (unitless)
901.51,1.295402,108485,5495
905.376,1.305225,121306,6007
909.237,1.284394,131909,6853
913.095,1.293158,143299,7296
916.948,1.319286,156982,7526
922.079,1.335519,179937,8310
925.923,1.323623,200504,9517
929.762,1.318827,222660,10686
933.597,1.327374,244426,11502
937.427,1.321498,263972,12591
941.254,1.319066,281845,13519
945.076,1.317270,297271,14318
950.165,1.320915,315605,15074
953.978,1.315828,328029,15852
957.786,1.320344,340470,16283
961.59,1.313303,352317,17125
965.389,1.309285,363056,17811
969.185,1.315228,373162,18058
972.976,1.309803,382632,18749
976.763,1.317343,391202,18839
981.806,1.311386,400190,19538
985.583,1.312460,406088,19777
989.355,1.306852,410162,20235
993.124,1.313307,412868,20068
996.888,1.305967,414263,20479
1000.65,1.313345,415476,20193
1004.4,1.309921,415479,20353
1009.41,1.305093,414358,20525
1013.15,1.307241,412923,20353
1016.89,1.308638,411526,20219
1020.63,1.311089,409066,19985
1024.36,1.306744,406777,20073
1028.09,1.312131,404427,19711
1031.82,1.309465,401911,19709
1036.78,1.312529,398410,19400
1040.49,1.302792,396204,19730
1044.2,1.306257,394236,19476
1047.91,1.303744,392042,19480
1051.61,1.315303,389823,18861
1055.31,1.318974,388234,18626
1059,1.315173,387599,18759
1063.92,1.307968,386688,19028
1067.61,1.308941,386598,18981
1071.29,1.309815,387377,18981
1074.96,1.316106,388536,18764
1078.63,1.315269,389855,18864
1082.3,1.317035,391215,18853
1085.96,1.320773,393215,18787
1090.84,1.317709,396270,19067
1094.49,1.317591,398760,19192
1098.14,1.320689,400987,19162
1101.79,1.310494,403477,19739
1105.43,1.317370,406116,19556
1109.06,1.315942,407701,19697
1112.7,1.319493,409859,19640
1117.53,1.314084,412494,20014
1121.15,1.315319,414909,20074
1124.77,1.313251,416559,20250
1128.38,1.318900,418532,20083
1131.99,1.313382,419956,20409
1135.6,1.314436,421946,20456
1139.2,1.312745,423881,20630
1143.99,1.319942,426786,20430
1147.58,1.319575,428617,20535
1151.17,1.321899,431169,20547
1154.75,1.324193,433579,20553
1158.33,1.314644,436264,21140
1161.91,1.321349,439132,20953
1165.48,1.317241,442389,21309
1169.04,1.316732,446101,21513
1173.79,1.315082,451929,21877
1177.34,1.317614,456026,21947
1180.9,1.321073,461306,22025
1184.44,1.317648,467657,22505
1187.99,1.321853,473969,22589
1191.52,1.326599,479856,22621
1195.06,1.325095,487372,23055
1199.76,1.326924,497347,23428
1203.29,1.320645,504311,24102
1206.81,1.319615,511507,24504
1210.33,1.323856,519078,24625
1213.84,1.323276,527163,25042
1217.35,1.321920,534208,25456
1220.85,1.345650,540472,24385
1225.51,1.330898,549929,25669
1229.01,1.321409,556888,26568
1232.5,1.329276,562180,26339
1235.98,1.322901,567975,27004
1239.46,1.321112,574815,27442
1242.94,1.323748,582782,27654
1246.41,1.326769,591476,27872
1251.03,1.327669,604016,28404
1254.5,1.325668,612289,28926
1257.96,1.328184,619125,29080
1261.41,1.328552,624551,29310
1264.86,1.325157,629900,29793
1268.31,1.323139,634345,30143
1271.75,1.326400,638574,30117
1276.33,1.330968,642499,29985
1279.76,1.327767,645905,30367
1283.19,1.331702,648307,30205
1286.61,1.328314,650446,30542
1290.03,1.338084,652132,29940
1293.44,1.333100,653907,30368
1296.85,1.325098,655963,31030
1301.39,1.332543,657349,30567
1304.8,1.333962,657558,30477
1308.19,1.327582,658515,30973
1311.58,1.333219,658804,30587
1314.97,1.332887,659011,30620
1318.36,1.336590,658272,30326
1321.73,1.327439,658022,30960
1326.23,1.329448,657870,30810
1329.6,1.335393,656482,30327
1332.97,1.337972,654926,30076
1336.33,1.330727,653727,30526
1339.69,1.335522,652497,30134
1343.04,1.325264,649913,30732
1346.39,1.328409,647671,30405
1349.73,1.333681,645338,29930
1354.18,1.331989,641175,29853
1357.52,1.329623,638376,29885
1360.85,1.332252,635805,29585
1364.17,1.332115,633413,29483
1367.49,1.327057,631026,29716
1370.81,1.324668,628050,29739
1374.12,1.328458,625034,29339
1378.54,1.332075,620272,28874
1381.84,1.325943,616892,29125
1385.14,1.329091,613613,28761
1388.43,1.328155,611526,28725
1391.72,1.329253,610663,28612
1395.01,1.329764,610634,28577
1398.29,1.328399,611700,28717
1402.66,1.329687,614051,28742
1405.93,1.329564,616268,28854
1409.2,1.331286,617795,28811
1412.46,1.326813,618872,29160
1415.72,1.337464,619795,28496
1418.98,1.336463,620495,28594
1422.23,1.335422,621087,28690
1426.56,1.334701,621375,28751
1429.8,1.336989,621616,28611
1433.04,1.330465,622129,29068
1436.27,1.330523,621526,29036
1439.5,1.338341,621113,28499
1442.72,1.335866,620921,28653
1445.94,1.339477,620270,28386
1450.23,1.333408,618860,28720
1453.44,1.328153,617697,29015
1456.64,1.333902,616264,28567
1459.85,1.331442,614413,28643
1463.04,1.334340,612307,28355
1466.24,1.334950,610032,28210
1469.43,1.338844,607345,27835
1473.67,1.334317,603789,27962
1476.85,1.337494,601175,27638
1480.02,1.334611,597737,27663
1483.19,1.336307,594479,27405
1486.36,1.334420,591232,27374
1489.52,1.337005,587853,27056
1492.68,1.337376,583875,26850
1496.89,1.339270,578062,26467
1500.03,1.337609,574159,26389
1503.18,1.342826,570285,25898
1506.32,1.337233,565444,26011
1509.45,1.335683,560571,25879
1512.58,1.338071,555821,25519
1515.71,1.339527,550344,25183
1519.87,1.343610,543983,24659
1522.99,1.342676,538764,24475
1526.1,1.337045,533692,24561
1529.21,1.337609,527902,24263
1532.32,1.338542,521886,23935
1535.42,1.335340,515888,23835
1538.51,1.339607,509987,23332
1541.6,1.342616,503936,22896
1545.72,1.328250,494694,23232
1548.8,1.335090,488378,22577
1551.88,1.330578,481832,22507
1554.95,1.330820,474989,22175
1558.02,1.338751,467818,21445
1561.08,1.336906,460730,21210
1564.15,1.341920,454170,20668
1568.22,1.336485,444181,20468
1571.27,1.342537,436947,19856
1574.32,1.329154,429598,20133
1577.36,1.336679,422039,19439
1580.4,1.335792,414375,19125
1583.43,1.334677,406354,18803
1586.46,1.331332,398475,18581
1590.49,1.336277,388982,17933
1593.51,1.327642,380708,17904
1596.53,1.332192,372727,17346
1599.54,1.325701,365060,17245
1602.55,1.321527,357543,17053
1605.55,1.328730,349495,16395
1608.55,1.325639,341154,16118
1612.54,1.315547,330877,16000
1615.53,1.330269,322904,15094
1618.51,1.315885,315116,15226
1621.49,1.314288,307217,14899
1624.47,1.325122,299481,14166
1627.44,1.319142,292112,14009
1630.41,1.319867,284245,13609
1634.36,1.311095,274079,13390
1637.32,1.328909,266916,12516
1640.27,1.311822,259612,12662
1643.22,1.311546,251804,12289
1646.16,1.312389,244348,11902
1649.1,1.322164,236703,11273
1652.04,1.326125,228171,10768
1655.95,1.298673,215408,10829
1658.88,1.289811,204937,10515
1661.8,1.291556,193395,9883
1664.72,1.290922,179728,9198
1667.63,1.260667,163642,8979
1670.54,1.232603,146312,8564
1673.44,1.210891,128451,7904
1677.31,1.182231,105080,6907
1680.21,1.178374,88906,5896
1683.1,1.205935,75033,4670
1685.99,1.202373,63520,3986
1688.87,1.165658,53714,3668
1691.75,1.179894,45653,3017
1694.62,1.175781,39137,2611
1697.49,1.201454,33776,2124
1701.31,1.167695,28175,1915