File: ML/samples/unknown/Column 1_078098_20241121_164522.csv
Method:,Column 1,,
Host Date-Time:,21/11/24 @ 16:45:22,,
Header Version:,1,,
System Temp (C):,32.23,,
Detector Temp (C):,27.38,,
Humidity (%):,4.3,,
Lamp PD:,3807,,
Shift Vector Coefficients:,-10.5391,0.0761263,-0.000134223,,
Pixel to Wavelength Coefficients:,1775.68,-0.916766,-0.000235065,,
Serial Number:,5510004,,
Scan Config Name:,Column 1,,
Scan Config Type:,Slew,,
Section 1,,
Start wavelength (nm):,900,,
End wavelength (nm):,1700,,
Pattern Pixel Width (nm):,   7.03,,,,
Exposure (ms):,  0.635,,,,
Digital Resolution:,228,,
Num Repeats:,6,,
PGA Gain:,64,,
Total Measurement Time in sec:,  2.719,,
Wavelength (nm),Absorbance (AU),Reference Signal (unitless),Sample Signal (unitless)
901.51,1.316370,108485,5236
905.376,1.314653,121306,5878
909.237,1.315522,131909,6379
913.095,1.310030,143299,7018
916.948,1.307558,156982,7732
922.079,1.313907,179937,8734
925.923,1.318271,200504,9635
929.762,1.325173,222660,10531
933.597,1.324401,244426,11581
937.427,1.314891,263972,12784
941.254,1.319934,281845,13492
945.076,1.306456,297271,14679
950.165,1.321752,315605,15045
953.978,1.313369,328029,15942
957.786,1.311291,340470,16626
961.59,1.309365,352317,17281
965.389,1.320124,363056,17372
969.185,1.310658,373162,18249
972.976,1.310824,382632,18705
976.763,1.303080,391202,19468
981.806,1.307646,400190,19707
985.583,1.307286,406088,20014
989.355,1.300313,410162,20542
993.124,1.312118,412868,20123
996.888,1.313303,414263,20136
1000.65,1.307810,415476,20452
1004.4,1.307198,415479,20481
1009.41,1.308235,414358,20377
1013.15,1.319336,412923,19794
1016.89,1.312825,411526,20025
1020.63,1.315765,409066,19771
1024.36,1.314163,406777,19733
1028.09,1.308795,404427,19863
1031.82,1.313828,401911,19512
1036.78,1.310496,398410,19491
1040.49,1.308040,396204,19493
1044.2,1.313701,394236,19145
1047.91,1.311731,392042,19125
1051.61,1.316848,389823,18794
1055.31,1.312609,388234,18901
1059,1.310224,387599,18974
1063.92,1.317358,386688,18621
1067.61,1.314351,386598,18746
1071.29,1.316943,387377,18672
1074.96,1.309194,388536,19065
1078.63,1.310507,389855,19072
1082.3,1.320783,391215,18691
1085.96,1.323509,393215,18669
1090.84,1.322104,396270,18875
1094.49,1.313739,398760,19363
1098.14,1.316180,400987,19362
1101.79,1.329150,403477,18909
1105.43,1.316749,406116,19584
1109.06,1.320575,407701,19488
1112.7,1.318367,409859,19691
1117.53,1.319565,412494,19763
1121.15,1.316966,414909,19998
1124.77,1.310025,416559,20401
1128.38,1.319679,418532,20047
1131.99,1.321761,419956,20019
1135.6,1.323923,421946,20014
1139.2,1.327758,423881,19929
1143.99,1.319517,426786,20450
1147.58,1.329349,428617,20078
1151.17,1.322576,431169,20515
1154.75,1.322253,433579,20645
1158.33,1.321770,436264,20796
1161.91,1.320438,439132,20997
1165.48,1.328682,442389,20755
1169.04,1.321686,446101,21269
1173.79,1.327139,451929,21278
1177.34,1.324375,456026,21608
1180.9,1.319951,461306,22082
1184.44,1.322402,467657,22260
1187.99,1.320452,473969,22662
1191.52,1.319931,479856,22971
1195.06,1.325416,487372,23038
1199.76,1.325296,497347,23516
1203.29,1.325210,504311,23850
1206.81,1.318765,511507,24552
1210.33,1.322870,519078,24681
1213.84,1.331946,527163,24547
1217.35,1.328417,534208,25078
1220.85,1.321524,540472,25778
1225.51,1.323966,549929,26082
1229.01,1.324822,556888,26360
1232.5,1.324194,562180,26649
1235.98,1.315961,567975,27439
1239.46,1.329501,574815,26917
1242.94,1.321633,582782,27789
1246.41,1.322520,591476,28146
1251.03,1.332481,604016,28091
1254.5,1.322214,612289,29157
1257.96,1.326738,619125,29177
1261.41,1.322885,624551,29695
1264.86,1.326705,629900,29687
1268.31,1.326495,634345,29911
1271.75,1.333787,638574,29609
1276.33,1.329768,642499,30068
1279.76,1.333873,645905,29943
1283.19,1.328907,648307,30400
1286.61,1.333722,650446,30164
1290.03,1.329196,652132,30559
1293.44,1.334934,653907,30240
1296.85,1.334263,655963,30382
1301.39,1.333924,657349,30470
1304.8,1.329736,657558,30775
1308.19,1.330311,658515,30779
1311.58,1.336083,658804,30386
1314.97,1.333654,659011,30566
1318.36,1.326176,658272,31062
1321.73,1.331229,658022,30691
1326.23,1.334268,657870,30470
1329.6,1.338526,656482,30109
1332.97,1.333519,654926,30386
1336.33,1.336066,653727,30153
1339.69,1.334428,652497,30210
1343.04,1.332532,649913,30222
1346.39,1.338730,647671,29691
1349.73,1.335877,645338,29779
1354.18,1.331146,641175,29911
1357.52,1.334784,638376,29532
1360.85,1.333046,635805,29531
1364.17,1.329208,633413,29681
1367.49,1.328228,631026,29636
1370.81,1.333967,628050,29109
1374.12,1.331623,625034,29126
1378.54,1.326115,620272,29273
1381.84,1.330229,616892,28839
1385.14,1.330285,613613,28682
1388.43,1.328079,611526,28730
1391.72,1.325280,610663,28875
1395.01,1.335455,610634,28205
1398.29,1.327071,611700,28805
1402.66,1.332964,614051,28526
1405.93,1.332296,616268,28673
1409.2,1.331588,617795,28791
1412.46,1.333462,618872,28717
1415.72,1.335351,619795,28635
1418.98,1.340875,620495,28305
1422.23,1.337333,621087,28564
1426.56,1.336973,621375,28601
1429.8,1.335837,621616,28687
1433.04,1.334232,622129,28817
1436.27,1.332246,621526,28921
1439.5,1.339822,621113,28402
1442.72,1.334202,620921,28763
1445.94,1.337340,620270,28526
1450.23,1.334862,618860,28624
1453.44,1.338636,617697,28323
1456.64,1.337520,616264,28330
1459.85,1.335540,614413,28374
1463.04,1.337722,612307,28135
1466.24,1.345199,610032,27552
1469.43,1.336107,607345,28011
1473.67,1.339897,603789,27605
1476.85,1.338659,601175,27564
1480.02,1.333247,597737,27750
1483.19,1.339871,594479,27181
1486.36,1.336774,591232,27226
1489.52,1.336235,587853,27104
1492.68,1.341553,583875,26593
1496.89,1.343391,578062,26217
1500.03,1.344176,574159,25993
1503.18,1.342189,570285,25936
1506.32,1.342271,565444,25711
1509.45,1.340628,560571,25586
1512.58,1.343155,555821,25222
1515.71,1.339803,550344,25167
1519.87,1.336050,543983,25092
1522.99,1.343209,538764,24445
1526.1,1.341524,533692,24309
1529.21,1.341727,527902,24034
1532.32,1.343249,521886,23677
1535.42,1.344957,515888,23313
1538.51,1.343740,509987,23111
1541.6,1.345833,503936,22727
1545.72,1.339383,494694,22644
1548.8,1.348530,488378,21889
1551.88,1.347177,481832,21663
1554.95,1.340004,474989,21711
1558.02,1.333097,467818,21726
1561.08,1.335577,460730,21275
1564.15,1.336511,454170,20927
1568.22,1.341006,444181,20256
1571.27,1.333704,436947,20264
1574.32,1.336704,429598,19786
1577.36,1.337484,422039,19403
1580.4,1.335043,414375,19158
1583.43,1.332880,406354,18881
1586.46,1.341931,398475,18133
1590.49,1.331580,388982,18128
1593.51,1.336265,380708,17552
1596.53,1.344405,372727,16865
1599.54,1.336667,365060,16815
1602.55,1.334504,357543,16551
1605.55,1.333417,349495,16219
1608.55,1.331226,341154,15912
1612.54,1.335799,330877,15271
1615.53,1.319331,322904,15479
1618.51,1.325663,315116,14887
1621.49,1.323718,307217,14579
1624.47,1.328600,299481,14053
1627.44,1.339678,292112,13362
1630.41,1.327756,284245,13364
1634.36,1.330394,274079,12808
1637.32,1.326383,266916,12589
1640.27,1.316443,259612,12528
1643.22,1.322352,251804,11987
1646.16,1.323214,244348,11609
1649.1,1.324366,236703,11216
1652.04,1.311492,228171,11137
1655.95,1.319582,215408,10320
1658.88,1.318449,204937,9844
1661.8,1.323461,193395,9183
1664.72,1.290120,179728,9215
1667.63,1.307506,163642,8061
1670.54,1.306202,146312,7229
1673.44,1.308502,128451,6313
1677.31,1.280132,105080,5513
1680.21,1.303411,88906,4421
1683.1,1.321491,75033,3579
1685.99,1.273480,63520,3384
1688.87,1.315114,53714,2600
1691.75,1.336424,45653,2104
1694.62,1.333472,39137,1816
1697.49,1.307977,33776,1662
1701.31,1.261780,28175,1542