File: ML/samples/unknown/Column 1_078148_20241121_164749.csv
Method:,Column 1,,
Host Date-Time:,21/11/24 @ 16:47:49,,
Header Version:,1,,
System Temp (C):,33.17,,
Detector Temp (C):,29.17,,
Humidity (%):,3.22,,
Lamp PD:,3805,,
Shift Vector Coefficients:,-10.5391,0.0761263,-0.000134223,,
Pixel to Wavelength Coefficients:,1775.68,-0.916766,-0.000235065,,
Serial Number:,5510004,,
Scan Config Name:,Column 1,,
Scan Config Type:,Slew,,
Section 1,,
Start wavelength (nm):,900,,
End wavelength (nm):,1700,,
Pattern Pixel Width (nm):,   7.03,,,,
Exposure (ms):,  0.635,,,,
Digital Resolution:,228,,
Num Repeats:,6,,
PGA Gain:,64,,
Total Measurement Time in sec:,  2.726,,
Wavelength (nm),Absorbance (AU),Reference Signal (unitless),Sample Signal (unitless)
901.51,1.347841,108485,4870
905.376,1.311047,121306,5927
909.237,1.310445,131909,6454
913.095,1.317394,143299,6900
916.948,1.331161,156982,7323
922.079,1.330170,179937,8413
925.923,1.318181,200504,9637
929.762,1.328942,222660,10440
933.597,1.325302,244426,11557
937.427,1.323156,263972,12543
941.254,1.329305,281845,13204
945.076,1.315877,297271,14364
950.165,1.313319,315605,15340
953.978,1.318632,328029,15750
957.786,1.319652,340470,16309
961.59,1.321598,352317,16801
965.389,1.310482,363056,17762
969.185,1.308593,373162,18336
972.976,1.311893,382632,18659
976.763,1.308715,391202,19217
981.806,1.307954,400190,19693
985.583,1.309374,406088,19918
989.355,1.299320,410162,20589
993.124,1.311364,412868,20158
996.888,1.307689,414263,20398
1000.65,1.311714,415476,20269
1004.4,1.312725,415479,20222
1009.41,1.315543,414358,20037
1013.15,1.313452,412923,20064
1016.89,1.304576,411526,20409
1020.63,1.318718,409066,19637
1024.36,1.318410,406777,19541
1028.09,1.310768,404427,19773
1031.82,1.310171,401911,19677
1036.78,1.312238,398410,19413
1040.49,1.320218,396204,18954
1044.2,1.312772,394236,19186
1047.91,1.314213,392042,19016
1051.61,1.317010,389823,18787
1055.31,1.319347,388234,18610
1059,1.309538,387599,19004
1063.92,1.313758,386688,18776
1067.61,1.312548,386598,18824
1071.29,1.317711,387377,18639
1074.96,1.316870,388536,18731
1078.63,1.314326,389855,18905
1082.3,1.325831,391215,18475
1085.96,1.319803,393215,18829
1090.84,1.319787,396270,18976
1094.49,1.311971,398760,19442
1098.14,1.318609,400987,19254
1101.79,1.327179,403477,18995
1105.43,1.320490,406116,19416
1109.06,1.316670,407701,19664
1112.7,1.323313,409859,19468
1117.53,1.321172,412494,19690
1121.15,1.321332,414909,19798
1124.77,1.317281,416559,20063
1128.38,1.319116,418532,20073
1131.99,1.319554,419956,20121
1135.6,1.319068,421946,20239
1139.2,1.333572,423881,19664
1143.99,1.328638,426786,20025
1147.58,1.328809,428617,20103
1151.17,1.324103,431169,20443
1154.75,1.321938,433579,20660
1158.33,1.322083,436264,20781
1161.91,1.327276,439132,20669
1165.48,1.322573,442389,21049
1169.04,1.325007,446101,21107
1173.79,1.320054,451929,21628
1177.34,1.320812,456026,21786
1180.9,1.321507,461306,22003
1184.44,1.322012,467657,22280
1187.99,1.320778,473969,22645
1191.52,1.322986,479856,22810
1195.06,1.319518,487372,23353
1199.76,1.316738,497347,23984
1203.29,1.323738,504311,23931
1206.81,1.322942,511507,24317
1210.33,1.329108,519078,24329
1213.84,1.324370,527163,24979
1217.35,1.332035,534208,24870
1220.85,1.320918,540472,25814
1225.51,1.330543,549929,25690
1229.01,1.331262,556888,25972
1232.5,1.320899,562180,26852
1235.98,1.322274,567975,27043
1239.46,1.326944,574815,27076
1242.94,1.320151,582782,27884
1246.41,1.324515,591476,28017
1251.03,1.328541,604016,28347
1254.5,1.327504,612289,28804
1257.96,1.331226,619125,28877
1261.41,1.331720,624551,29097
1264.86,1.324735,629900,29822
1268.31,1.328663,634345,29762
1271.75,1.329351,638574,29913
1276.33,1.331360,642499,29958
1279.76,1.328454,645905,30319
1283.19,1.334616,648307,30003
1286.61,1.335497,650446,30041
1290.03,1.332678,652132,30315
1293.44,1.332243,653907,30428
1296.85,1.331726,655963,30560
1301.39,1.333098,657349,30528
1304.8,1.331730,657558,30634
1308.19,1.336450,658515,30347
1311.58,1.332496,658804,30638
1314.97,1.334863,659011,30481
1318.36,1.332684,658272,30600
1321.73,1.339357,658022,30122
1326.23,1.337113,657870,30271
1329.6,1.338526,656482,30109
1332.97,1.339984,654926,29937
1336.33,1.336167,653727,30146
1339.69,1.333064,652497,30305
1343.04,1.335285,649913,30031
1346.39,1.332427,647671,30125
1349.73,1.328087,645338,30318
1354.18,1.328800,641175,30073
1357.52,1.329870,638376,29868
1360.85,1.334416,635805,29438
1364.17,1.330161,633413,29616
1367.49,1.330991,631026,29448
1370.81,1.329012,628050,29443
1374.12,1.332474,625034,29069
1378.54,1.331519,620272,28911
1381.84,1.330304,616892,28834
1385.14,1.332273,613613,28551
1388.43,1.328700,611526,28689
1391.72,1.328419,610663,28667
1395.01,1.337183,610634,28093
1398.29,1.333786,611700,28363
1402.66,1.327517,614051,28886
1405.93,1.326175,616268,29080
1409.2,1.334645,617795,28589
1412.46,1.334658,618872,28638
1415.72,1.330510,619795,28956
1418.98,1.336433,620495,28596
1422.23,1.337775,621087,28535
1426.56,1.329744,621375,29081
1429.8,1.334341,621616,28786
1433.04,1.341803,622129,28319
1436.27,1.340202,621526,28396
1439.5,1.336881,621113,28595
1442.72,1.341972,620921,28253
1445.94,1.333218,620270,28798
1450.23,1.339193,618860,28340
1453.44,1.330028,617697,28890
1456.64,1.336204,616264,28416
1459.85,1.341613,614413,27980
1463.04,1.338309,612307,28097
1466.24,1.338195,610032,28000
1469.43,1.341960,607345,27636
1473.67,1.338735,603789,27679
1476.85,1.340332,601175,27458
1480.02,1.338696,597737,27404
1483.19,1.334835,594479,27498
1486.36,1.333754,591232,27416
1489.52,1.338936,587853,26936
1492.68,1.342632,583875,26527
1496.89,1.342729,578062,26257
1500.03,1.338054,574159,26362
1503.18,1.347971,570285,25593
1506.32,1.340467,565444,25818
1509.45,1.343114,560571,25440
1512.58,1.339589,555821,25430
1515.71,1.334793,550344,25459
1519.87,1.345322,543983,24562
1522.99,1.340375,538764,24605
1526.1,1.337646,533692,24527
1529.21,1.336054,527902,24350
1532.32,1.343983,521886,23637
1535.42,1.342190,515888,23462
1538.51,1.344154,509987,23089
1541.6,1.339328,503936,23070
1545.72,1.338789,494694,22675
1548.8,1.330593,488378,22812
1551.88,1.343762,481832,21834
1554.95,1.340204,474989,21701
1558.02,1.341881,467818,21291
1561.08,1.344716,460730,20832
1564.15,1.338884,454170,20813
1568.22,1.336209,444181,20481
1571.27,1.339920,436947,19976
1574.32,1.335236,429598,19853
1577.36,1.331813,422039,19658
1580.4,1.344253,414375,18756
1583.43,1.337342,406354,18688
1586.46,1.339233,398475,18246
1590.49,1.339534,388982,17799
1593.51,1.329538,380708,17826
1596.53,1.334828,372727,17241
1599.54,1.337779,365060,16772
1602.55,1.337030,357543,16455
1605.55,1.331840,349495,16278
1608.55,1.324751,341154,16151
1612.54,1.331667,330877,15417
1615.53,1.325576,322904,15258
1618.51,1.325430,315116,14895
1621.49,1.330382,307217,14357
1624.47,1.329559,299481,14022
1627.44,1.325324,292112,13811
1630.41,1.329972,284245,13296
1634.36,1.329142,274079,12845
1637.32,1.330056,266916,12483
1640.27,1.329927,259612,12145
1643.22,1.323077,251804,11967
1646.16,1.318304,244348,11741
1649.1,1.329978,236703,11072
1652.04,1.332709,228171,10606
1655.95,1.309516,215408,10562
1658.88,1.313405,204937,9959
1661.8,1.294732,193395,9811
1664.72,1.294907,179728,9114
1667.63,1.299340,163642,8214
1670.54,1.273464,146312,7795
1673.44,1.277700,128451,6777
1677.31,1.313524,105080,5105
1680.21,1.280638,88906,4659
1683.1,1.217145,75033,4551
1685.99,1.254030,63520,3539
1688.87,1.349695,53714,2401
1691.75,1.230687,45653,2684
1694.62,1.332278,39137,1821
1697.49,1.259563,33776,1858
1701.31,1.260935,28175,1545