File: ML/samples/unknown/Column 1_078494_20241121_170526.csv
Method:,Column 1,,
Host Date-Time:,21/11/24 @ 17:5:26,,
Header Version:,1,,
System Temp (C):,34.9,,
Detector Temp (C):,33.82,,
Humidity (%):,1.91,,
Lamp PD:,3800,,
Shift Vector Coefficients:,-10.5391,0.0761263,-0.000134223,,
Pixel to Wavelength Coefficients:,1775.68,-0.916766,-0.000235065,,
Serial Number:,5510004,,
Scan Config Name:,Column 1,,
Scan Config Type:,Slew,,
Section 1,,
Start wavelength (nm):,900,,
End wavelength (nm):,1700,,
Pattern Pixel Width (nm):,   7.03,,,,
Exposure (ms):,  0.635,,,,
Digital Resolution:,228,,
Num Repeats:,6,,
PGA Gain:,64,,
Total Measurement Time in sec:,  2.706,,
Wavelength (nm),Absorbance (AU),Reference Signal (unitless),Sample Signal (unitless)
901.51,1.311750,108485,5292
905.376,1.308126,121306,5967
909.237,1.335942,131909,6086
913.095,1.359946,143299,6256
916.948,1.341908,156982,7144
922.079,1.325650,179937,8501
925.923,1.351612,200504,8923
929.762,1.342505,222660,10119
933.597,1.326280,244426,11531
937.427,1.317925,263972,12695
941.254,1.330919,281845,13155
945.076,1.332865,297271,13813
950.165,1.313999,315605,15316
953.978,1.314980,328029,15883
957.786,1.315148,340470,16479
961.59,1.309692,352317,17268
965.389,1.318676,363056,17430
969.185,1.313212,373162,18142
972.976,1.319406,382632,18339
976.763,1.316790,391202,18863
981.806,1.313749,400190,19432
985.583,1.311385,406088,19826
989.355,1.312230,410162,19986
993.124,1.314260,412868,20024
996.888,1.311216,414263,20233
1000.65,1.308363,415476,20426
1004.4,1.310732,415479,20315
1009.41,1.303319,414358,20609
1013.15,1.325790,412923,19502
1016.89,1.311828,411526,20071
1020.63,1.309701,409066,20049
1024.36,1.319300,406777,19501
1028.09,1.309080,404427,19850
1031.82,1.324144,401911,19054
1036.78,1.307100,398410,19644
1040.49,1.303541,396204,19696
1044.2,1.320122,394236,18864
1047.91,1.313005,392042,19069
1051.61,1.305018,389823,19313
1055.31,1.311645,388234,18943
1059,1.313555,387599,18829
1063.92,1.316147,386688,18673
1067.61,1.320440,386598,18485
1071.29,1.328564,387377,18179
1074.96,1.312855,388536,18905
1078.63,1.314143,389855,18913
1082.3,1.311382,391215,19100
1085.96,1.322000,393215,18734
1090.84,1.321277,396270,18911
1094.49,1.329404,398760,18677
1098.14,1.321483,400987,19127
1101.79,1.326882,403477,19008
1105.43,1.320356,406116,19422
1109.06,1.317709,407701,19617
1112.7,1.318477,409859,19686
1117.53,1.325806,412494,19481
1121.15,1.316706,414909,20010
1124.77,1.313745,416559,20227
1128.38,1.325393,418532,19785
1131.99,1.324438,419956,19896
1135.6,1.320896,421946,20154
1139.2,1.319363,423881,20318
1143.99,1.317187,426786,20560
1147.58,1.324488,428617,20304
1151.17,1.326702,431169,20321
1154.75,1.321203,433579,20695
1158.33,1.330993,436264,20359
1161.91,1.316280,439132,21199
1165.48,1.326511,442389,20859
1169.04,1.320585,446101,21323
1173.79,1.321784,451929,21542
1177.34,1.324174,456026,21618
1180.9,1.319086,461306,22126
1184.44,1.325221,467657,22116
1187.99,1.328283,473969,22257
1191.52,1.317292,479856,23111
1195.06,1.318404,487372,23413
1199.76,1.323067,497347,23637
1203.29,1.321475,504311,24056
1206.81,1.323549,511507,24283
1210.33,1.319539,519078,24871
1213.84,1.326758,527163,24842
1217.35,1.330849,534208,24938
1220.85,1.325603,540472,25537
1225.51,1.322968,549929,26142
1229.01,1.323112,556888,26464
1232.5,1.322665,562180,26743
1235.98,1.324109,567975,26929
1239.46,1.332415,574815,26737
1242.94,1.329710,582782,27277
1246.41,1.319017,591476,28374
1251.03,1.329124,604016,28309
1254.5,1.327820,612289,28783
1257.96,1.325727,619125,29245
1261.41,1.327767,624551,29363
1264.86,1.325464,629900,29772
1268.31,1.329906,634345,29677
1271.75,1.329671,638574,29891
1276.33,1.331635,642499,29939
1279.76,1.332961,645905,30006
1283.19,1.334486,648307,30012
1286.61,1.331754,650446,30301
1290.03,1.336679,652132,30037
1293.44,1.329114,653907,30648
1296.85,1.333149,655963,30460
1301.39,1.332217,657349,30590
1304.8,1.332880,657558,30553
1308.19,1.330481,658515,30767
1311.58,1.327395,658804,31000
1314.97,1.335562,659011,30432
1318.36,1.335418,658272,30408
1321.73,1.331640,658022,30662
1326.23,1.334225,657870,30473
1329.6,1.333578,656482,30454
1332.97,1.334893,654926,30290
1336.33,1.328909,653727,30654
1339.69,1.332978,652497,30311
1343.04,1.333222,649913,30174
1346.39,1.331866,647671,30164
1349.73,1.332840,645338,29988
1354.18,1.332731,641175,29802
1357.52,1.331414,638376,29762
1360.85,1.332267,635805,29584
1364.17,1.325914,633413,29907
1367.49,1.333283,631026,29293
1370.81,1.332463,628050,29210
1374.12,1.323996,625034,29642
1378.54,1.324279,620272,29397
1381.84,1.330937,616892,28792
1385.14,1.326051,613613,28963
1388.43,1.334429,611526,28313
1391.72,1.329405,610663,28602
1395.01,1.329354,610634,28604
1398.29,1.332075,611700,28475
1402.66,1.334168,614051,28447
1405.93,1.332812,616268,28639
1409.2,1.331618,617795,28789
1412.46,1.337488,618872,28452
1415.72,1.338456,619795,28431
1418.98,1.331795,620495,28903
1422.23,1.326596,621087,29279
1426.56,1.339226,621375,28453
1429.8,1.337369,621616,28586
1433.04,1.336983,622129,28635
1436.27,1.335124,621526,28730
1439.5,1.340174,621113,28379
1442.72,1.331283,620921,28957
1445.94,1.333068,620270,28808
1450.23,1.335758,618860,28565
1453.44,1.334713,617697,28580
1456.64,1.347899,616264,27661
1459.85,1.339569,614413,28112
1463.04,1.342222,612307,27845
1466.24,1.339702,610032,27903
1469.43,1.336076,607345,28013
1473.67,1.335577,603789,27881
1476.85,1.336082,601175,27728
1480.02,1.344423,597737,27045
1483.19,1.343433,594479,26959
1486.36,1.341102,591232,26956
1489.52,1.344795,587853,26575
1492.68,1.343878,583875,26451
1496.89,1.339319,578062,26464
1500.03,1.339489,574159,26275
1503.18,1.338820,570285,26138
1506.32,1.345084,565444,25545
1509.45,1.339984,560571,25624
1512.58,1.344276,555821,25157
1515.71,1.340062,550344,25152
1519.87,1.342537,543983,24720
1522.99,1.337490,538764,24769
1526.1,1.344715,533692,24131
1529.21,1.337287,527902,24281
1532.32,1.345400,521886,23560
1535.42,1.335450,515888,23829
1538.51,1.339105,509987,23359
1541.6,1.331437,503936,23493
1545.72,1.340171,494694,22603
1548.8,1.336960,488378,22480
1551.88,1.339349,481832,22057
1554.95,1.336398,474989,21892
1558.02,1.341677,467818,21301
1561.08,1.340236,460730,21048
1564.15,1.345655,454170,20491
1568.22,1.333356,444181,20616
1571.27,1.341161,436947,19919
1574.32,1.338089,429598,19723
1577.36,1.344751,422039,19081
1580.4,1.347134,414375,18632
1583.43,1.346287,406354,18307
1586.46,1.340545,398475,18191
1590.49,1.334440,388982,18009
1593.51,1.329270,380708,17837
1596.53,1.324769,372727,17645
1599.54,1.333348,365060,16944
1602.55,1.325801,357543,16886
1605.55,1.338724,349495,16022
1608.55,1.335918,341154,15741
1612.54,1.333558,330877,15350
1615.53,1.330614,322904,15082
1618.51,1.322032,315116,15012
1621.49,1.337887,307217,14111
1624.47,1.341714,299481,13635
1627.44,1.335280,292112,13498
1630.41,1.317289,284245,13690
1634.36,1.324802,274079,12974
1637.32,1.328458,266916,12529
1640.27,1.329391,259612,12160
1643.22,1.320508,251804,12038
1646.16,1.337127,244348,11243
1649.1,1.320703,236703,11311
1652.04,1.312078,228171,11122
1655.95,1.311866,215408,10505
1658.88,1.294671,204937,10398
1661.8,1.306851,193395,9541
1664.72,1.282737,179728,9373
1667.63,1.267934,163642,8830
1670.54,1.252102,146312,8188
1673.44,1.234894,128451,7479
1677.31,1.229689,105080,6192
1680.21,1.173758,88906,5959
1683.1,1.212494,75033,4600
1685.99,1.224959,63520,3784
1688.87,1.198864,53714,3398
1691.75,1.203103,45653,2860
1694.62,1.269542,39137,2104
1697.49,1.181278,33776,2225
1701.31,1.175244,28175,1882