File: ML/samples/unknown/Column 1_078623_20241121_171149.csv
Method:,Column 1,,
Host Date-Time:,21/11/24 @ 17:11:49,,
Header Version:,1,,
System Temp (C):,36.69,,
Detector Temp (C):,35.12,,
Humidity (%):,0.68,,
Lamp PD:,3798,,
Shift Vector Coefficients:,-10.5391,0.0761263,-0.000134223,,
Pixel to Wavelength Coefficients:,1775.68,-0.916766,-0.000235065,,
Serial Number:,5510004,,
Scan Config Name:,Column 1,,
Scan Config Type:,Slew,,
Section 1,,
Start wavelength (nm):,900,,
End wavelength (nm):,1700,,
Pattern Pixel Width (nm):,   7.03,,,,
Exposure (ms):,  0.635,,,,
Digital Resolution:,228,,
Num Repeats:,6,,
PGA Gain:,64,,
Total Measurement Time in sec:,  2.723,,
Wavelength (nm),Absorbance (AU),Reference Signal (unitless),Sample Signal (unitless)
901.51,1.343669,108485,4917
905.376,1.279266,121306,6377
909.237,1.323839,131909,6258
913.095,1.323479,143299,6804
916.948,1.320152,156982,7511
922.079,1.331359,179937,8390
925.923,1.324399,200504,9500
929.762,1.330609,222660,10400
933.597,1.321188,244426,11667
937.427,1.316184,263972,12746
941.254,1.319323,281845,13511
945.076,1.318881,297271,14265
950.165,1.312527,315605,15368
953.978,1.308251,328029,16131
957.786,1.316626,340470,16423
961.59,1.308135,352317,17330
965.389,1.308189,363056,17856
969.185,1.308403,373162,18344
972.976,1.319145,382632,18350
976.763,1.309303,391202,19191
981.806,1.302345,400190,19949
985.583,1.308525,406088,19957
989.355,1.310192,410162,20080
993.124,1.308165,412868,20307
996.888,1.306010,414263,20477
1000.65,1.305924,415476,20541
1004.4,1.295958,415479,21018
1009.41,1.307746,414358,20400
1013.15,1.305792,412923,20421
1016.89,1.309412,411526,20183
1020.63,1.318232,409066,19659
1024.36,1.303296,406777,20233
1028.09,1.304488,404427,20061
1031.82,1.303904,401911,19963
1036.78,1.301346,398410,19906
1040.49,1.307061,396204,19537
1044.2,1.308425,394236,19379
1047.91,1.306741,392042,19346
1051.61,1.310335,389823,19078
1055.31,1.305724,388234,19203
1059,1.309401,387599,19010
1063.92,1.314406,386688,18748
1067.61,1.302491,386598,19265
1071.29,1.313445,387377,18823
1074.96,1.303941,388536,19297
1078.63,1.316884,389855,18794
1082.3,1.308798,391215,19214
1085.96,1.311465,393215,19194
1090.84,1.315777,396270,19152
1094.49,1.318747,398760,19141
1098.14,1.311118,400987,19589
1101.79,1.316029,403477,19489
1105.43,1.306969,406116,20030
1109.06,1.318840,407701,19566
1112.7,1.315180,409859,19836
1117.53,1.318818,412494,19797
1121.15,1.308813,414909,20377
1124.77,1.312266,416559,20296
1128.38,1.317238,418532,20160
1131.99,1.320721,419956,20067
1135.6,1.308804,421946,20723
1139.2,1.317316,423881,20414
1143.99,1.314471,426786,20689
1147.58,1.315784,428617,20715
1151.17,1.320886,431169,20595
1154.75,1.320658,433579,20721
1158.33,1.311615,436264,21288
1161.91,1.310743,439132,21471
1165.48,1.319120,442389,21217
1169.04,1.310220,446101,21838
1173.79,1.314626,451929,21900
1177.34,1.315463,456026,22056
1180.9,1.314284,461306,22372
1184.44,1.319059,467657,22432
1187.99,1.321430,473969,22611
1191.52,1.315398,479856,23212
1195.06,1.316941,487372,23492
1199.76,1.318298,497347,23898
1203.29,1.319045,504311,24191
1206.81,1.321053,511507,24423
1210.33,1.318023,519078,24958
1213.84,1.315422,527163,25499
1217.35,1.322791,534208,25405
1220.85,1.329172,540472,25328
1225.51,1.315507,549929,26595
1229.01,1.321295,556888,26575
1232.5,1.319655,562180,26929
1235.98,1.322082,567975,27055
1239.46,1.324800,574815,27210
1242.94,1.318845,582782,27968
1246.41,1.319507,591476,28342
1251.03,1.316768,604016,29126
1254.5,1.332661,612289,28464
1257.96,1.320648,619125,29589
1261.41,1.320856,624551,29834
1264.86,1.321572,629900,30040
1268.31,1.323283,634345,30133
1271.75,1.327237,638574,30059
1276.33,1.330129,642499,30043
1279.76,1.327009,645905,30420
1283.19,1.326059,648307,30600
1286.61,1.320493,650446,31097
1290.03,1.324855,652132,30866
1293.44,1.327473,653907,30764
1296.85,1.324538,655963,31070
1301.39,1.334080,657349,30459
1304.8,1.327470,657558,30936
1308.19,1.325847,658515,31097
1311.58,1.331123,658804,30735
1314.97,1.326551,659011,31070
1318.36,1.327394,658272,30975
1321.73,1.326949,658022,30995
1326.23,1.326961,657870,30987
1329.6,1.332126,656482,30556
1332.97,1.330059,654926,30629
1336.33,1.329093,653727,30641
1339.69,1.327907,652497,30667
1343.04,1.326113,649913,30672
1346.39,1.332644,647671,30110
1349.73,1.326542,645338,30426
1354.18,1.327646,641175,30153
1357.52,1.325026,638376,30203
1360.85,1.318554,635805,30533
1364.17,1.324696,633413,29991
1367.49,1.322290,631026,30044
1370.81,1.325794,628050,29662
1374.12,1.326199,625034,29492
1378.54,1.322628,620272,29509
1381.84,1.323668,616892,29278
1385.14,1.326816,613613,28912
1388.43,1.320631,611526,29227
1391.72,1.325280,610663,28875
1395.01,1.324267,610634,28941
1398.29,1.324425,611700,28981
1402.66,1.325402,614051,29027
1405.93,1.325668,616268,29114
1409.2,1.327549,617795,29060
1412.46,1.325119,618872,29274
1415.72,1.331606,619795,28883
1418.98,1.326241,620495,29275
1422.23,1.331444,621087,28954
1426.56,1.327183,621375,29253
1429.8,1.335852,621616,28686
1433.04,1.329406,622129,29139
1436.27,1.332081,621526,28932
1439.5,1.328607,621113,29145
1442.72,1.332845,620921,28853
1445.94,1.329479,620270,29047
1450.23,1.332879,618860,28755
1453.44,1.332168,617697,28748
1456.64,1.332839,616264,28637
1459.85,1.335111,614413,28402
1463.04,1.329981,612307,28641
1466.24,1.336492,610032,28110
1469.43,1.331895,607345,28284
1473.67,1.330297,603789,28222
1476.85,1.336553,601175,27698
1480.02,1.328515,597737,28054
1483.19,1.328003,594479,27934
1486.36,1.334547,591232,27366
1489.52,1.326695,587853,27706
1492.68,1.335310,583875,26978
1496.89,1.335268,578062,26712
1500.03,1.334657,574159,26569
1503.18,1.334916,570285,26374
1506.32,1.331592,565444,26351
1509.45,1.332157,560571,26090
1512.58,1.329044,555821,26055
1515.71,1.333192,550344,25553
1519.87,1.331830,543983,25337
1522.99,1.331708,538764,25101
1526.1,1.331126,533692,24898
1529.21,1.337824,527902,24251
1532.32,1.339359,521886,23890
1535.42,1.332616,515888,23985
1538.51,1.335384,509987,23560
1541.6,1.325087,503936,23839
1545.72,1.331722,494694,23047
1548.8,1.331069,488378,22787
1551.88,1.328557,481832,22612
1554.95,1.326765,474989,22383
1558.02,1.334479,467818,21657
1561.08,1.330503,460730,21525
1564.15,1.332052,454170,21143
1568.22,1.338143,444181,20390
1571.27,1.326772,436947,20590
1574.32,1.330234,429598,20083
1577.36,1.319271,422039,20234
1580.4,1.327025,414375,19515
1583.43,1.330242,406354,18996
1586.46,1.330795,398475,18604
1590.49,1.323627,388982,18463
1593.51,1.325657,380708,17986
1596.53,1.327708,372727,17526
1599.54,1.325047,365060,17271
1602.55,1.323109,357543,16991
1605.55,1.329339,349495,16372
1608.55,1.320071,341154,16326
1612.54,1.320707,330877,15811
1615.53,1.319892,322904,15459
1618.51,1.319292,315116,15107
1621.49,1.330412,307217,14356
1624.47,1.313626,299481,14546
1627.44,1.324759,292112,13829
1630.41,1.316687,284245,13709
1634.36,1.323398,274079,13016
1637.32,1.316391,266916,12882
1640.27,1.308610,259612,12756
1643.22,1.320256,251804,12045
1646.16,1.304650,244348,12116
1649.1,1.308139,236703,11643
1652.04,1.299417,228171,11451
1655.95,1.299155,215408,10817
1658.88,1.310536,204937,10025
1661.8,1.272639,193395,10323
1664.72,1.266637,179728,9727
1667.63,1.253281,163642,9133
1670.54,1.249933,146312,8229
1673.44,1.201487,128451,8077
1677.31,1.191638,105080,6759
1680.21,1.199581,88906,5615
1683.1,1.165643,75033,5124
1685.99,1.147292,63520,4525
1688.87,1.255434,53714,2983
1691.75,1.196772,45653,2902
1694.62,1.198662,39137,2477
1697.49,1.154961,33776,2364
1701.31,1.157386,28175,1961