File: ML/samples/unknown/Column 1_078414_20241121_170130.csv
Method:,Column 1,,
Host Date-Time:,21/11/24 @ 17:1:30,,
Header Version:,1,,
System Temp (C):,34.76,,
Detector Temp (C):,33.75,,
Humidity (%):,2.16,,
Lamp PD:,3801,,
Shift Vector Coefficients:,-10.5391,0.0761263,-0.000134223,,
Pixel to Wavelength Coefficients:,1775.68,-0.916766,-0.000235065,,
Serial Number:,5510004,,
Scan Config Name:,Column 1,,
Scan Config Type:,Slew,,
Section 1,,
Start wavelength (nm):,900,,
End wavelength (nm):,1700,,
Pattern Pixel Width (nm):,   7.03,,,,
Exposure (ms):,  0.635,,,,
Digital Resolution:,228,,
Num Repeats:,6,,
PGA Gain:,64,,
Total Measurement Time in sec:,  2.728,,
Wavelength (nm),Absorbance (AU),Reference Signal (unitless),Sample Signal (unitless)
901.51,1.327885,108485,5099
905.376,1.333683,121306,5626
909.237,1.311389,131909,6440
913.095,1.307562,143299,7058
916.948,1.329917,156982,7344
922.079,1.309997,179937,8813
925.923,1.324948,200504,9488
929.762,1.328734,222660,10445
933.597,1.328811,244426,11464
937.427,1.315775,263972,12758
941.254,1.318777,281845,13528
945.076,1.315152,297271,14388
950.165,1.317272,315605,15201
953.978,1.313778,328029,15927
957.786,1.310013,340470,16675
961.59,1.307859,352317,17341
965.389,1.315870,363056,17543
969.185,1.312829,373162,18158
972.976,1.309873,382632,18746
976.763,1.302522,391202,19493
981.806,1.299049,400190,20101
985.583,1.313669,406088,19722
989.355,1.305845,410162,20282
993.124,1.313415,412868,20063
996.888,1.309973,414263,20291
1000.65,1.315652,415476,20086
1004.4,1.307559,415479,20464
1009.41,1.312713,414358,20168
1013.15,1.301286,412923,20634
1016.89,1.305556,411526,20363
1020.63,1.310720,409066,20002
1024.36,1.306614,406777,20079
1028.09,1.312043,404427,19715
1031.82,1.302731,401911,20017
1036.78,1.310385,398410,19496
1040.49,1.311642,396204,19332
1044.2,1.306257,394236,19476
1047.91,1.305061,392042,19421
1051.61,1.311155,389823,19042
1055.31,1.300040,388234,19456
1059,1.311507,387599,18918
1063.92,1.306350,386688,19099
1067.61,1.301635,386598,19303
1071.29,1.314438,387377,18780
1074.96,1.307240,388536,19151
1078.63,1.317809,389855,18754
1082.3,1.316276,391215,18886
1085.96,1.319134,393215,18858
1090.84,1.325036,396270,18748
1094.49,1.319792,398760,19095
1098.14,1.310099,400987,19635
1101.79,1.315673,403477,19505
1105.43,1.324445,406116,19240
1109.06,1.312691,407701,19845
1112.7,1.320578,409859,19591
1117.53,1.320599,412494,19716
1121.15,1.316033,414909,20041
1124.77,1.314992,416559,20169
1128.38,1.311545,418532,20426
1131.99,1.316286,419956,20273
1135.6,1.317376,421946,20318
1139.2,1.312513,423881,20641
1143.99,1.313967,426786,20713
1147.58,1.318519,428617,20585
1151.17,1.314252,431169,20912
1154.75,1.310999,433579,21187
1158.33,1.320539,436264,20855
1161.91,1.313645,439132,21328
1165.48,1.317527,442389,21295
1169.04,1.316268,446101,21536
1173.79,1.314170,451929,21923
1177.34,1.325240,456026,21565
1180.9,1.315665,461306,22301
1184.44,1.310813,467657,22862
1187.99,1.314324,473969,22984
1191.52,1.316691,479856,23143
1195.06,1.317903,487372,23440
1199.76,1.319845,497347,23813
1203.29,1.318166,504311,24240
1206.81,1.321124,511507,24419
1210.33,1.326421,519078,24480
1213.84,1.325205,527163,24931
1217.35,1.322706,534208,25410
1220.85,1.324686,540472,25591
1225.51,1.326219,549929,25947
1229.01,1.320038,556888,26652
1232.5,1.322925,562180,26727
1235.98,1.320463,567975,27156
1239.46,1.322349,574815,27364
1242.94,1.317682,582782,28043
1246.41,1.322490,591476,28148
1251.03,1.329707,604016,28271
1254.5,1.325953,612289,28907
1257.96,1.323712,619125,29381
1261.41,1.327738,624551,29365
1264.86,1.320691,629900,30101
1268.31,1.328401,634345,29780
1271.75,1.332733,638574,29681
1276.33,1.328571,642499,30151
1279.76,1.327152,645905,30410
1283.19,1.327937,648307,30468
1286.61,1.328356,650446,30539
1290.03,1.327494,652132,30679
1293.44,1.329866,653907,30595
1296.85,1.330846,655963,30622
1301.39,1.328879,657349,30826
1304.8,1.329623,657558,30783
1308.19,1.335292,658515,30428
1311.58,1.337744,658804,30270
1314.97,1.330680,659011,30776
1318.36,1.333451,658272,30546
1321.73,1.334710,658022,30446
1326.23,1.330013,657870,30770
1329.6,1.330977,656482,30637
1332.97,1.336631,654926,30169
1336.33,1.332966,653727,30369
1339.69,1.331905,652497,30386
1343.04,1.336778,649913,29928
1346.39,1.338583,647671,29701
1349.73,1.325872,645338,30473
1354.18,1.326625,641175,30224
1357.52,1.333023,638376,29652
1360.85,1.331900,635805,29609
1364.17,1.330924,633413,29564
1367.49,1.330873,631026,29456
1370.81,1.324639,628050,29741
1374.12,1.329540,625034,29266
1378.54,1.324323,620272,29394
1381.84,1.328201,616892,28974
1385.14,1.329816,613613,28713
1388.43,1.328821,611526,28681
1391.72,1.325189,610663,28881
1395.01,1.328687,610634,28648
1398.29,1.329414,611700,28650
1402.66,1.330565,614051,28684
1405.93,1.329007,616268,28891
1409.2,1.331060,617795,28826
1412.46,1.325119,618872,29274
1415.72,1.333052,619795,28787
1418.98,1.334055,620495,28753
1422.23,1.331849,621087,28927
1426.56,1.336214,621375,28651
1429.8,1.332955,621616,28878
1433.04,1.337317,622129,28613
1436.27,1.332637,621526,28895
1439.5,1.330623,621113,29010
1442.72,1.332725,620921,28861
1445.94,1.337843,620270,28493
1450.23,1.330890,618860,28887
1453.44,1.342734,617697,28057
1456.64,1.330088,616264,28819
1459.85,1.336475,614413,28313
1463.04,1.334079,612307,28372
1466.24,1.332539,610032,28367
1469.43,1.334884,607345,28090
1473.67,1.332442,603789,28083
1476.85,1.340111,601175,27472
1480.02,1.337667,597737,27469
1483.19,1.331265,594479,27725
1486.36,1.336041,591232,27272
1489.52,1.339210,587853,26919
1492.68,1.329569,583875,27337
1496.89,1.334245,578062,26775
1500.03,1.339027,574159,26303
1503.18,1.336351,570285,26287
1506.32,1.339258,565444,25890
1509.45,1.339933,560571,25627
1512.58,1.332323,555821,25859
1515.71,1.335288,550344,25430
1519.87,1.340486,543983,24837
1522.99,1.337525,538764,24767
1526.1,1.328969,533692,25022
1529.21,1.334097,527902,24460
1532.32,1.336605,521886,24042
1535.42,1.336197,515888,23788
1538.51,1.341940,509987,23207
1541.6,1.333940,503936,23358
1545.72,1.334217,494694,22915
1548.8,1.341309,488378,22256
1551.88,1.342333,481832,21906
1554.95,1.333669,474989,22030
1558.02,1.342534,467818,21259
1561.08,1.340298,460730,21045
1564.15,1.328982,454170,21293
1568.22,1.323298,444181,21099
1571.27,1.328950,436947,20487
1574.32,1.339412,429598,19663
1577.36,1.332786,422039,19614
1580.4,1.330286,414375,19369
1583.43,1.329078,406354,19047
1586.46,1.334829,398475,18432
1590.49,1.331747,388982,18121
1593.51,1.331051,380708,17764
1596.53,1.333069,372727,17311
1599.54,1.332682,365060,16970
1602.55,1.325416,357543,16901
1605.55,1.329684,349495,16359
1608.55,1.315072,341154,16515
1612.54,1.331329,330877,15429
1615.53,1.324666,322904,15290
1618.51,1.330209,315116,14732
1621.49,1.328209,307217,14429
1624.47,1.333386,299481,13899
1627.44,1.317564,292112,14060
1630.41,1.336521,284245,13097
1634.36,1.313535,274079,13315
1637.32,1.334251,266916,12363
1640.27,1.305591,259612,12845
1643.22,1.314454,251804,12207
1646.16,1.315538,244348,11816
1649.1,1.315247,236703,11454
1652.04,1.316158,228171,11018
1655.95,1.307096,215408,10621
1658.88,1.302978,204937,10201
1661.8,1.284452,193395,10046
1664.72,1.286179,179728,9299
1667.63,1.268328,163642,8822
1670.54,1.223570,146312,8744
1673.44,1.221289,128451,7717
1677.31,1.201056,105080,6614
1680.21,1.233847,88906,5189
1683.1,1.163192,75033,5153
1685.99,1.167125,63520,4323
1688.87,1.141704,53714,3876
1691.75,1.161573,45653,3147
1694.62,1.175781,39137,2611
1697.49,1.222612,33776,2023
1701.31,1.085876,28175,2312