File: ML/samples/unknown/Column 1_078232_20241121_165158.csv
Method:,Column 1,,
Host Date-Time:,21/11/24 @ 16:51:58,,
Header Version:,1,,
System Temp (C):,34.2,,
Detector Temp (C):,31.42,,
Humidity (%):,3.23,,
Lamp PD:,3803,,
Shift Vector Coefficients:,-10.5391,0.0761263,-0.000134223,,
Pixel to Wavelength Coefficients:,1775.68,-0.916766,-0.000235065,,
Serial Number:,5510004,,
Scan Config Name:,Column 1,,
Scan Config Type:,Slew,,
Section 1,,
Start wavelength (nm):,900,,
End wavelength (nm):,1700,,
Pattern Pixel Width (nm):,   7.03,,,,
Exposure (ms):,  0.635,,,,
Digital Resolution:,228,,
Num Repeats:,6,,
PGA Gain:,64,,
Total Measurement Time in sec:,  2.728,,
Wavelength (nm),Absorbance (AU),Reference Signal (unitless),Sample Signal (unitless)
901.51,1.328652,108485,5090
905.376,1.295926,121306,6137
909.237,1.309303,131909,6471
913.095,1.323862,143299,6798
916.948,1.308627,156982,7713
922.079,1.312022,179937,8772
925.923,1.315172,200504,9704
929.762,1.324225,222660,10554
933.597,1.325678,244426,11547
937.427,1.309556,263972,12942
941.254,1.314274,281845,13669
945.076,1.329201,297271,13930
950.165,1.313828,315605,15322
953.978,1.311847,328029,15998
957.786,1.314885,340470,16489
961.59,1.307759,352317,17345
965.389,1.308993,363056,17823
969.185,1.315733,373162,18037
972.976,1.303502,382632,19023
976.763,1.304040,391202,19425
981.806,1.320302,400190,19141
985.583,1.316010,406088,19616
989.355,1.312577,410162,19970
993.124,1.318160,412868,19845
996.888,1.310080,414263,20286
1000.65,1.306940,415476,20493
1004.4,1.309068,415479,20393
1009.41,1.318348,414358,19908
1013.15,1.306622,412923,20382
1016.89,1.304342,411526,20420
1020.63,1.307475,409066,20152
1024.36,1.316259,406777,19638
1028.09,1.313588,404427,19645
1031.82,1.307004,401911,19821
1036.78,1.306261,398410,19682
1040.49,1.299918,396204,19861
1044.2,1.307641,394236,19414
1047.91,1.310575,392042,19176
1051.61,1.308903,389823,19141
1055.31,1.317020,388234,18710
1059,1.314179,387599,18802
1063.92,1.310325,386688,18925
1067.61,1.313888,386598,18766
1071.29,1.317618,387377,18643
1074.96,1.313153,388536,18892
1078.63,1.311921,389855,19010
1082.3,1.317888,391215,18816
1085.96,1.317227,393215,18941
1090.84,1.312299,396270,19306
1094.49,1.316823,398760,19226
1098.14,1.320372,400987,19176
1101.79,1.315985,403477,19491
1105.43,1.315995,406116,19618
1109.06,1.326860,407701,19208
1112.7,1.312539,409859,19957
1117.53,1.324271,412494,19550
1121.15,1.315427,414909,20069
1124.77,1.325078,416559,19706
1128.38,1.319116,418532,20073
1131.99,1.318929,419956,20150
1135.6,1.315967,421946,20384
1139.2,1.320712,423881,20255
1143.99,1.326280,426786,20134
1147.58,1.317170,428617,20649
1151.17,1.322957,431169,20497
1154.75,1.319297,433579,20786
1158.33,1.320664,436264,20849
1161.91,1.314726,439132,21275
1165.48,1.318384,442389,21253
1169.04,1.311754,446101,21761
1173.79,1.313003,451929,21982
1177.34,1.319518,456026,21851
1180.9,1.318478,461306,22157
1184.44,1.312583,467657,22769
1187.99,1.312006,473969,23107
1191.52,1.315024,479856,23232
1195.06,1.317829,487372,23444
1199.76,1.314372,497347,24115
1203.29,1.316949,504311,24308
1206.81,1.316594,511507,24675
1210.33,1.324562,519078,24585
1213.84,1.345824,527163,23775
1217.35,1.324762,534208,25290
1220.85,1.328881,540472,25345
1225.51,1.324666,549929,26040
1229.01,1.328612,556888,26131
1232.5,1.329540,562180,26323
1235.98,1.321136,567975,27114
1239.46,1.321318,574815,27429
1242.94,1.328311,582782,27365
1246.41,1.324919,591476,27991
1251.03,1.328480,604016,28351
1254.5,1.324903,612289,28977
1257.96,1.319271,619125,29683
1261.41,1.326645,624551,29439
1264.86,1.327144,629900,29657
1268.31,1.327512,634345,29841
1271.75,1.326731,638574,30094
1276.33,1.327477,642499,30227
1279.76,1.326952,645905,30424
1283.19,1.330209,648307,30309
1286.61,1.329681,650446,30446
1290.03,1.327919,652132,30649
1293.44,1.332228,653907,30429
1296.85,1.332950,655963,30474
1301.39,1.328372,657349,30862
1304.8,1.326530,657558,31003
1308.19,1.329437,658515,30841
1311.58,1.331335,658804,30720
1314.97,1.332944,659011,30616
1318.36,1.333337,658272,30554
1321.73,1.335896,658022,30363
1326.23,1.332461,657870,30597
1329.6,1.325693,656482,31012
1332.97,1.331835,654926,30504
1336.33,1.331467,653727,30474
1339.69,1.328616,652497,30617
1343.04,1.330225,649913,30383
1346.39,1.336148,647671,29868
1349.73,1.333289,645338,29957
1354.18,1.329262,641175,30041
1357.52,1.327478,638376,30033
1360.85,1.329925,635805,29744
1364.17,1.333162,633413,29412
1367.49,1.330932,631026,29452
1370.81,1.336406,628050,28946
1374.12,1.326833,625034,29449
1378.54,1.332557,620272,28842
1381.84,1.327512,616892,29020
1385.14,1.326246,613613,28950
1388.43,1.328200,611526,28722
1391.72,1.330363,610663,28539
1395.01,1.325801,610634,28839
1398.29,1.324170,611700,28998
1402.66,1.323939,614051,29125
1405.93,1.334910,616268,28501
1409.2,1.328357,617795,29006
1412.46,1.328694,618872,29034
1415.72,1.329072,619795,29052
1418.98,1.340277,620495,28344
1422.23,1.334047,621087,28781
1426.56,1.334218,621375,28783
1429.8,1.332609,621616,28901
1433.04,1.331992,622129,28966
1436.27,1.335880,621526,28680
1439.5,1.336380,621113,28628
1442.72,1.333267,620921,28825
1445.94,1.328568,620270,29108
1450.23,1.332260,618860,28796
1453.44,1.331881,617697,28767
1456.64,1.336464,616264,28399
1459.85,1.343635,614413,27850
1463.04,1.337475,612307,28151
1466.24,1.334227,610032,28257
1469.43,1.334806,607345,28095
1473.67,1.331530,603789,28142
1476.85,1.327998,601175,28249
1480.02,1.337272,597737,27494
1483.19,1.337354,594479,27339
1486.36,1.337988,591232,27150
1489.52,1.337825,587853,27005
1492.68,1.340199,583875,26676
1496.89,1.337517,578062,26574
1500.03,1.334837,574159,26558
1503.18,1.348803,570285,25544
1506.32,1.345135,565444,25542
1509.45,1.332240,560571,26085
1512.58,1.340118,555821,25399
1515.71,1.337428,550344,25305
1519.87,1.339892,543983,24871
1522.99,1.340322,538764,24608
1526.1,1.334418,533692,24710
1529.21,1.339816,527902,24140
1532.32,1.335595,521886,24098
1535.42,1.332779,515888,23976
1538.51,1.334206,509987,23624
1541.6,1.334665,503936,23319
1545.72,1.334027,494694,22925
1548.8,1.337192,488378,22468
1551.88,1.337404,481832,22156
1554.95,1.338725,474989,21775
1558.02,1.340923,467818,21338
1561.08,1.339844,460730,21067
1564.15,1.336345,454170,20935
1568.22,1.336591,444181,20463
1571.27,1.337276,436947,20098
1574.32,1.335761,429598,19829
1577.36,1.330358,422039,19724
1580.4,1.338457,414375,19008
1583.43,1.335255,406354,18778
1586.46,1.340067,398475,18211
1590.49,1.328857,388982,18242
1593.51,1.332030,380708,17724
1596.53,1.329247,372727,17464
1599.54,1.327518,365060,17173
1602.55,1.328278,357543,16790
1605.55,1.325773,349495,16507
1608.55,1.330816,341154,15927
1612.54,1.331751,330877,15414
1615.53,1.330010,322904,15103
1618.51,1.333464,315116,14622
1621.49,1.310515,307217,15029
1624.47,1.332699,299481,13921
1627.44,1.322160,292112,13912
1630.41,1.312714,284245,13835
1634.36,1.313111,274079,13328
1637.32,1.322332,266916,12707
1640.27,1.315024,259612,12569
1643.22,1.316308,251804,12155
1646.16,1.310677,244348,11949
1649.1,1.310795,236703,11572
1652.04,1.323071,228171,10844
1655.95,1.308530,215408,10586
1658.88,1.329078,204937,9606
1661.8,1.269537,193395,10397
1664.72,1.268830,179728,9678
1667.63,1.272383,163642,8740
1670.54,1.264749,146312,7953
1673.44,1.245593,128451,7297
1677.31,1.207272,105080,6520
1680.21,1.178374,88906,5896
1683.1,1.226502,75033,4454
1685.99,1.185281,63520,4146
1688.87,1.275243,53714,2850
1691.75,1.240837,45653,2622
1694.62,1.228600,39137,2312
1697.49,1.217703,33776,2046
1701.31,1.160944,28175,1945