File: ML/samples/unknown/Column 1_078563_20241121_170850.csv
Method:,Column 1,,
Host Date-Time:,21/11/24 @ 17:8:50,,
Header Version:,1,,
System Temp (C):,35.79,,
Detector Temp (C):,34.41,,
Humidity (%):,1.17,,
Lamp PD:,3799,,
Shift Vector Coefficients:,-10.5391,0.0761263,-0.000134223,,
Pixel to Wavelength Coefficients:,1775.68,-0.916766,-0.000235065,,
Serial Number:,5510004,,
Scan Config Name:,Column 1,,
Scan Config Type:,Slew,,
Section 1,,
Start wavelength (nm):,900,,
End wavelength (nm):,1700,,
Pattern Pixel Width (nm):,   7.03,,,,
Exposure (ms):,  0.635,,,,
Digital Resolution:,228,,
Num Repeats:,6,,
PGA Gain:,64,,
Total Measurement Time in sec:,  2.724,,
Wavelength (nm),Absorbance (AU),Reference Signal (unitless),Sample Signal (unitless)
901.51,1.288735,108485,5580
905.376,1.321879,121306,5781
909.237,1.343065,131909,5987
913.095,1.321505,143299,6835
916.948,1.305988,156982,7760
922.079,1.315701,179937,8698
925.923,1.323486,200504,9520
929.762,1.315306,222660,10773
933.597,1.320742,244426,11679
937.427,1.329469,263972,12362
941.254,1.326551,281845,13288
945.076,1.316240,297271,14352
950.165,1.319420,315605,15126
953.978,1.312064,328029,15990
957.786,1.312861,340470,16566
961.59,1.307309,352317,17363
965.389,1.303015,363056,18070
969.185,1.297462,373162,18812
972.976,1.306182,382632,18906
976.763,1.305855,391202,19344
981.806,1.305031,400190,19826
985.583,1.301981,406088,20260
989.355,1.312121,410162,19991
993.124,1.311235,412868,20164
996.888,1.304824,414263,20533
1000.65,1.301005,415476,20775
1004.4,1.300632,415479,20793
1009.41,1.302287,414358,20658
1013.15,1.301391,412923,20629
1016.89,1.306153,411526,20335
1020.63,1.301376,409066,20437
1024.36,1.297666,406777,20497
1028.09,1.304055,404427,20081
1031.82,1.308299,401911,19762
1036.78,1.303621,398410,19802
1040.49,1.298782,396204,19913
1044.2,1.305099,394236,19528
1047.91,1.308744,392042,19257
1051.61,1.302037,389823,19446
1055.31,1.304212,388234,19270
1059,1.308853,387599,19034
1063.92,1.306851,386688,19077
1067.61,1.309857,386598,18941
1071.29,1.304674,387377,19207
1074.96,1.312120,388536,18937
1078.63,1.307873,389855,19188
1082.3,1.309725,391215,19173
1085.96,1.318536,393215,18884
1090.84,1.311917,396270,19323
1094.49,1.310543,398760,19506
1098.14,1.311074,400987,19591
1101.79,1.305462,403477,19969
1105.43,1.318749,406116,19494
1109.06,1.308097,407701,20056
1112.7,1.315597,409859,19817
1117.53,1.308328,412494,20281
1121.15,1.316077,414909,20039
1124.77,1.316589,416559,20095
1128.38,1.318144,418532,20118
1131.99,1.316779,419956,20250
1135.6,1.316415,421946,20363
1139.2,1.315490,423881,20500
1143.99,1.325224,426786,20183
1147.58,1.313964,428617,20802
1151.17,1.311313,431169,21054
1154.75,1.316195,433579,20935
1158.33,1.314254,436264,21159
1161.91,1.309753,439132,21520
1165.48,1.317119,442389,21315
1169.04,1.312613,446101,21718
1173.79,1.318671,451929,21697
1177.34,1.313106,456026,22176
1180.9,1.322060,461306,21975
1184.44,1.313921,467657,22699
1187.99,1.312307,473969,23091
1191.52,1.316560,479856,23150
1195.06,1.316460,487372,23518
1199.76,1.316430,497347,24001
1203.29,1.309246,504311,24743
1206.81,1.319349,511507,24519
1210.33,1.309391,519078,25459
1213.84,1.323970,527163,25002
1217.35,1.321187,534208,25499
1220.85,1.316782,540472,26061
1225.51,1.317405,549929,26479
1229.01,1.316339,556888,26880
1232.5,1.321449,562180,26818
1235.98,1.318373,567975,27287
1239.46,1.313100,574815,27953
1242.94,1.314965,582782,28219
1246.41,1.320750,591476,28261
1251.03,1.318112,604016,29036
1254.5,1.319792,612289,29320
1257.96,1.319973,619125,29635
1261.41,1.323514,624551,29652
1264.86,1.322078,629900,30005
1268.31,1.322721,634345,30172
1271.75,1.320101,638574,30557
1276.33,1.324171,642499,30458
1279.76,1.322380,645905,30746
1283.19,1.321415,648307,30929
1286.61,1.322986,650446,30919
1290.03,1.318694,652132,31307
1293.44,1.323343,653907,31058
1296.85,1.329543,655963,30714
1301.39,1.324729,657349,31122
1304.8,1.323891,657558,31192
1308.19,1.328959,658515,30875
1311.58,1.327717,658804,30977
1314.97,1.326817,659011,31051
1318.36,1.326484,658272,31040
1321.73,1.324155,658022,31195
1326.23,1.325463,657870,31094
1329.6,1.328362,656482,30822
1332.97,1.322149,654926,31192
1336.33,1.325972,653727,30862
1339.69,1.320494,652497,31195
1343.04,1.332374,649913,30233
1346.39,1.320722,647671,30948
1349.73,1.328674,645338,30277
1354.18,1.327157,641175,30187
1357.52,1.322260,638376,30396
1360.85,1.328176,635805,29864
1364.17,1.322558,633413,30139
1367.49,1.324492,631026,29892
1370.81,1.319558,628050,30091
1374.12,1.325449,625034,29543
1378.54,1.319343,620272,29733
1381.84,1.321153,616892,29448
1385.14,1.322452,613613,29204
1388.43,1.324466,611526,28970
1391.72,1.322118,610663,29086
1395.01,1.322784,610634,29040
1398.29,1.323811,611700,29022
1402.66,1.319768,614051,29406
1405.93,1.328526,616268,28923
1409.2,1.324081,617795,29293
1412.46,1.323416,618872,29389
1415.72,1.326300,619795,29238
1418.98,1.330580,620495,28984
1422.23,1.329364,621087,29093
1426.56,1.335593,621375,28692
1429.8,1.326818,621616,29289
1433.04,1.326998,622129,29301
1436.27,1.332832,621526,28882
1439.5,1.329487,621113,29086
1442.72,1.331073,620921,28971
1445.94,1.329121,620270,29071
1450.23,1.332396,618860,28787
1453.44,1.333727,617697,28645
1456.64,1.330073,616264,28820
1459.85,1.330912,614413,28678
1463.04,1.332521,612307,28474
1466.24,1.332723,610032,28355
1469.43,1.333079,607345,28207
1473.67,1.332906,603789,28053
1476.85,1.339431,601175,27515
1480.02,1.328825,597737,28034
1483.19,1.329904,594479,27812
1486.36,1.334372,591232,27377
1489.52,1.331154,587853,27423
1492.68,1.324217,583875,27676
1496.89,1.332755,578062,26867
1500.03,1.330768,574159,26808
1503.18,1.335212,570285,26356
1506.32,1.329357,565444,26487
1509.45,1.338478,560571,25713
1512.58,1.325475,555821,26270
1515.71,1.333209,550344,25552
1519.87,1.354416,543983,24053
1522.99,1.333684,538764,24987
1526.1,1.326839,533692,25145
1529.21,1.332927,527902,24526
1532.32,1.330275,521886,24395
1535.42,1.333703,515888,23925
1538.51,1.326426,509987,24051
1541.6,1.330606,503936,23538
1545.72,1.334938,494694,22877
1548.8,1.329775,488378,22855
1551.88,1.337110,481832,22171
1554.95,1.335249,474989,21950
1558.02,1.332977,467818,21732
1561.08,1.327908,460730,21654
1564.15,1.332237,454170,21134
1568.22,1.336103,444181,20486
1571.27,1.334197,436947,20241
1574.32,1.331772,429598,20012
1577.36,1.331592,422039,19668
1580.4,1.330286,414375,19369
1583.43,1.323325,406354,19301
1586.46,1.331449,398475,18576
1590.49,1.324357,388982,18432
1593.51,1.325416,380708,17996
1596.53,1.329073,372727,17471
1599.54,1.326912,365060,17197
1602.55,1.324620,357543,16932
1605.55,1.320751,349495,16699
1608.55,1.334486,341154,15793
1612.54,1.321009,330877,15800
1615.53,1.313063,322904,15704
1618.51,1.325605,315116,14889
1621.49,1.324941,307217,14538
1624.47,1.311600,299481,14614
1627.44,1.303942,292112,14508
1630.41,1.306295,284245,14041
1634.36,1.313502,274079,13316
1637.32,1.307284,266916,13155
1640.27,1.315508,259612,12555
1643.22,1.316272,251804,12156
1646.16,1.307130,244348,12047
1649.1,1.302285,236703,11801
1652.04,1.296770,228171,11521
1655.95,1.295835,215408,10900
1658.88,1.277233,204937,10824
1661.8,1.282640,193395,10088
1664.72,1.266012,179728,9741
1667.63,1.252426,163642,9151
1670.54,1.237243,146312,8473
1673.44,1.224339,128451,7663
1677.31,1.194086,105080,6721
1680.21,1.207937,88906,5508
1683.1,1.127064,75033,5600
1685.99,1.133687,63520,4669
1688.87,1.167200,53714,3655
1691.75,1.124682,45653,3426
1694.62,1.197786,39137,2482
1697.49,1.229319,33776,1992
1701.31,1.240617,28175,1619