File: ML/samples/unknown/Column 1_078804_20241121_172258.csv
Method:,Column 1,,
Host Date-Time:,21/11/24 @ 17:22:58,,
Header Version:,1,,
System Temp (C):,36.75,,
Detector Temp (C):,35.35,,
Humidity (%):,0.63,,
Lamp PD:,3797,,
Shift Vector Coefficients:,-10.5391,0.0761263,-0.000134223,,
Pixel to Wavelength Coefficients:,1775.68,-0.916766,-0.000235065,,
Serial Number:,5510004,,
Scan Config Name:,Column 1,,
Scan Config Type:,Slew,,
Section 1,,
Start wavelength (nm):,900,,
End wavelength (nm):,1700,,
Pattern Pixel Width (nm):,   7.03,,,,
Exposure (ms):,  0.635,,,,
Digital Resolution:,228,,
Num Repeats:,6,,
PGA Gain:,64,,
Total Measurement Time in sec:,  2.728,,
Wavelength (nm),Absorbance (AU),Reference Signal (unitless),Sample Signal (unitless)
901.51,1.313147,108485,5275
905.376,1.324063,121306,5752
909.237,1.298106,131909,6640
913.095,1.312948,143299,6971
916.948,1.336531,156982,7233
922.079,1.333278,179937,8353
925.923,1.324628,200504,9495
929.762,1.316921,222660,10733
933.597,1.314686,244426,11843
937.427,1.309624,263972,12940
941.254,1.319387,281845,13509
945.076,1.318120,297271,14290
950.165,1.315931,315605,15248
953.978,1.311765,328029,16001
957.786,1.298220,340470,17134
961.59,1.308913,352317,17299
965.389,1.300308,363056,18183
969.185,1.302571,373162,18592
972.976,1.307954,382632,18829
976.763,1.302634,391202,19488
981.806,1.300846,400190,20018
985.583,1.304992,406088,20120
989.355,1.309241,410162,20124
993.124,1.295686,412868,20899
996.888,1.304274,414263,20559
1000.65,1.302387,415476,20709
1004.4,1.304429,415479,20612
1009.41,1.311938,414358,20204
1013.15,1.305494,412923,20435
1016.89,1.306260,411526,20330
1020.63,1.302036,409066,20406
1024.36,1.312406,406777,19813
1028.09,1.311493,404427,19740
1031.82,1.297812,401911,20245
1036.78,1.304697,398410,19753
1040.49,1.304601,396204,19648
1044.2,1.306948,394236,19445
1047.91,1.307415,392042,19316
1051.61,1.304905,389823,19318
1055.31,1.305521,388234,19212
1059,1.305149,387599,19197
1063.92,1.304489,386688,19181
1067.61,1.306340,386598,19095
1071.29,1.308969,387377,19018
1074.96,1.310541,388536,19006
1078.63,1.315914,389855,18836
1082.3,1.307849,391215,19256
1085.96,1.305331,393215,19467
1090.84,1.305270,396270,19621
1094.49,1.310232,398760,19520
1098.14,1.306706,400987,19789
1101.79,1.312898,403477,19630
1105.43,1.318526,406116,19504
1109.06,1.309572,407701,19988
1112.7,1.316694,409859,19767
1117.53,1.307644,412494,20313
1121.15,1.308089,414909,20411
1124.77,1.312823,416559,20270
1128.38,1.316033,418532,20216
1131.99,1.310899,419956,20526
1135.6,1.314415,421946,20457
1139.2,1.317848,423881,20389
1143.99,1.323742,426786,20252
1147.58,1.315763,428617,20716
1151.17,1.309954,431169,21120
1154.75,1.312765,433579,21101
1158.33,1.322564,436264,20758
1161.91,1.314358,439132,21293
1165.48,1.314438,442389,21447
1169.04,1.321135,446101,21296
1173.79,1.307955,451929,22239
1177.34,1.311094,456026,22279
1180.9,1.308959,461306,22648
1184.44,1.314399,467657,22674
1187.99,1.309832,473969,23223
1191.52,1.312081,479856,23390
1195.06,1.317310,487372,23472
1199.76,1.321655,497347,23714
1203.29,1.315932,504311,24365
1206.81,1.317775,511507,24608
1210.33,1.311272,519078,25349
1213.84,1.314979,527163,25525
1217.35,1.322176,534208,25441
1220.85,1.327717,540472,25413
1225.51,1.317651,549929,26464
1229.01,1.321834,556888,26542
1232.5,1.319284,562180,26952
1235.98,1.316246,567975,27421
1239.46,1.313333,574815,27938
1242.94,1.314949,582782,28220
1246.41,1.319522,591476,28341
1251.03,1.320511,604016,28876
1254.5,1.325068,612289,28966
1257.96,1.324363,619125,29337
1261.41,1.324232,624551,29603
1264.86,1.319337,629900,30195
1268.31,1.321701,634345,30243
1271.75,1.326688,638574,30097
1276.33,1.323971,642499,30472
1279.76,1.325101,645905,30554
1283.19,1.328422,648307,30434
1286.61,1.322382,650446,30962
1290.03,1.321449,652132,31109
1293.44,1.323608,653907,31039
1296.85,1.323979,655963,31110
1301.39,1.323224,657349,31230
1304.8,1.324629,657558,31139
1308.19,1.324968,658515,31160
1311.58,1.327072,658804,31023
1314.97,1.324599,659011,31210
1318.36,1.329841,658272,30801
1321.73,1.325983,658022,31064
1326.23,1.332887,657870,30567
1329.6,1.326450,656482,30958
1332.97,1.326881,654926,30854
1336.33,1.326254,653727,30842
1339.69,1.328559,652497,30621
1343.04,1.323347,649913,30868
1346.39,1.330213,647671,30279
1349.73,1.326728,645338,30413
1354.18,1.327977,641175,30130
1357.52,1.326005,638376,30135
1360.85,1.327217,635805,29930
1364.17,1.325479,633413,29937
1367.49,1.326940,631026,29724
1370.81,1.319110,628050,30122
1374.12,1.331235,625034,29152
1378.54,1.322863,620272,29493
1381.84,1.318375,616892,29637
1385.14,1.317308,613613,29552
1388.43,1.323433,611526,29039
1391.72,1.331338,610663,28475
1395.01,1.324222,610634,28944
1398.29,1.327674,611700,28765
1402.66,1.326826,614051,28932
1405.93,1.328571,616268,28920
1409.2,1.325016,617795,29230
1412.46,1.328664,618872,29036
1415.72,1.333565,619795,28753
1418.98,1.325441,620495,29329
1422.23,1.334092,621087,28778
1426.56,1.332171,621375,28919
1429.8,1.326417,621616,29316
1433.04,1.323646,622129,29528
1436.27,1.329432,621526,29109
1439.5,1.326852,621113,29263
1442.72,1.323568,620921,29476
1445.94,1.335926,620270,28619
1450.23,1.331793,618860,28827
1453.44,1.335489,617697,28529
1456.64,1.329049,616264,28888
1459.85,1.333204,614413,28527
1463.04,1.330102,612307,28633
1466.24,1.328425,610032,28637
1469.43,1.329827,607345,28419
1473.67,1.328271,603789,28354
1476.85,1.330836,601175,28065
1480.02,1.335916,597737,27580
1483.19,1.324488,594479,28161
1486.36,1.329404,591232,27692
1489.52,1.335211,587853,27168
1492.68,1.329823,583875,27321
1496.89,1.329775,578062,27052
1500.03,1.338449,574159,26338
1503.18,1.326469,570285,26892
1506.32,1.325147,565444,26745
1509.45,1.330479,560571,26191
1512.58,1.330614,555821,25961
1515.71,1.329672,550344,25761
1519.87,1.327974,543983,25563
1522.99,1.324756,538764,25506
1526.1,1.333347,533692,24771
1529.21,1.327437,527902,24838
1532.32,1.332882,521886,24249
1535.42,1.332815,515888,23974
1538.51,1.332078,509987,23740
1541.6,1.329740,503936,23585
1545.72,1.320689,494694,23640
1548.8,1.323156,488378,23206
1551.88,1.333463,481832,22358
1554.95,1.332645,474989,22082
1558.02,1.326098,467818,22079
1561.08,1.334110,460730,21347
1564.15,1.323791,454170,21549
1568.22,1.328308,444181,20857
1571.27,1.331352,436947,20374
1574.32,1.335805,429598,19827
1577.36,1.324540,422039,19990
1580.4,1.329771,414375,19392
1583.43,1.331112,406354,18958
1586.46,1.329513,398475,18659
1590.49,1.324004,388982,18447
1593.51,1.321787,380708,18147
1596.53,1.324449,372727,17658
1599.54,1.320892,365060,17437
1602.55,1.319419,357543,17136
1605.55,1.320335,349495,16715
1608.55,1.305707,341154,16875
1612.54,1.330401,330877,15462
1615.53,1.316032,322904,15597
1618.51,1.327066,315116,14839
1621.49,1.322171,307217,14631
1624.47,1.317675,299481,14411
1627.44,1.314732,292112,14152
1630.41,1.308652,284245,13965
1634.36,1.320671,274079,13098
1637.32,1.312331,266916,13003
1640.27,1.316825,259612,12517
1643.22,1.315451,251804,12179
1646.16,1.298775,244348,12281
1649.1,1.305647,236703,11710
1652.04,1.317975,228171,10972
1655.95,1.300603,215408,10781
1658.88,1.287463,204937,10572
1661.8,1.292568,193395,9860
1664.72,1.251888,179728,10063
1667.63,1.246909,163642,9268
1670.54,1.231287,146312,8590
1673.44,1.185390,128451,8382
1677.31,1.146922,105080,7492
1680.21,1.154095,88906,6235
1683.1,1.151879,75033,5289
1685.99,1.155821,63520,4437
1688.87,1.128028,53714,4000
1691.75,1.136634,45653,3333
1694.62,1.140341,39137,2833
1697.49,1.164808,33776,2311
1701.31,1.122709,28175,2124