File: ML/samples/unknown/Column 1_078928_20241121_172857.csv
Method:,Column 1,,
Host Date-Time:,21/11/24 @ 17:28:57,,
Header Version:,1,,
System Temp (C):,37.28,,
Detector Temp (C):,36.43,,
Humidity (%):,0.58,,
Lamp PD:,3796,,
Shift Vector Coefficients:,-10.5391,0.0761263,-0.000134223,,
Pixel to Wavelength Coefficients:,1775.68,-0.916766,-0.000235065,,
Serial Number:,5510004,,
Scan Config Name:,Column 1,,
Scan Config Type:,Slew,,
Section 1,,
Start wavelength (nm):,900,,
End wavelength (nm):,1700,,
Pattern Pixel Width (nm):,   7.03,,,,
Exposure (ms):,  0.635,,,,
Digital Resolution:,228,,
Num Repeats:,6,,
PGA Gain:,64,,
Total Measurement Time in sec:,  2.727,,
Wavelength (nm),Absorbance (AU),Reference Signal (unitless),Sample Signal (unitless)
901.51,1.299053,108485,5449
905.376,1.338886,121306,5559
909.237,1.337873,131909,6059
913.095,1.325783,143299,6768
916.948,1.304535,156982,7786
922.079,1.309849,179937,8816
925.923,1.336216,200504,9245
929.762,1.330025,222660,10414
933.597,1.324026,244426,11591
937.427,1.330771,263972,12325
941.254,1.336468,281845,12988
945.076,1.316028,297271,14359
950.165,1.316216,315605,15238
953.978,1.312771,328029,15964
957.786,1.316626,340470,16423
961.59,1.307734,352317,17346
965.389,1.317333,363056,17484
969.185,1.312232,373162,18183
972.976,1.304028,382632,19000
976.763,1.308670,391202,19219
981.806,1.301540,400190,19986
985.583,1.313779,406088,19717
989.355,1.304071,410162,20365
993.124,1.309729,412868,20234
996.888,1.302756,414263,20631
1000.65,1.301360,415476,20758
1004.4,1.308068,415479,20440
1009.41,1.310908,414358,20252
1013.15,1.311249,412923,20166
1016.89,1.303938,411526,20439
1020.63,1.315391,409066,19788
1024.36,1.297497,406777,20505
1028.09,1.311097,404427,19758
1031.82,1.312051,401911,19592
1036.78,1.316012,398410,19245
1040.49,1.306705,396204,19553
1044.2,1.300849,394236,19720
1047.91,1.316411,392042,18920
1051.61,1.303760,389823,19369
1055.31,1.309883,388234,19020
1059,1.311370,387599,18924
1063.92,1.314290,386688,18753
1067.61,1.325093,386598,18288
1071.29,1.313722,387377,18811
1074.96,1.302840,388536,19346
1078.63,1.308893,389855,19143
1082.3,1.321294,391215,18669
1085.96,1.311804,393215,19179
1090.84,1.312929,396270,19278
1094.49,1.317546,398760,19194
1098.14,1.306290,400987,19808
1101.79,1.317145,403477,19439
1105.43,1.307273,406116,20016
1109.06,1.319040,407701,19557
1112.7,1.310174,409859,20066
1117.53,1.309615,412494,20221
1121.15,1.322012,414909,19767
1124.77,1.310195,416559,20393
1128.38,1.315840,418532,20225
1131.99,1.314277,419956,20367
1135.6,1.314564,421946,20450
1139.2,1.317805,423881,20391
1143.99,1.317927,426786,20525
1147.58,1.319469,428617,20540
1151.17,1.318467,431169,20710
1154.75,1.319925,433579,20756
1158.33,1.306342,436264,21548
1161.91,1.313564,439132,21332
1165.48,1.321954,442389,21079
1169.04,1.311874,446101,21755
1173.79,1.311209,451929,22073
1177.34,1.313871,456026,22137
1180.9,1.320088,461306,22075
1184.44,1.315896,467657,22596
1187.99,1.315194,473969,22938
1191.52,1.321219,479856,22903
1195.06,1.309735,487372,23885
1199.76,1.322406,497347,23673
1203.29,1.315861,504311,24369
1206.81,1.323406,511507,24291
1210.33,1.324298,519078,24600
1213.84,1.322254,527163,25101
1217.35,1.319165,534208,25618
1220.85,1.321423,540472,25784
1225.51,1.315392,549929,26602
1229.01,1.324855,556888,26358
1232.5,1.321400,562180,26821
1235.98,1.327135,567975,26742
1239.46,1.317864,574815,27648
1242.94,1.320821,582782,27841
1246.41,1.321611,591476,28205
1251.03,1.322516,604016,28743
1254.5,1.319556,612289,29336
1257.96,1.325697,619125,29247
1261.41,1.319389,624551,29935
1264.86,1.325449,629900,29773
1268.31,1.323918,634345,30089
1271.75,1.316773,638574,30792
1276.33,1.325857,642499,30340
1279.76,1.327953,645905,30354
1283.19,1.323089,648307,30810
1286.61,1.323197,650446,30904
1290.03,1.324743,652132,30874
1293.44,1.329922,653907,30591
1296.85,1.322363,655963,31226
1301.39,1.325553,657349,31063
1304.8,1.323306,657558,31234
1308.19,1.328692,658515,30894
1311.58,1.333191,658804,30589
1314.97,1.324223,659011,31237
1318.36,1.330603,658272,30747
1321.73,1.333059,658022,30562
1326.23,1.325296,657870,31106
1329.6,1.327940,656482,30852
1332.97,1.334105,654926,30345
1336.33,1.330684,653727,30529
1339.69,1.329184,652497,30577
1343.04,1.331499,649913,30294
1346.39,1.324768,647671,30661
1349.73,1.327285,645338,30374
1354.18,1.322093,641175,30541
1357.52,1.325775,638376,30151
1360.85,1.325104,635805,30076
1364.17,1.319729,633413,30336
1367.49,1.328770,631026,29599
1370.81,1.317901,628050,30206
1374.12,1.326892,625034,29445
1378.54,1.321364,620272,29595
1381.84,1.321921,616892,29396
1385.14,1.326111,613613,28959
1388.43,1.327098,611526,28795
1391.72,1.324093,610663,28954
1395.01,1.322112,610634,29085
1398.29,1.323093,611700,29070
1402.66,1.329808,614051,28734
1405.93,1.329308,616268,28871
1409.2,1.326444,617795,29134
1412.46,1.334886,618872,28623
1415.72,1.334109,619795,28717
1418.98,1.328681,620495,29111
1422.23,1.329782,621087,29065
1426.56,1.330671,621375,29019
1429.8,1.331799,621616,28955
1433.04,1.335908,622129,28706
1436.27,1.330448,621526,29041
1439.5,1.327045,621113,29250
1442.72,1.332830,620921,28854
1445.94,1.326856,620270,29223
1450.23,1.330169,618860,28935
1453.44,1.330103,617697,28885
1456.64,1.326546,616264,29055
1459.85,1.332231,614413,28591
1463.04,1.331957,612307,28511
1466.24,1.334703,610032,28226
1469.43,1.336091,607345,28012
1473.67,1.332674,603789,28068
1476.85,1.333973,601175,27863
1480.02,1.333012,597737,27765
1483.19,1.332190,594479,27666
1486.36,1.331889,591232,27534
1489.52,1.332438,587853,27342
1492.68,1.332342,583875,27163
1496.89,1.332594,578062,26877
1500.03,1.336590,574159,26451
1503.18,1.338670,570285,26147
1506.32,1.328341,565444,26549
1509.45,1.331574,560571,26125
1512.58,1.334546,555821,25727
1515.71,1.333328,550344,25545
1519.87,1.335358,543983,25132
1522.99,1.329705,538764,25217
1526.1,1.333645,533692,24754
1529.21,1.327629,527902,24827
1532.32,1.337292,521886,24004
1535.42,1.332688,515888,23981
1538.51,1.320989,509987,24354
1541.6,1.331344,503936,23498
1545.72,1.330819,494694,23095
1548.8,1.331908,488378,22743
1551.88,1.329345,481832,22571
1554.95,1.332822,474989,22073
1558.02,1.326984,467818,22034
1561.08,1.332911,460730,21406
1564.15,1.330248,454170,21231
1568.22,1.333166,444181,20625
1571.27,1.322553,436947,20791
1574.32,1.332336,429598,19986
1577.36,1.334272,422039,19547
1580.4,1.324562,414375,19626
1583.43,1.329283,406354,19038
1586.46,1.323870,398475,18903
1590.49,1.329572,388982,18212
1593.51,1.330978,380708,17767
1596.53,1.326669,372727,17568
1599.54,1.328480,365060,17135
1602.55,1.328925,357543,16765
1605.55,1.314861,349495,16927
1608.55,1.318133,341154,16399
1612.54,1.321945,330877,15766
1615.53,1.317567,322904,15542
1618.51,1.312957,315116,15329
1621.49,1.319213,307217,14731
1624.47,1.309525,299481,14684
1627.44,1.314210,292112,14169
1630.41,1.319707,284245,13614
1634.36,1.321700,274079,13067
1637.32,1.321546,266916,12730
1640.27,1.307217,259612,12797
1643.22,1.317130,251804,12132
1646.16,1.295078,244348,12386
1649.1,1.303501,236703,11768
1652.04,1.297714,228171,11496
1655.95,1.309845,215408,10554
1658.88,1.293294,204937,10431
1661.8,1.283373,193395,10071
1664.72,1.284920,179728,9326
1667.63,1.242526,163642,9362
1670.54,1.240691,146312,8406
1673.44,1.198700,128451,8129
1677.31,1.195640,105080,6697
1680.21,1.156259,88906,6204
1683.1,1.112199,75033,5795
1685.99,1.125030,63520,4763
1688.87,1.066104,53714,4613
1691.75,1.156633,45653,3183
1694.62,1.120270,39137,2967
1697.49,1.158465,33776,2345
1701.31,1.187888,28175,1828