File: ML/samples/unknown/Column 1_078192_20241121_164959.csv
Method:,Column 1,,
Host Date-Time:,21/11/24 @ 16:49:59,,
Header Version:,1,,
System Temp (C):,33.74,,
Detector Temp (C):,30.43,,
Humidity (%):,3.23,,
Lamp PD:,3804,,
Shift Vector Coefficients:,-10.5391,0.0761263,-0.000134223,,
Pixel to Wavelength Coefficients:,1775.68,-0.916766,-0.000235065,,
Serial Number:,5510004,,
Scan Config Name:,Column 1,,
Scan Config Type:,Slew,,
Section 1,,
Start wavelength (nm):,900,,
End wavelength (nm):,1700,,
Pattern Pixel Width (nm):,   7.03,,,,
Exposure (ms):,  0.635,,,,
Digital Resolution:,228,,
Num Repeats:,6,,
PGA Gain:,64,,
Total Measurement Time in sec:,  2.721,,
Wavelength (nm),Absorbance (AU),Reference Signal (unitless),Sample Signal (unitless)
901.51,1.339363,108485,4966
905.376,1.323686,121306,5757
909.237,1.344882,131909,5962
913.095,1.311890,143299,6988
916.948,1.316639,156982,7572
922.079,1.321734,179937,8578
925.923,1.321030,200504,9574
929.762,1.334131,222660,10316
933.597,1.346005,244426,11019
937.427,1.318953,263972,12665
941.254,1.328024,281845,13243
945.076,1.325724,297271,14042
950.165,1.325870,315605,14903
953.978,1.318549,328029,15753
957.786,1.318057,340470,16369
961.59,1.307334,352317,17362
965.389,1.316142,363056,17532
969.185,1.319044,373162,17900
972.976,1.314110,382632,18564
976.763,1.310436,391202,19141
981.806,1.310431,400190,19581
985.583,1.318764,406088,19492
989.355,1.311079,410162,20039
993.124,1.318423,412868,19833
996.888,1.314967,414263,20059
1000.65,1.315263,415476,20104
1004.4,1.298777,415479,20882
1009.41,1.313791,414358,20118
1013.15,1.326102,412923,19488
1016.89,1.315282,411526,19912
1020.63,1.312351,409066,19927
1024.36,1.315618,406777,19667
1028.09,1.314651,404427,19597
1031.82,1.318033,401911,19324
1036.78,1.328907,398410,18682
1040.49,1.319234,396204,18997
1044.2,1.309682,394236,19323
1047.91,1.320216,392042,18755
1051.61,1.317126,389823,18782
1055.31,1.318648,388234,18640
1059,1.317424,387599,18662
1063.92,1.320072,386688,18505
1067.61,1.306431,386598,19091
1071.29,1.310662,387377,18944
1074.96,1.312143,388536,18936
1078.63,1.317717,389855,18758
1082.3,1.324259,391215,18542
1085.96,1.317640,393215,18923
1090.84,1.320588,396270,18941
1094.49,1.325838,398760,18831
1098.14,1.317843,400987,19288
1101.79,1.316966,403477,19447
1105.43,1.310999,406116,19845
1109.06,1.310486,407701,19946
1112.7,1.325639,409859,19364
1117.53,1.322630,412494,19624
1121.15,1.314411,414909,20116
1124.77,1.328952,416559,19531
1128.38,1.323356,418532,19878
1131.99,1.324700,419956,19884
1135.6,1.320831,421946,20157
1139.2,1.322797,423881,20158
1143.99,1.329919,426786,19966
1147.58,1.324488,428617,20304
1151.17,1.324953,431169,20403
1154.75,1.327672,433579,20389
1158.33,1.313536,436264,21194
1161.91,1.321660,439132,20938
1165.48,1.330653,442389,20661
1169.04,1.325995,446101,21059
1173.79,1.321341,451929,21564
1177.34,1.320553,456026,21799
1180.9,1.323307,461306,21912
1184.44,1.317996,467657,22487
1187.99,1.328810,473969,22230
1191.52,1.316954,479856,23129
1195.06,1.323948,487372,23116
1199.76,1.333650,497347,23068
1203.29,1.327199,504311,23741
1206.81,1.320218,511507,24470
1210.33,1.315715,519078,25091
1213.84,1.326182,527163,24875
1217.35,1.322945,534208,25396
1220.85,1.328692,540472,25356
1225.51,1.323916,549929,26085
1229.01,1.328994,556888,26108
1232.5,1.321886,562180,26791
1235.98,1.321216,567975,27109
1239.46,1.324225,574815,27246
1242.94,1.328327,582782,27364
1246.41,1.332494,591476,27507
1251.03,1.330538,604016,28217
1254.5,1.327006,612289,28837
1257.96,1.323091,619125,29423
1261.41,1.330438,624551,29183
1264.86,1.329553,629900,29493
1268.31,1.326335,634345,29922
1271.75,1.324199,638574,30270
1276.33,1.333132,642499,29836
1279.76,1.328311,645905,30329
1283.19,1.328193,648307,30450
1286.61,1.332701,650446,30235
1290.03,1.329765,652132,30519
1293.44,1.337961,653907,30030
1296.85,1.334864,655963,30340
1301.39,1.338451,657349,30154
1304.8,1.329200,657558,30813
1308.19,1.335135,658515,30439
1311.58,1.335354,658804,30437
1314.97,1.332434,659011,30652
1318.36,1.337006,658272,30297
1321.73,1.331810,658022,30650
1326.23,1.332475,657870,30596
1329.6,1.331956,656482,30568
1332.97,1.334979,654926,30284
1336.33,1.327975,653727,30720
1339.69,1.340187,652497,29812
1343.04,1.333683,649913,30142
1346.39,1.330629,647671,30250
1349.73,1.333072,645338,29972
1354.18,1.331102,641175,29914
1357.52,1.330700,638376,29811
1360.85,1.334239,635805,29450
1364.17,1.333961,633413,29358
1367.49,1.331419,631026,29419
1370.81,1.331735,628050,29259
1374.12,1.334510,625034,28933
1378.54,1.337006,620272,28548
1381.84,1.330711,616892,28807
1385.14,1.333141,613613,28494
1388.43,1.330368,611526,28579
1391.72,1.332560,610663,28395
1395.01,1.328944,610634,28631
1398.29,1.328687,611700,28698
1402.66,1.328480,614051,28822
1405.93,1.336405,616268,28403
1409.2,1.337511,617795,28401
1412.46,1.331771,618872,28829
1415.72,1.336216,619795,28578
1418.98,1.338336,620495,28471
1422.23,1.341136,621087,28315
1426.56,1.336532,621375,28630
1429.8,1.337414,621616,28583
1433.04,1.337757,622129,28584
1436.27,1.339362,621526,28451
1439.5,1.335364,621113,28695
1442.72,1.332755,620921,28859
1445.94,1.335305,620270,28660
1450.23,1.337984,618860,28419
1453.44,1.334516,617697,28593
1456.64,1.339056,616264,28230
1459.85,1.339646,614413,28107
1463.04,1.332551,612307,28472
1466.24,1.339639,610032,27907
1469.43,1.341520,607345,27664
1473.67,1.342042,603789,27469
1476.85,1.334129,601175,27853
1480.02,1.337209,597737,27498
1483.19,1.343691,594479,26943
1486.36,1.341796,591232,26913
1489.52,1.338726,587853,26949
1492.68,1.341569,583875,26592
1496.89,1.341276,578062,26345
1500.03,1.336163,574159,26477
1503.18,1.336318,570285,26289
1506.32,1.337717,565444,25982
1509.45,1.345047,560571,25327
1512.58,1.339606,555821,25429
1515.71,1.341220,550344,25085
1519.87,1.342168,543983,24741
1522.99,1.343955,538764,24403
1526.1,1.342812,533692,24237
1529.21,1.342577,527902,23987
1532.32,1.341017,521886,23799
1535.42,1.339294,515888,23619
1538.51,1.342389,509987,23183
1541.6,1.331825,503936,23472
1545.72,1.339249,494694,22651
1548.8,1.348610,488378,21885
1551.88,1.334435,481832,22308
1554.95,1.344084,474989,21508
1558.02,1.340496,467818,21359
1561.08,1.341103,460730,21006
1564.15,1.330575,454170,21215
1568.22,1.338569,444181,20370
1571.27,1.340486,436947,19950
1574.32,1.339744,429598,19648
1577.36,1.341644,422039,19218
1580.4,1.337225,414375,19062
1583.43,1.343167,406354,18439
1586.46,1.333652,398475,18482
1590.49,1.334681,388982,17999
1593.51,1.336439,380708,17545
1596.53,1.338344,372727,17102
1599.54,1.339258,365060,16715
1602.55,1.333430,357543,16592
1605.55,1.336669,349495,16098
1608.55,1.325370,341154,16128
1612.54,1.338423,330877,15179
1615.53,1.322908,322904,15352
1618.51,1.327417,315116,14827
1621.49,1.319833,307217,14710
1624.47,1.324754,299481,14178
1627.44,1.330703,292112,13641
1630.41,1.335991,284245,13113
1634.36,1.337092,274079,12612
1637.32,1.322024,266916,12716
1640.27,1.318842,259612,12459
1643.22,1.327564,251804,11844
1646.16,1.316606,244348,11787
1649.1,1.320818,236703,11308
1652.04,1.293503,228171,11608
1655.95,1.307956,215408,10600
1658.88,1.328084,204937,9628
1661.8,1.300346,193395,9685
1664.72,1.281211,179728,9406
1667.63,1.270054,163642,8787
1670.54,1.284009,146312,7608
1673.44,1.257785,128451,7095
1677.31,1.217040,105080,6375
1680.21,1.241787,88906,5095
1683.1,1.282853,75033,3912
1685.99,1.281249,63520,3324
1688.87,1.300335,53714,2690
1691.75,1.196622,45653,2903
1694.62,1.255128,39137,2175
1697.49,1.284084,33776,1756
1701.31,1.257296,28175,1558