File: ML/samples/unknown/Column 1_078014_20241121_164116.csv
Method:,Column 1,,
Host Date-Time:,21/11/24 @ 16:41:16,,
Header Version:,1,,
System Temp (C):,29.49,,
Detector Temp (C):,24.78,,
Humidity (%):,7.11,,
Lamp PD:,3815,,
Shift Vector Coefficients:,-10.5391,0.0761263,-0.000134223,,
Pixel to Wavelength Coefficients:,1775.68,-0.916766,-0.000235065,,
Serial Number:,5510004,,
Scan Config Name:,Column 1,,
Scan Config Type:,Slew,,
Section 1,,
Start wavelength (nm):,900,,
End wavelength (nm):,1700,,
Pattern Pixel Width (nm):,   7.03,,,,
Exposure (ms):,  0.635,,,,
Digital Resolution:,228,,
Num Repeats:,6,,
PGA Gain:,64,,
Total Measurement Time in sec:,  2.720,,
Wavelength (nm),Absorbance (AU),Reference Signal (unitless),Sample Signal (unitless)
901.51,1.300250,108485,5434
905.376,1.304430,121306,6018
909.237,1.300994,131909,6596
913.095,1.313447,143299,6963
916.948,1.307446,156982,7734
922.079,1.288556,179937,9259
925.923,1.302384,200504,9994
929.762,1.302280,222660,11101
933.597,1.304788,244426,12116
937.427,1.301708,263972,13178
941.254,1.314973,281845,13647
945.076,1.303243,297271,14788
950.165,1.313064,315605,15349
953.978,1.301678,328029,16377
957.786,1.319252,340470,16324
961.59,1.308963,352317,17297
965.389,1.308920,363056,17826
969.185,1.306184,373162,18438
972.976,1.302180,382632,19081
976.763,1.311754,391202,19083
981.806,1.308219,400190,19681
985.583,1.304302,406088,20152
989.355,1.305802,410162,20284
993.124,1.313697,412868,20050
996.888,1.309117,414263,20331
1000.65,1.307598,415476,20462
1004.4,1.313391,415479,20191
1009.41,1.314050,414358,20106
1013.15,1.303755,412923,20517
1016.89,1.305470,411526,20367
1020.63,1.302440,409066,20387
1024.36,1.312976,406777,19787
1028.09,1.308053,404427,19897
1031.82,1.306785,401911,19831
1036.78,1.305093,398410,19735
1040.49,1.302528,396204,19742
1044.2,1.310739,394236,19276
1047.91,1.314076,392042,19022
1051.61,1.314957,389823,18876
1055.31,1.314036,388234,18839
1059,1.307304,387599,19102
1063.92,1.318689,386688,18564
1067.61,1.300085,386598,19372
1071.29,1.314045,387377,18797
1074.96,1.315366,388536,18796
1078.63,1.309483,389855,19117
1082.3,1.309092,391215,19201
1085.96,1.314758,393215,19049
1090.84,1.318096,396270,19050
1094.49,1.315514,398760,19284
1098.14,1.314434,400987,19440
1101.79,1.304919,403477,19994
1105.43,1.315509,406116,19640
1109.06,1.306261,407701,20141
1112.7,1.314000,409859,19890
1117.53,1.321282,412494,19685
1121.15,1.321683,414909,19782
1124.77,1.325453,416559,19689
1128.38,1.314875,418532,20270
1131.99,1.315751,419956,20298
1135.6,1.308385,421946,20743
1139.2,1.315554,423881,20497
1143.99,1.322885,426786,20292
1147.58,1.323569,428617,20347
1151.17,1.316438,431169,20807
1154.75,1.321959,433579,20659
1158.33,1.319001,436264,20929
1161.91,1.313808,439132,21320
1165.48,1.322593,442389,21048
1169.04,1.331641,446101,20787
1173.79,1.312687,451929,21998
1177.34,1.312031,456026,22231
1180.9,1.321784,461306,21989
1184.44,1.317610,467657,22507
1187.99,1.313720,473969,23016
1191.52,1.320726,479856,22929
1195.06,1.317255,487372,23475
1199.76,1.321325,497347,23732
1203.29,1.327273,504311,23737
1206.81,1.322834,511507,24323
1210.33,1.320448,519078,24819
1213.84,1.325136,527163,24935
1217.35,1.323236,534208,25379
1220.85,1.326437,540472,25488
1225.51,1.319839,549929,26331
1229.01,1.322031,556888,26530
1232.5,1.324048,562180,26658
1235.98,1.326032,567975,26810
1239.46,1.319564,574815,27540
1242.94,1.319124,582782,27950
1246.41,1.317595,591476,28467
1251.03,1.319430,604016,28948
1254.5,1.328047,612289,28768
1257.96,1.323446,619125,29399
1261.41,1.320711,624551,29844
1264.86,1.333428,629900,29231
1268.31,1.326378,634345,29919
1271.75,1.329221,638574,29922
1276.33,1.322605,642499,30568
1279.76,1.331025,645905,30140
1283.19,1.331400,648307,30226
1286.61,1.335540,650446,30038
1290.03,1.329751,652132,30520
1293.44,1.332728,653907,30394
1296.85,1.332993,655963,30471
1301.39,1.326827,657349,30972
1304.8,1.329637,657558,30782
1308.19,1.328073,658515,30938
1311.58,1.330728,658804,30763
1314.97,1.331189,659011,30740
1318.36,1.334205,658272,30493
1321.73,1.329619,658022,30805
1326.23,1.334567,657870,30449
1329.6,1.331345,656482,30611
1332.97,1.326402,654926,30888
1336.33,1.332594,653727,30395
1339.69,1.331177,652497,30437
1343.04,1.332891,649913,30197
1346.39,1.332341,647671,30131
1349.73,1.332536,645338,30009
1354.18,1.328122,641175,30120
1357.52,1.330074,638376,29854
1360.85,1.328700,635805,29828
1364.17,1.330762,633413,29575
1367.49,1.326838,631026,29731
1370.81,1.328054,628050,29508
1374.12,1.329585,625034,29263
1378.54,1.326991,620272,29214
1381.84,1.334786,616892,28538
1385.14,1.329211,613613,28753
1388.43,1.328200,611526,28722
1391.72,1.331735,610663,28449
1395.01,1.326419,610634,28798
1398.29,1.332502,611700,28447
1402.66,1.324954,614051,29057
1405.93,1.331147,616268,28749
1409.2,1.328342,617795,29007
1412.46,1.327007,618872,29147
1415.72,1.327893,619795,29131
1418.98,1.332909,620495,28829
1422.23,1.333474,621087,28819
1426.56,1.338006,621375,28533
1429.8,1.329555,621616,29105
1433.04,1.329838,622129,29110
1436.27,1.331181,621526,28992
1439.5,1.336941,621113,28591
1442.72,1.337948,620921,28516
1445.94,1.333716,620270,28765
1450.23,1.337098,618860,28477
1453.44,1.335687,617697,28516
1456.64,1.334222,616264,28546
1459.85,1.339955,614413,28087
1463.04,1.336936,612307,28186
1466.24,1.337993,610032,28013
1469.43,1.337209,607345,27940
1473.67,1.338907,603789,27668
1476.85,1.331471,601175,28024
1480.02,1.335680,597737,27595
1483.19,1.334535,594479,27517
1486.36,1.333026,591232,27462
1489.52,1.340033,587853,26868
1492.68,1.339061,583875,26746
1496.89,1.340288,578062,26405
1500.03,1.337692,574159,26384
1503.18,1.335856,570285,26317
1506.32,1.335001,565444,26145
1509.45,1.342687,560571,25465
1512.58,1.340392,555821,25383
1515.71,1.340961,550344,25100
1519.87,1.332379,543983,25305
1522.99,1.339141,538764,24675
1526.1,1.341613,533692,24304
1529.21,1.337967,527902,24243
1532.32,1.335757,521886,24089
1535.42,1.339349,515888,23616
1538.51,1.336270,509987,23512
1541.6,1.333382,503936,23388
1545.72,1.339729,494694,22626
1548.8,1.328693,488378,22912
1551.88,1.335410,481832,22258
1554.95,1.337550,474989,21834
1558.02,1.326432,467818,22062
1561.08,1.331675,460730,21467
1564.15,1.336989,454170,20904
1568.22,1.329121,444181,20818
1571.27,1.335615,436947,20175
1574.32,1.344076,429598,19453
1577.36,1.334028,422039,19558
1580.4,1.328608,414375,19444
1583.43,1.332190,406354,18911
1586.46,1.327492,398475,18746
1590.49,1.332299,388982,18098
1593.51,1.338200,380708,17474
1596.53,1.328874,372727,17479
1599.54,1.336306,365060,16829
1602.55,1.331731,357543,16657
1605.55,1.331600,349495,16287
1608.55,1.324052,341154,16177
1612.54,1.327769,330877,15556
1615.53,1.333823,322904,14971
1618.51,1.320184,315116,15076
1621.49,1.333448,307217,14256
1624.47,1.323867,299481,14207
1627.44,1.323473,292112,13870
1630.41,1.335296,284245,13134
1634.36,1.329074,274079,12847
1637.32,1.327627,266916,12553
1640.27,1.312543,259612,12641
1643.22,1.331284,251804,11743
1646.16,1.328483,244348,11469
1649.1,1.324908,236703,11202
1652.04,1.319124,228171,10943
1655.95,1.312197,215408,10497
1658.88,1.336235,204937,9449
1661.8,1.335351,193395,8935
1664.72,1.346238,179728,8098
1667.63,1.337273,163642,7527
1670.54,1.356192,146312,6443
1673.44,1.327772,128451,6039
1677.31,1.340731,105080,4795
1680.21,1.343842,88906,4028
1683.1,1.340338,75033,3427
1685.99,1.372674,63520,2693
1688.87,1.321848,53714,2560
1691.75,1.331498,45653,2128
1694.62,1.329188,39137,1834
1697.49,1.258162,33776,1864
1701.31,1.294224,28175,1431