File: ML/samples/unknown/Column 1_078178_20241121_164918.csv
Method:,Column 1,,
Host Date-Time:,21/11/24 @ 16:49:18,,
Header Version:,1,,
System Temp (C):,33.62,,
Detector Temp (C):,30,,
Humidity (%):,3.28,,
Lamp PD:,3804,,
Shift Vector Coefficients:,-10.5391,0.0761263,-0.000134223,,
Pixel to Wavelength Coefficients:,1775.68,-0.916766,-0.000235065,,
Serial Number:,5510004,,
Scan Config Name:,Column 1,,
Scan Config Type:,Slew,,
Section 1,,
Start wavelength (nm):,900,,
End wavelength (nm):,1700,,
Pattern Pixel Width (nm):,   7.03,,,,
Exposure (ms):,  0.635,,,,
Digital Resolution:,228,,
Num Repeats:,6,,
PGA Gain:,64,,
Total Measurement Time in sec:,  2.728,,
Wavelength (nm),Absorbance (AU),Reference Signal (unitless),Sample Signal (unitless)
901.51,1.337792,108485,4984
905.376,1.311194,121306,5925
909.237,1.306894,131909,6507
913.095,1.337819,143299,6583
916.948,1.309416,156982,7699
922.079,1.317101,179937,8670
925.923,1.332614,200504,9322
929.762,1.319437,222660,10671
933.597,1.306620,244426,12065
937.427,1.331335,263972,12309
941.254,1.313448,281845,13695
945.076,1.322396,297271,14150
950.165,1.315646,315605,15258
953.978,1.311575,328029,16008
957.786,1.312311,340470,16587
961.59,1.311632,352317,17191
965.389,1.309871,363056,17787
969.185,1.309328,373162,18305
972.976,1.318034,382632,18397
976.763,1.306282,391202,19325
981.806,1.329427,400190,18743
985.583,1.300910,406088,20310
989.355,1.308508,410162,20158
993.124,1.310073,412868,20218
996.888,1.319647,414263,19844
1000.65,1.302827,415476,20688
1004.4,1.316391,415479,20052
1009.41,1.304966,414358,20531
1013.15,1.324389,412923,19565
1016.89,1.306837,411526,20303
1020.63,1.310481,409066,20013
1024.36,1.316414,406777,19631
1028.09,1.305441,404427,20017
1031.82,1.312339,401911,19579
1036.78,1.316057,398410,19243
1040.49,1.312024,396204,19315
1044.2,1.313021,394236,19175
1047.91,1.318482,392042,18830
1051.61,1.305918,389823,19273
1055.31,1.314082,388234,18837
1059,1.324936,387599,18342
1063.92,1.307785,386688,19036
1067.61,1.323742,386598,18345
1071.29,1.308467,387377,19040
1074.96,1.317241,388536,18715
1078.63,1.318412,389855,18728
1082.3,1.323463,391215,18576
1085.96,1.311148,393215,19208
1090.84,1.318210,396270,19045
1094.49,1.315379,398760,19290
1098.14,1.316629,400987,19342
1101.79,1.322653,403477,19194
1105.43,1.316682,406116,19587
1109.06,1.310486,407701,19946
1112.7,1.331442,409859,19107
1117.53,1.317001,412494,19880
1121.15,1.319340,414909,19889
1124.77,1.325541,416559,19685
1128.38,1.330760,418532,19542
1131.99,1.323196,419956,19953
1135.6,1.316394,421946,20364
1139.2,1.325021,423881,20055
1143.99,1.316807,426786,20578
1147.58,1.318645,428617,20579
1151.17,1.323678,431169,20463
1154.75,1.324172,433579,20554
1158.33,1.309925,436264,21371
1161.91,1.319508,439132,21042
1165.48,1.308285,442389,21753
1169.04,1.319060,446101,21398
1173.79,1.315082,451929,21877
1177.34,1.317239,456026,21966
1180.9,1.318713,461306,22145
1184.44,1.314342,467657,22677
1187.99,1.324901,473969,22431
1191.52,1.323462,479856,22785
1195.06,1.321643,487372,23239
1199.76,1.328335,497347,23352
1203.29,1.323194,504311,23961
1206.81,1.330763,511507,23883
1210.33,1.318301,519078,24942
1213.84,1.327844,527163,24780
1217.35,1.327552,534208,25128
1220.85,1.326318,540472,25495
1225.51,1.325016,549929,26019
1229.01,1.324345,556888,26389
1232.5,1.325533,562180,26567
1235.98,1.324222,567975,26922
1239.46,1.332302,574815,26744
1242.94,1.330778,582782,27210
1246.41,1.321472,591476,28214
1251.03,1.331200,604016,28174
1254.5,1.320816,612289,29251
1257.96,1.333564,619125,28722
1261.41,1.323998,624551,29619
1264.86,1.327555,629900,29629
1268.31,1.327439,634345,29846
1271.75,1.331316,638574,29778
1276.33,1.328528,642499,30154
1279.76,1.331126,645905,30133
1283.19,1.331012,648307,30253
1286.61,1.328940,650446,30498
1290.03,1.332463,652132,30330
1293.44,1.329880,653907,30594
1296.85,1.334392,655963,30373
1301.39,1.330290,657349,30726
1304.8,1.332099,657558,30608
1308.19,1.334921,658515,30454
1311.58,1.331929,658804,30678
1314.97,1.333143,659011,30602
1318.36,1.331578,658272,30678
1321.73,1.326893,658022,30999
1326.23,1.337486,657870,30245
1329.6,1.333921,656482,30430
1332.97,1.336257,654926,30195
1336.33,1.329902,653727,30584
1339.69,1.338936,652497,29898
1343.04,1.338610,649913,29802
1346.39,1.334958,647671,29950
1349.73,1.333768,645338,29924
1354.18,1.328497,641175,30094
1357.52,1.333067,638376,29649
1360.85,1.329618,635805,29765
1364.17,1.330205,633413,29613
1367.49,1.328521,631026,29616
1370.81,1.329337,628050,29421
1374.12,1.332399,625034,29074
1378.54,1.326041,620272,29278
1381.84,1.335745,616892,28475
1385.14,1.328261,613613,28816
1388.43,1.327415,611526,28774
1391.72,1.332958,610663,28369
1395.01,1.331134,610634,28487
1398.29,1.329565,611700,28640
1402.66,1.333634,614051,28482
1405.93,1.329127,616268,28883
1409.2,1.331075,617795,28825
1412.46,1.334507,618872,28648
1415.72,1.332328,619795,28835
1418.98,1.334539,620495,28721
1422.23,1.336483,621087,28620
1426.56,1.334535,621375,28762
1429.8,1.331139,621616,28999
1433.04,1.336741,622129,28651
1436.27,1.332246,621526,28921
1439.5,1.332423,621113,28890
1442.72,1.333870,620921,28785
1445.94,1.335562,620270,28643
1450.23,1.337953,618860,28421
1453.44,1.338621,617697,28324
1456.64,1.333765,616264,28576
1459.85,1.337135,614413,28270
1463.04,1.338835,612307,28063
1466.24,1.338117,610032,28005
1469.43,1.340971,607345,27699
1473.67,1.336606,603789,27815
1476.85,1.339289,601175,27524
1480.02,1.336562,597737,27539
1483.19,1.337116,594479,27354
1486.36,1.335007,591232,27337
1489.52,1.336011,587853,27118
1492.68,1.336390,583875,26911
1496.89,1.336326,578062,26647
1500.03,1.345682,574159,25903
1503.18,1.340018,570285,26066
1506.32,1.335583,565444,26110
1509.45,1.339425,560571,25657
1512.58,1.340392,555821,25383
1515.71,1.344016,550344,24924
1519.87,1.334271,543983,25195
1522.99,1.337052,538764,24794
1526.1,1.339456,533692,24425
1529.21,1.342523,527902,23990
1532.32,1.330595,521886,24377
1535.42,1.341026,515888,23525
1538.51,1.335513,509987,23553
1541.6,1.339836,503936,23043
1545.72,1.343062,494694,22453
1548.8,1.332979,488378,22687
1551.88,1.338562,481832,22097
1554.95,1.337172,474989,21853
1558.02,1.343066,467818,21233
1561.08,1.335945,460730,21257
1564.15,1.338967,454170,20809
1568.22,1.332850,444181,20640
1571.27,1.337298,436947,20097
1574.32,1.335083,429598,19860
1577.36,1.333141,422039,19598
1580.4,1.329167,414375,19419
1583.43,1.337900,406354,18664
1586.46,1.338401,398475,18281
1590.49,1.345900,388982,17540
1593.51,1.337033,380708,17521
1596.53,1.324720,372727,17647
1599.54,1.328049,365060,17152
1602.55,1.326703,357543,16851
1605.55,1.327513,349495,16441
1608.55,1.327530,341154,16048
1612.54,1.329363,330877,15499
1615.53,1.336266,322904,14887
1618.51,1.327945,315116,14809
1621.49,1.320276,307217,14695
1624.47,1.326996,299481,14105
1627.44,1.315745,292112,14119
1630.41,1.331641,284245,13245
1634.36,1.317532,274079,13193
1637.32,1.317066,266916,12862
1640.27,1.313885,259612,12602
1643.22,1.329070,251804,11803
1646.16,1.303611,244348,12145
1649.1,1.327553,236703,11134
1652.04,1.314074,228171,11071
1655.95,1.311659,215408,10510
1658.88,1.296638,204937,10351
1661.8,1.301423,193395,9661
1664.72,1.302550,179728,8955
1667.63,1.286730,163642,8456
1670.54,1.274300,146312,7780
1673.44,1.264198,128451,6991
1677.31,1.266637,105080,5687
1680.21,1.249353,88906,5007
1683.1,1.232590,75033,4392
1685.99,1.256368,63520,3520
1688.87,1.243232,53714,3068
1691.75,1.292860,45653,2326
1694.62,1.259745,39137,2152
1697.49,1.203914,33776,2112
1701.31,1.310930,28175,1377