File: ML/samples/unknown/Column 1_078251_20241121_165254.csv
Method:,Column 1,,
Host Date-Time:,21/11/24 @ 16:52:54,,
Header Version:,1,,
System Temp (C):,34.35,,
Detector Temp (C):,31.75,,
Humidity (%):,2.45,,
Lamp PD:,3803,,
Shift Vector Coefficients:,-10.5391,0.0761263,-0.000134223,,
Pixel to Wavelength Coefficients:,1775.68,-0.916766,-0.000235065,,
Serial Number:,5510004,,
Scan Config Name:,Column 1,,
Scan Config Type:,Slew,,
Section 1,,
Start wavelength (nm):,900,,
End wavelength (nm):,1700,,
Pattern Pixel Width (nm):,   7.03,,,,
Exposure (ms):,  0.635,,,,
Digital Resolution:,228,,
Num Repeats:,6,,
PGA Gain:,64,,
Total Measurement Time in sec:,  2.727,,
Wavelength (nm),Absorbance (AU),Reference Signal (unitless),Sample Signal (unitless)
901.51,1.315045,108485,5252
905.376,1.315836,121306,5862
909.237,1.300402,131909,6605
913.095,1.337621,143299,6586
916.948,1.317328,156982,7560
922.079,1.326417,179937,8486
925.923,1.321665,200504,9560
929.762,1.330442,222660,10404
933.597,1.324626,244426,11575
937.427,1.323191,263972,12542
941.254,1.323911,281845,13369
945.076,1.325971,297271,14034
950.165,1.321752,315605,15045
953.978,1.318908,328029,15740
957.786,1.322457,340470,16204
961.59,1.315846,352317,17025
965.389,1.318303,363056,17445
969.185,1.312614,373162,18167
972.976,1.308785,382632,18793
976.763,1.309666,391202,19175
981.806,1.318422,400190,19224
985.583,1.301659,406088,20275
989.355,1.311708,410162,20010
993.124,1.306628,412868,20379
996.888,1.311194,414263,20234
1000.65,1.311564,415476,20276
1004.4,1.308451,415479,20422
1009.41,1.313661,414358,20124
1013.15,1.311077,412923,20174
1016.89,1.320814,411526,19660
1020.63,1.306098,409066,20216
1024.36,1.317566,406777,19579
1028.09,1.315161,404427,19574
1031.82,1.312939,401911,19552
1036.78,1.308274,398410,19591
1040.49,1.311260,396204,19349
1044.2,1.316295,394236,19031
1047.91,1.302897,392042,19518
1051.61,1.308313,389823,19167
1055.31,1.310752,388234,18982
1059,1.309858,387599,18990
1063.92,1.313734,386688,18777
1067.61,1.320111,386598,18499
1071.29,1.318387,387377,18610
1074.96,1.320339,388536,18582
1078.63,1.318713,389855,18715
1082.3,1.314051,391215,18983
1085.96,1.322023,393215,18733
1090.84,1.314080,396270,19227
1094.49,1.325631,398760,18840
1098.14,1.313898,400987,19464
1101.79,1.318779,403477,19366
1105.43,1.310299,406116,19877
1109.06,1.321668,407701,19439
1112.7,1.316430,409859,19779
1117.53,1.323051,412494,19605
1121.15,1.327473,414909,19520
1124.77,1.315552,416559,20143
1128.38,1.329872,418532,19582
1131.99,1.331591,419956,19571
1135.6,1.324357,421946,19994
1139.2,1.324415,423881,20083
1143.99,1.324644,426786,20210
1147.58,1.322737,428617,20386
1151.17,1.326190,431169,20345
1154.75,1.317671,433579,20864
1158.33,1.323045,436264,20735
1161.91,1.314848,439132,21269
1165.48,1.327887,442389,20793
1169.04,1.318026,446101,21449
1173.79,1.325144,451929,21376
1177.34,1.321570,456026,21748
1180.9,1.322911,461306,21932
1184.44,1.317822,467657,22496
1187.99,1.319208,473969,22727
1191.52,1.315080,479856,23229
1195.06,1.320039,487372,23325
1199.76,1.322204,497347,23684
1203.29,1.322813,504311,23982
1206.81,1.324946,511507,24205
1210.33,1.320151,519078,24836
1213.84,1.322479,527163,25088
1217.35,1.323887,534208,25341
1220.85,1.329172,540472,25328
1225.51,1.329108,549929,25775
1229.01,1.324477,556888,26381
1232.5,1.335069,562180,25990
1235.98,1.325741,567975,26828
1239.46,1.324816,574815,27209
1242.94,1.332665,582782,27092
1246.41,1.327955,591476,27796
1251.03,1.326127,604016,28505
1254.5,1.329574,612289,28667
1257.96,1.325430,619125,29265
1261.41,1.336945,624551,28749
1264.86,1.329995,629900,29463
1268.31,1.329730,634345,29689
1271.75,1.323582,638574,30313
1276.33,1.331084,642499,29977
1279.76,1.330205,645905,30197
1283.19,1.329236,648307,30377
1286.61,1.326512,650446,30669
1290.03,1.329879,652132,30511
1293.44,1.329624,653907,30612
1296.85,1.336743,655963,30209
1301.39,1.330375,657349,30720
1304.8,1.334789,657558,30419
1308.19,1.334209,658515,30504
1311.58,1.335883,658804,30400
1314.97,1.330314,659011,30802
1318.36,1.334049,658272,30504
1321.73,1.333457,658022,30534
1326.23,1.335295,657870,30398
1329.6,1.339725,656482,30026
1332.97,1.330386,654926,30606
1336.33,1.331909,653727,30443
1339.69,1.341004,652497,29756
1343.04,1.334794,649913,30065
1346.39,1.333785,647671,30031
1349.73,1.333593,645338,29936
1354.18,1.332338,641175,29829
1357.52,1.330030,638376,29857
1360.85,1.334180,635805,29454
1364.17,1.334968,633413,29290
1367.49,1.333936,631026,29249
1370.81,1.325501,628050,29682
1374.12,1.327453,625034,29407
1378.54,1.323969,620272,29418
1381.84,1.326122,616892,29113
1385.14,1.326471,613613,28935
1388.43,1.327611,611526,28761
1391.72,1.332636,610663,28390
1395.01,1.330008,610634,28561
1398.29,1.333067,611700,28410
1402.66,1.332051,614051,28586
1405.93,1.337217,616268,28350
1409.2,1.331090,617795,28824
1412.46,1.334249,618872,28665
1415.72,1.332614,619795,28816
1418.98,1.335750,620495,28641
1422.23,1.334152,621087,28774
1426.56,1.341828,621375,28283
1429.8,1.333452,621616,28845
1433.04,1.340960,622129,28374
1436.27,1.335048,621526,28735
1439.5,1.337975,621113,28523
1442.72,1.336670,620921,28600
1445.94,1.334759,620270,28696
1450.23,1.338748,618860,28369
1453.44,1.335367,617697,28537
1456.64,1.337643,616264,28322
1459.85,1.363513,614413,26604
1463.04,1.344160,612307,27721
1466.24,1.337234,610032,28062
1469.43,1.335332,607345,28061
1473.67,1.337059,603789,27786
1476.85,1.339621,601175,27503
1480.02,1.338807,597737,27397
1483.19,1.344546,594479,26890
1486.36,1.336009,591232,27274
1489.52,1.331502,587853,27401
1492.68,1.336116,583875,26928
1496.89,1.342019,578062,26300
1500.03,1.339804,574159,26256
1503.18,1.333190,570285,26479
1506.32,1.337801,565444,25977
1509.45,1.338664,560571,25702
1512.58,1.347203,555821,24988
1515.71,1.342833,550344,24992
1519.87,1.339630,543983,24886
1522.99,1.340958,538764,24572
1526.1,1.337983,533692,24508
1529.21,1.333813,527902,24476
1532.32,1.341108,521886,23794
1535.42,1.344678,515888,23328
1538.51,1.327565,509987,23988
1541.6,1.343755,503936,22836
1545.72,1.340824,494694,22569
1548.8,1.338392,488378,22406
1551.88,1.333618,481832,22350
1554.95,1.331486,474989,22141
1558.02,1.344664,467818,21155
1561.08,1.346826,460730,20731
1564.15,1.334668,454170,21016
1568.22,1.341693,444181,20224
1571.27,1.340094,436947,19968
1574.32,1.329499,429598,20117
1577.36,1.341170,422039,19239
1580.4,1.336906,414375,19076
1583.43,1.338878,406354,18622
1586.46,1.340401,398475,18197
1590.49,1.339558,388982,17798
1593.51,1.335820,380708,17570
1596.53,1.333621,372727,17289
1599.54,1.332248,365060,16987
1602.55,1.322445,357543,17017
1605.55,1.334006,349495,16197
1608.55,1.327313,341154,16056
1612.54,1.329055,330877,15510
1615.53,1.336325,322904,14885
1618.51,1.331064,315116,14703
1621.49,1.325120,307217,14532
1624.47,1.339363,299481,13709
1627.44,1.321349,292112,13938
1630.41,1.318592,284245,13649
1634.36,1.323432,274079,13015
1637.32,1.323804,266916,12664
1640.27,1.313231,259612,12621
1643.22,1.315986,251804,12164
1646.16,1.333702,244348,11332
1649.1,1.320281,236703,11322
1652.04,1.316986,228171,10997
1655.95,1.314021,215408,10453
1658.88,1.310060,204937,10036
1661.8,1.291469,193395,9885
1664.72,1.283293,179728,9361
1667.63,1.273328,163642,8721
1670.54,1.259754,146312,8045
1673.44,1.255709,128451,7129
1677.31,1.237188,105080,6086
1680.21,1.234182,88906,5185
1683.1,1.236264,75033,4355
1685.99,1.262581,63520,3470
1688.87,1.228617,53714,3173
1691.75,1.219348,45653,2755
1694.62,1.244672,39137,2228
1697.49,1.171245,33776,2277
1701.31,1.189316,28175,1822