File: ML/samples/unknown/Column 1_078459_20241121_170342.csv
Method:,Column 1,,
Host Date-Time:,21/11/24 @ 17:3:42,,
Header Version:,1,,
System Temp (C):,34.68,,
Detector Temp (C):,33.78,,
Humidity (%):,1.86,,
Lamp PD:,3802,,
Shift Vector Coefficients:,-10.5391,0.0761263,-0.000134223,,
Pixel to Wavelength Coefficients:,1775.68,-0.916766,-0.000235065,,
Serial Number:,5510004,,
Scan Config Name:,Column 1,,
Scan Config Type:,Slew,,
Section 1,,
Start wavelength (nm):,900,,
End wavelength (nm):,1700,,
Pattern Pixel Width (nm):,   7.03,,,,
Exposure (ms):,  0.635,,,,
Digital Resolution:,228,,
Num Repeats:,6,,
PGA Gain:,64,,
Total Measurement Time in sec:,  2.702,,
Wavelength (nm),Absorbance (AU),Reference Signal (unitless),Sample Signal (unitless)
901.51,1.324745,108485,5136
905.376,1.339120,121306,5556
909.237,1.320245,131909,6310
913.095,1.332899,143299,6658
916.948,1.322181,156982,7476
922.079,1.332966,179937,8359
925.923,1.346051,200504,9038
929.762,1.339468,222660,10190
933.597,1.334148,244426,11324
937.427,1.323260,263972,12540
941.254,1.323457,281845,13383
945.076,1.321813,297271,14169
950.165,1.309625,315605,15471
953.978,1.317503,328029,15791
957.786,1.326983,340470,16036
961.59,1.315489,352317,17039
965.389,1.310140,363056,17776
969.185,1.313236,373162,18141
972.976,1.317185,382632,18433
976.763,1.318590,391202,18785
981.806,1.316079,400190,19328
985.583,1.312130,406088,19792
989.355,1.318710,410162,19690
993.124,1.310696,412868,20189
996.888,1.302651,414263,20636
1000.65,1.314832,415476,20124
1004.4,1.305019,415479,20584
1009.41,1.320360,414358,19816
1013.15,1.313365,412923,20068
1016.89,1.310575,411526,20129
1020.63,1.320980,409066,19535
1024.36,1.318076,406777,19556
1028.09,1.308861,404427,19860
1031.82,1.315948,401911,19417
1036.78,1.311612,398410,19441
1040.49,1.312452,396204,19296
1044.2,1.305566,394236,19507
1047.91,1.311550,392042,19133
1051.61,1.307544,389823,19201
1055.31,1.312655,388234,18899
1059,1.325576,387599,18315
1063.92,1.319040,386688,18549
1067.61,1.322772,386598,18386
1071.29,1.310250,387377,18962
1074.96,1.308603,388536,19091
1078.63,1.323849,389855,18495
1082.3,1.313000,391215,19029
1085.96,1.312802,393215,19135
1090.84,1.315256,396270,19175
1094.49,1.321136,398760,19036
1098.14,1.318249,400987,19270
1101.79,1.319183,403477,19348
1105.43,1.324558,406116,19235
1109.06,1.316427,407701,19675
1112.7,1.321332,409859,19557
1117.53,1.317351,412494,19864
1121.15,1.319143,414909,19898
1124.77,1.319211,416559,19974
1128.38,1.315432,418532,20244
1131.99,1.326670,419956,19794
1135.6,1.327496,421946,19850
1139.2,1.320862,423881,20248
1143.99,1.327490,426786,20078
1147.58,1.323164,428617,20366
1151.17,1.331646,431169,20091
1154.75,1.329016,433579,20326
1158.33,1.315817,436264,21083
1161.91,1.324991,439132,20778
1165.48,1.319448,442389,21201
1169.04,1.318959,446101,21403
1173.79,1.324230,451929,21421
1177.34,1.320015,456026,21826
1180.9,1.318674,461306,22147
1184.44,1.321623,467657,22300
1187.99,1.320356,473969,22667
1191.52,1.320745,479856,22928
1195.06,1.323854,487372,23121
1199.76,1.314336,497347,24117
1203.29,1.320753,504311,24096
1206.81,1.320768,511507,24439
1210.33,1.326563,519078,24472
1213.84,1.325240,527163,24929
1217.35,1.320201,534208,25557
1220.85,1.329309,540472,25320
1225.51,1.330053,549929,25719
1229.01,1.332502,556888,25898
1232.5,1.327335,562180,26457
1235.98,1.327330,567975,26730
1239.46,1.323302,574815,27304
1242.94,1.325526,582782,27541
1246.41,1.330163,591476,27655
1251.03,1.320662,604016,28866
1254.5,1.325623,612289,28929
1257.96,1.328318,619125,29071
1261.41,1.325113,624551,29543
1264.86,1.329038,629900,29528
1268.31,1.329291,634345,29719
1271.75,1.328380,638574,29980
1276.33,1.330187,642499,30039
1279.76,1.330119,645905,30203
1283.19,1.330654,648307,30278
1286.61,1.332242,650446,30267
1290.03,1.328572,652132,30603
1293.44,1.335667,653907,30189
1296.85,1.329006,655963,30752
1301.39,1.328921,657349,30823
1304.8,1.335647,657558,30359
1308.19,1.333810,658515,30532
1311.58,1.327633,658804,30983
1314.97,1.332420,659011,30653
1318.36,1.329277,658272,30841
1321.73,1.334368,658022,30470
1326.23,1.334938,657870,30423
1329.6,1.330750,656482,30653
1332.97,1.328941,654926,30708
1336.33,1.332952,653727,30370
1339.69,1.331434,652497,30419
1343.04,1.329625,649913,30425
1346.39,1.332629,647671,30111
1349.73,1.329910,645338,30191
1354.18,1.332323,641175,29830
1357.52,1.331677,638376,29744
1360.85,1.332296,635805,29582
1364.17,1.330146,633413,29617
1367.49,1.330461,631026,29484
1370.81,1.334654,628050,29063
1374.12,1.334901,625034,28907
1378.54,1.327988,620272,29147
1381.84,1.330154,616892,28844
1385.14,1.331726,613613,28587
1388.43,1.330976,611526,28539
1391.72,1.331384,610663,28472
1395.01,1.332983,610634,28366
1398.29,1.333679,611700,28370
1402.66,1.331429,614051,28627
1405.93,1.332690,616268,28647
1409.2,1.334782,617795,28580
1412.46,1.330237,618872,28931
1415.72,1.331050,619795,28920
1418.98,1.331630,620495,28914
1422.23,1.329648,621087,29074
1426.56,1.333826,621375,28809
1429.8,1.333286,621616,28856
1433.04,1.332682,622129,28920
1436.27,1.333118,621526,28863
1439.5,1.332513,621113,28884
1442.72,1.328368,620921,29152
1445.94,1.334275,620270,28728
1450.23,1.340313,618860,28267
1453.44,1.343431,617697,28012
1456.64,1.332612,616264,28652
1459.85,1.339013,614413,28148
1463.04,1.337738,612307,28134
1466.24,1.340839,610032,27830
1469.43,1.340862,607345,27706
1473.67,1.334006,603789,27982
1476.85,1.342187,601175,27341
1480.02,1.339077,597737,27380
1483.19,1.338834,594479,27246
1486.36,1.342296,591232,26882
1489.52,1.340260,587853,26854
1492.68,1.338477,583875,26782
1496.89,1.341953,578062,26304
1500.03,1.338499,574159,26335
1503.18,1.341470,570285,25979
1506.32,1.337700,565444,25983
1509.45,1.341478,560571,25536
1512.58,1.340906,555821,25353
1515.71,1.342625,550344,25004
1519.87,1.338880,543983,24929
1522.99,1.337911,538764,24745
1526.1,1.338852,533692,24459
1529.21,1.337985,527902,24242
1532.32,1.337491,521886,23993
1535.42,1.340435,515888,23557
1538.51,1.339980,509987,23312
1541.6,1.337093,503936,23189
1545.72,1.343294,494694,22441
1548.8,1.337230,488378,22466
1551.88,1.340591,481832,21994
1554.95,1.341748,474989,21624
1558.02,1.334639,467818,21649
1561.08,1.335026,460730,21302
1564.15,1.336968,454170,20905
1568.22,1.332114,444181,20675
1571.27,1.339008,436947,20018
1574.32,1.334406,429598,19891
1577.36,1.335964,422039,19471
1580.4,1.337111,414375,19067
1583.43,1.333916,406354,18836
1586.46,1.334028,398475,18466
1590.49,1.337198,388982,17895
1593.51,1.332398,380708,17709
1596.53,1.340406,372727,17021
1599.54,1.330462,365060,17057
1602.55,1.332097,357543,16643
1605.55,1.337155,349495,16080
1608.55,1.317762,341154,16413
1612.54,1.331216,330877,15433
1615.53,1.325889,322904,15247
1618.51,1.333850,315116,14609
1621.49,1.322171,307217,14631
1624.47,1.326012,299481,14137
1627.44,1.331404,292112,13619
1630.41,1.320090,284245,13602
1634.36,1.329683,274079,12829
1637.32,1.329743,266916,12492
1640.27,1.319225,259612,12448
1643.22,1.315059,251804,12190
1646.16,1.316790,244348,11782
1649.1,1.311434,236703,11555
1652.04,1.312390,228171,11114
1655.95,1.300522,215408,10783
1658.88,1.282155,204937,10702
1661.8,1.289234,193395,9936
1664.72,1.285759,179728,9308
1667.63,1.270499,163642,8778
1670.54,1.262136,146312,8001
1673.44,1.245355,128451,7301
1677.31,1.208273,105080,6505
1680.21,1.178890,88906,5889
1683.1,1.165558,75033,5125
1685.99,1.187487,63520,4125
1688.87,1.189883,53714,3469
1691.75,1.169230,45653,3092
1694.62,1.187070,39137,2544
1697.49,1.173924,33776,2263
1701.31,1.139596,28175,2043