File: ML/samples/unknown/Column 1_078281_20241121_165422.csv
Method:,Column 1,,
Host Date-Time:,21/11/24 @ 16:54:22,,
Header Version:,1,,
System Temp (C):,34.29,,
Detector Temp (C):,32.43,,
Humidity (%):,2.1,,
Lamp PD:,3802,,
Shift Vector Coefficients:,-10.5391,0.0761263,-0.000134223,,
Pixel to Wavelength Coefficients:,1775.68,-0.916766,-0.000235065,,
Serial Number:,5510004,,
Scan Config Name:,Column 1,,
Scan Config Type:,Slew,,
Section 1,,
Start wavelength (nm):,900,,
End wavelength (nm):,1700,,
Pattern Pixel Width (nm):,   7.03,,,,
Exposure (ms):,  0.635,,,,
Digital Resolution:,228,,
Num Repeats:,6,,
PGA Gain:,64,,
Total Measurement Time in sec:,  2.729,,
Wavelength (nm),Absorbance (AU),Reference Signal (unitless),Sample Signal (unitless)
901.51,1.292880,108485,5527
905.376,1.310096,121306,5940
909.237,1.293681,131909,6708
913.095,1.313696,143299,6959
916.948,1.329503,156982,7351
922.079,1.327853,179937,8458
925.923,1.322802,200504,9535
929.762,1.327074,222660,10485
933.597,1.318627,244426,11736
937.427,1.319914,263972,12637
941.254,1.311076,281845,13770
945.076,1.322826,297271,14136
950.165,1.321752,315605,15045
953.978,1.313833,328029,15925
957.786,1.311500,340470,16618
961.59,1.301322,352317,17604
965.389,1.304798,363056,17996
969.185,1.314507,373162,18088
972.976,1.305883,382632,18919
976.763,1.306686,391202,19307
981.806,1.322143,400190,19060
985.583,1.315125,406088,19656
989.355,1.302007,410162,20462
993.124,1.313719,412868,20049
996.888,1.309866,414263,20296
1000.65,1.314810,415476,20125
1004.4,1.312832,415479,20217
1009.41,1.299479,414358,20792
1013.15,1.310410,412923,20205
1016.89,1.308380,411526,20231
1020.63,1.309246,409066,20070
1024.36,1.302438,406777,20273
1028.09,1.317117,404427,19486
1031.82,1.306326,401911,19852
1036.78,1.312797,398410,19388
1040.49,1.308575,396204,19469
1044.2,1.308403,394236,19380
1047.91,1.311595,392042,19131
1051.61,1.317750,389823,18755
1055.31,1.312081,388234,18924
1059,1.314548,387599,18786
1063.92,1.308676,386688,18997
1067.61,1.305091,386598,19150
1071.29,1.312569,387377,18861
1074.96,1.310244,388536,19019
1078.63,1.312744,389855,18974
1082.3,1.308030,391215,19248
1085.96,1.314576,393215,19057
1090.84,1.316594,396270,19116
1094.49,1.316958,398760,19220
1098.14,1.313118,400987,19499
1101.79,1.309263,403477,19795
1105.43,1.313633,406116,19725
1109.06,1.318862,407701,19565
1112.7,1.315115,409859,19839
1117.53,1.314084,412494,20014
1121.15,1.308834,414909,20376
1124.77,1.310835,416559,20363
1128.38,1.317346,418532,20155
1131.99,1.316843,419956,20247
1135.6,1.324488,421946,19988
1139.2,1.314855,423881,20530
1143.99,1.318499,426786,20498
1147.58,1.324531,428617,20302
1151.17,1.317629,431169,20750
1154.75,1.321119,433579,20699
1158.33,1.315549,436264,21096
1161.91,1.315441,439132,21240
1165.48,1.317976,442389,21273
1169.04,1.325068,446101,21104
1173.79,1.317092,451929,21776
1177.34,1.321251,456026,21764
1180.9,1.315100,461306,22330
1184.44,1.315243,467657,22630
1187.99,1.315573,473969,22918
1191.52,1.317010,479856,23126
1195.06,1.315796,487372,23554
1199.76,1.317644,497347,23934
1203.29,1.323248,504311,23958
1206.81,1.326528,511507,24117
1210.33,1.327558,519078,24416
1213.84,1.318824,527163,25300
1217.35,1.322654,534208,25413
1220.85,1.325637,540472,25535
1225.51,1.329445,549929,25755
1229.01,1.321801,556888,26544
1232.5,1.325664,562180,26559
1235.98,1.325353,567975,26852
1239.46,1.318116,574815,27632
1242.94,1.320868,582782,27838
1246.41,1.328486,591476,27762
1251.03,1.323046,604016,28708
1254.5,1.333913,612289,28382
1257.96,1.322177,619125,29485
1261.41,1.321133,624551,29815
1264.86,1.325216,629900,29789
1268.31,1.326916,634345,29882
1271.75,1.324443,638574,30253
1276.33,1.329883,642499,30060
1279.76,1.327124,645905,30412
1283.19,1.329894,648307,30331
1286.61,1.332629,650446,30240
1290.03,1.333452,652132,30261
1293.44,1.328024,653907,30725
1296.85,1.337880,655963,30130
1301.39,1.330191,657349,30733
1304.8,1.327358,657558,30944
1308.19,1.327512,658515,30978
1311.58,1.331137,658804,30734
1314.97,1.331471,659011,30720
1318.36,1.333650,658272,30532
1321.73,1.339212,658022,30132
1326.23,1.330323,657870,30748
1329.6,1.332724,656482,30514
1332.97,1.329026,654926,30702
1336.33,1.331367,653727,30481
1339.69,1.334327,652497,30217
1343.04,1.334736,649913,30069
1346.39,1.328624,647671,30390
1349.73,1.328273,645338,30305
1354.18,1.332891,641175,29791
1357.52,1.330423,638376,29830
1360.85,1.329618,635805,29765
1364.17,1.331747,633413,29508
1367.49,1.324827,631026,29869
1370.81,1.328924,628050,29449
1374.12,1.333431,625034,29005
1378.54,1.328421,620272,29118
1381.84,1.323742,616892,29273
1385.14,1.323703,613613,29120
1388.43,1.330748,611526,28554
1391.72,1.328389,610663,28669
1395.01,1.328005,610634,28693
1398.29,1.327116,611700,28802
1402.66,1.325477,614051,29022
1405.93,1.330287,616268,28806
1409.2,1.331196,617795,28817
1412.46,1.328036,618872,29078
1415.72,1.329715,619795,29009
1418.98,1.334629,620495,28715
1422.23,1.329334,621087,29095
1426.56,1.333148,621375,28854
1429.8,1.332925,621616,28880
1433.04,1.332487,622129,28933
1436.27,1.329611,621526,29097
1439.5,1.334941,621113,28723
1442.72,1.333116,620921,28835
1445.94,1.337203,620270,28535
1450.23,1.335409,618860,28588
1453.44,1.333575,617697,28655
1456.64,1.340412,616264,28142
1459.85,1.333585,614413,28502
1463.04,1.337028,612307,28180
1466.24,1.336353,610032,28119
1469.43,1.338080,607345,27884
1473.67,1.336903,603789,27796
1476.85,1.339210,601175,27529
1480.02,1.334297,597737,27683
1483.19,1.333369,594479,27591
1486.36,1.335039,591232,27335
1489.52,1.338275,587853,26977
1492.68,1.333319,583875,27102
1496.89,1.338434,578062,26518
1500.03,1.334706,574159,26566
1503.18,1.341035,570285,26005
1506.32,1.343404,565444,25644
1509.45,1.338073,560571,25737
1512.58,1.338855,555821,25473
1515.71,1.336776,550344,25343
1519.87,1.336500,543983,25066
1522.99,1.335129,538764,24904
1526.1,1.341774,533692,24295
1529.21,1.345830,527902,23808
1532.32,1.345400,521886,23560
1535.42,1.337258,515888,23730
1538.51,1.335365,509987,23561
1541.6,1.331474,503936,23491
1545.72,1.337126,494694,22762
1548.8,1.334033,488378,22632
1551.88,1.339625,481832,22043
1554.95,1.334300,474989,21998
1558.02,1.337013,467818,21531
1561.08,1.327287,460730,21685
1564.15,1.329798,454170,21253
1568.22,1.334748,444181,20550
1571.27,1.338033,436947,20063
1574.32,1.342071,429598,19543
1577.36,1.327351,422039,19861
1580.4,1.338960,414375,18986
1583.43,1.330997,406354,18963
1586.46,1.332151,398475,18546
1590.49,1.329977,388982,18195
1593.51,1.325030,380708,18012
1596.53,1.336241,372727,17185
1599.54,1.336977,365060,16803
1602.55,1.333142,357543,16603
1605.55,1.325694,349495,16510
1608.55,1.320710,341154,16302
1612.54,1.330738,330877,15450
1615.53,1.321355,322904,15407
1618.51,1.326335,315116,14864
1621.49,1.323449,307217,14588
1624.47,1.313984,299481,14534
1627.44,1.319514,292112,13997
1630.41,1.320729,284245,13582
1634.36,1.312915,274079,13334
1637.32,1.316695,266916,12873
1640.27,1.302693,259612,12931
1643.22,1.305579,251804,12459
1646.16,1.316974,244348,11777
1649.1,1.313506,236703,11500
1652.04,1.309586,228171,11186
1655.95,1.299999,215408,10796
1658.88,1.296680,204937,10350
1661.8,1.275594,193395,10253
1664.72,1.267531,179728,9707
1667.63,1.257630,163642,9042
1670.54,1.265295,146312,7943
1673.44,1.218261,128451,7771
1677.31,1.220460,105080,6325
1680.21,1.175218,88906,5939
1683.1,1.216955,75033,4553
1685.99,1.192889,63520,4074
1688.87,1.168390,53714,3645
1691.75,1.183363,45653,2993
1694.62,1.162190,39137,2694
1697.49,1.187372,33776,2194
1701.31,1.264605,28175,1532