File: ML/samples/unknown/Column 1_078896_20241121_172725.csv
Method:,Column 1,,
Host Date-Time:,21/11/24 @ 17:27:25,,
Header Version:,1,,
System Temp (C):,37.18,,
Detector Temp (C):,36.31,,
Humidity (%):,0.43,,
Lamp PD:,3796,,
Shift Vector Coefficients:,-10.5391,0.0761263,-0.000134223,,
Pixel to Wavelength Coefficients:,1775.68,-0.916766,-0.000235065,,
Serial Number:,5510004,,
Scan Config Name:,Column 1,,
Scan Config Type:,Slew,,
Section 1,,
Start wavelength (nm):,900,,
End wavelength (nm):,1700,,
Pattern Pixel Width (nm):,   7.03,,,,
Exposure (ms):,  0.635,,,,
Digital Resolution:,228,,
Num Repeats:,6,,
PGA Gain:,64,,
Total Measurement Time in sec:,  2.665,,
Wavelength (nm),Absorbance (AU),Reference Signal (unitless),Sample Signal (unitless)
901.51,1.347039,108485,4879
905.376,1.324819,121306,5742
909.237,1.337372,131909,6066
913.095,1.346549,143299,6452
916.948,1.313895,156982,7620
922.079,1.327032,179937,8474
925.923,1.334107,200504,9290
929.762,1.346774,222660,10020
933.597,1.346676,244426,11002
937.427,1.333493,263972,12248
941.254,1.316919,281845,13586
945.076,1.323749,297271,14106
950.165,1.337566,315605,14507
953.978,1.324489,328029,15539
957.786,1.306150,340470,16824
961.59,1.314141,352317,17092
965.389,1.311681,363056,17713
969.185,1.304820,373162,18496
972.976,1.318270,382632,18387
976.763,1.313670,391202,18999
981.806,1.313682,400190,19435
985.583,1.307113,406088,20022
989.355,1.312230,410162,19986
993.124,1.302725,412868,20563
996.888,1.301999,414263,20667
1000.65,1.306898,415476,20495
1004.4,1.310925,415479,20306
1009.41,1.310822,414358,20256
1013.15,1.310797,412923,20187
1016.89,1.315588,411526,19898
1020.63,1.306679,409066,20189
1024.36,1.305772,406777,20118
1028.09,1.305376,404427,20020
1031.82,1.300006,401911,20143
1036.78,1.315471,398410,19269
1040.49,1.307172,396204,19532
1044.2,1.309277,394236,19341
1047.91,1.309195,392042,19237
1051.61,1.305963,389823,19271
1055.31,1.321523,388234,18517
1059,1.317029,387599,18679
1063.92,1.303110,386688,19242
1067.61,1.321569,386598,18437
1071.29,1.315828,387377,18720
1074.96,1.309582,388536,19048
1078.63,1.317925,389855,18749
1082.3,1.316943,391215,18857
1085.96,1.313710,393215,19095
1090.84,1.318644,396270,19026
1094.49,1.315267,398760,19295
1098.14,1.314367,400987,19443
1101.79,1.311022,403477,19715
1105.43,1.325326,406116,19201
1109.06,1.314841,407701,19747
1112.7,1.317397,409859,19735
1117.53,1.311962,412494,20112
1121.15,1.326984,414909,19542
1124.77,1.315186,416559,20160
1128.38,1.316829,418532,20179
1131.99,1.320938,419956,20057
1135.6,1.310295,421946,20652
1139.2,1.320583,423881,20261
1143.99,1.324128,426786,20234
1147.58,1.320104,428617,20510
1151.17,1.319875,431169,20643
1154.75,1.319423,433579,20780
1158.33,1.316085,436264,21070
1161.91,1.321453,439132,20948
1165.48,1.310126,442389,21661
1169.04,1.310161,446101,21841
1173.79,1.314170,451929,21923
1177.34,1.315719,456026,22043
1180.9,1.316210,461306,22273
1184.44,1.316858,467657,22546
1187.99,1.319552,473969,22709
1191.52,1.324894,479856,22710
1195.06,1.325567,487372,23030
1199.76,1.322259,497347,23681
1203.29,1.323502,504311,23944
1206.81,1.326600,511507,24113
1210.33,1.319906,519078,24850
1213.84,1.319494,527163,25261
1217.35,1.320285,534208,25552
1220.85,1.313082,540472,26284
1225.51,1.331490,549929,25634
1229.01,1.321017,556888,26592
1232.5,1.346772,562180,25299
1235.98,1.319696,567975,27204
1239.46,1.323095,574815,27317
1242.94,1.325164,582782,27564
1246.41,1.323432,591476,28087
1251.03,1.327317,604016,28427
1254.5,1.324484,612289,29005
1257.96,1.323357,619125,29405
1261.41,1.324452,624551,29588
1264.86,1.328905,629900,29537
1268.31,1.324510,634345,30048
1271.75,1.325607,638574,30172
1276.33,1.323188,642499,30527
1279.76,1.321717,645905,30793
1283.19,1.327068,648307,30529
1286.61,1.330409,650446,30395
1290.03,1.330620,652132,30459
1293.44,1.329043,653907,30653
1296.85,1.326457,655963,30933
1301.39,1.328639,657349,30843
1304.8,1.329637,657558,30782
1308.19,1.328706,658515,30893
1311.58,1.327941,658804,30961
1314.97,1.324599,659011,31210
1318.36,1.329235,658272,30844
1321.73,1.330085,658022,30772
1326.23,1.325156,657870,31116
1329.6,1.328137,656482,30838
1332.97,1.331010,654926,30562
1336.33,1.334355,653727,30272
1339.69,1.334672,652497,30193
1343.04,1.332058,649913,30255
1346.39,1.328867,647671,30373
1349.73,1.329550,645338,30216
1354.18,1.329291,641175,30039
1357.52,1.333374,638376,29628
1360.85,1.330436,635805,29709
1364.17,1.330366,633413,29602
1367.49,1.325452,631026,29826
1370.81,1.326864,628050,29589
1374.12,1.324172,625034,29630
1378.54,1.328540,620272,29110
1381.84,1.325913,616892,29127
1385.14,1.330179,613613,28689
1388.43,1.329669,611526,28625
1391.72,1.333157,610663,28356
1395.01,1.325921,610634,28831
1398.29,1.327780,611700,28758
1402.66,1.324326,614051,29099
1405.93,1.331449,616268,28729
1409.2,1.333296,617795,28678
1412.46,1.335858,618872,28559
1415.72,1.334881,619795,28666
1418.98,1.333436,620495,28794
1422.23,1.335074,621087,28713
1426.56,1.331990,621375,28931
1429.8,1.329898,621616,29082
1433.04,1.336816,622129,28646
1436.27,1.332351,621526,28914
1439.5,1.332739,621113,28869
1442.72,1.338542,620921,28477
1445.94,1.333837,620270,28757
1450.23,1.336093,618860,28543
1453.44,1.335352,617697,28538
1456.64,1.341803,616264,28052
1459.85,1.336935,614413,28283
1463.04,1.338371,612307,28093
1466.24,1.339826,610032,27895
1469.43,1.331634,607345,28301
1473.67,1.337669,603789,27747
1476.85,1.330310,601175,28099
1480.02,1.335664,597737,27596
1483.19,1.333007,594479,27614
1486.36,1.338901,591232,27093
1489.52,1.340244,587853,26855
1492.68,1.338477,583875,26782
1496.89,1.338139,578062,26536
1500.03,1.338416,574159,26340
1503.18,1.332928,570285,26495
1506.32,1.339459,565444,25878
1509.45,1.332840,560571,26049
1512.58,1.335831,555821,25651
1515.71,1.339354,550344,25193
1519.87,1.344986,543983,24581
1522.99,1.343155,538764,24448
1526.1,1.332069,533692,24844
1529.21,1.334861,527902,24417
1532.32,1.329794,521886,24422
1535.42,1.340288,515888,23565
1538.51,1.338139,509987,23411
1541.6,1.333847,503936,23363
1545.72,1.333327,494694,22962
1548.8,1.333496,488378,22660
1551.88,1.331254,481832,22472
1554.95,1.335764,474989,21924
1558.02,1.331620,467818,21800
1561.08,1.334680,460730,21319
1564.15,1.338300,454170,20841
1568.22,1.328641,444181,20841
1571.27,1.338401,436947,20046
1574.32,1.326637,429598,20250
1577.36,1.325301,422039,19955
1580.4,1.334228,414375,19194
1583.43,1.321573,406354,19379
1586.46,1.327307,398475,18754
1590.49,1.334295,388982,18015
1593.51,1.334512,380708,17623
1596.53,1.334879,372727,17239
1599.54,1.333784,365060,16927
1602.55,1.316791,357543,17240
1605.55,1.325536,349495,16516
1608.55,1.322846,341154,16222
1612.54,1.317342,330877,15934
1615.53,1.324609,322904,15292
1618.51,1.318144,315116,15147
1621.49,1.327607,307217,14449
1624.47,1.322493,299481,14252
1627.44,1.314088,292112,14173
1630.41,1.314507,284245,13778
1634.36,1.319611,274079,13130
1637.32,1.324284,266916,12650
1640.27,1.318423,259612,12471
1643.22,1.309255,251804,12354
1646.16,1.321907,244348,11644
1649.1,1.318214,236703,11376
1652.04,1.321432,228171,10885
1655.95,1.296354,215408,10887
1658.88,1.287669,204937,10567
1661.8,1.301468,193395,9660
1664.72,1.282830,179728,9371
1667.63,1.253614,163642,9126
1670.54,1.241208,146312,8396
1673.44,1.205430,128451,8004
1677.31,1.173762,105080,7043
1680.21,1.182147,88906,5845
1683.1,1.116946,75033,5732
1685.99,1.098846,63520,5059
1688.87,1.157216,53714,3740
1691.75,1.137808,45653,3324
1694.62,1.191187,39137,2520
1697.49,1.137497,33776,2461
1701.31,1.261498,28175,1543