File: ML/samples/unknown/Column 1_078299_20241121_165515.csv
Method:,Column 1,,
Host Date-Time:,21/11/24 @ 16:55:15,,
Header Version:,1,,
System Temp (C):,34.43,,
Detector Temp (C):,32.51,,
Humidity (%):,2.15,,
Lamp PD:,3802,,
Shift Vector Coefficients:,-10.5391,0.0761263,-0.000134223,,
Pixel to Wavelength Coefficients:,1775.68,-0.916766,-0.000235065,,
Serial Number:,5510004,,
Scan Config Name:,Column 1,,
Scan Config Type:,Slew,,
Section 1,,
Start wavelength (nm):,900,,
End wavelength (nm):,1700,,
Pattern Pixel Width (nm):,   7.03,,,,
Exposure (ms):,  0.635,,,,
Digital Resolution:,228,,
Num Repeats:,6,,
PGA Gain:,64,,
Total Measurement Time in sec:,  2.732,,
Wavelength (nm),Absorbance (AU),Reference Signal (unitless),Sample Signal (unitless)
901.51,1.307910,108485,5339
905.376,1.314136,121306,5885
909.237,1.339022,131909,6043
913.095,1.292920,143299,7300
916.948,1.328265,156982,7372
922.079,1.317452,179937,8663
925.923,1.307322,200504,9881
929.762,1.328651,222660,10447
933.597,1.312418,244426,11905
937.427,1.324092,263972,12516
941.254,1.318103,281845,13549
945.076,1.322243,297271,14155
950.165,1.317272,315605,15201
953.978,1.310221,328029,16058
957.786,1.310065,340470,16673
961.59,1.306160,352317,17409
965.389,1.310286,363056,17770
969.185,1.313595,373162,18126
972.976,1.308901,382632,18788
976.763,1.308377,391202,19232
981.806,1.317024,400190,19286
985.583,1.307134,406088,20021
989.355,1.320854,410162,19593
993.124,1.305564,412868,20429
996.888,1.305205,414263,20515
1000.65,1.314163,415476,20155
1004.4,1.316175,415479,20062
1009.41,1.309238,414358,20330
1013.15,1.297451,412923,20817
1016.89,1.310618,411526,20127
1020.63,1.306915,409066,20178
1024.36,1.306204,406777,20098
1028.09,1.308927,404427,19857
1031.82,1.307443,401911,19801
1036.78,1.309806,398410,19522
1040.49,1.317636,396204,19067
1044.2,1.307216,394236,19433
1047.91,1.310846,392042,19164
1051.61,1.312800,389823,18970
1055.31,1.323168,388234,18447
1059,1.310590,387599,18958
1063.92,1.314058,386688,18763
1067.61,1.316325,386598,18661
1071.29,1.300064,387377,19412
1074.96,1.317056,388536,18723
1078.63,1.321227,389855,18607
1082.3,1.307083,391215,19290
1085.96,1.315694,393215,19008
1090.84,1.316594,396270,19116
1094.49,1.323905,398760,18915
1098.14,1.322597,400987,19078
1101.79,1.320509,403477,19289
1105.43,1.316593,406116,19591
1109.06,1.312188,407701,19868
1112.7,1.321466,409859,19551
1117.53,1.322320,412494,19638
1121.15,1.316120,414909,20037
1124.77,1.321654,416559,19862
1128.38,1.322004,418532,19940
1131.99,1.323544,419956,19937
1135.6,1.319154,421946,20235
1139.2,1.313482,423881,20595
1143.99,1.316765,426786,20580
1147.58,1.323868,428617,20333
1151.17,1.320401,431169,20618
1154.75,1.318588,433579,20820
1158.33,1.319686,436264,20896
1161.91,1.312913,439132,21364
1165.48,1.318854,442389,21230
1169.04,1.314859,446101,21606
1173.79,1.319592,451929,21651
1177.34,1.317456,456026,21955
1180.9,1.318772,461306,22142
1184.44,1.316280,467657,22576
1187.99,1.319877,473969,22692
1191.52,1.316035,479856,23178
1195.06,1.319778,487372,23339
1199.76,1.325333,497347,23514
1203.29,1.323738,504311,23931
1206.81,1.322656,511507,24333
1210.33,1.316130,519078,25067
1213.84,1.321925,527163,25120
1217.35,1.321852,534208,25460
1220.85,1.317783,540472,26001
1225.51,1.324366,549929,26058
1229.01,1.325383,556888,26326
1232.5,1.325157,562180,26590
1235.98,1.318358,567975,27288
1239.46,1.328712,574815,26966
1242.94,1.320525,582782,27860
1246.41,1.322335,591476,28158
1251.03,1.325899,604016,28520
1254.5,1.334357,612289,28353
1257.96,1.323712,619125,29381
1261.41,1.329799,624551,29226
1264.86,1.327467,629900,29635
1268.31,1.326989,634345,29877
1271.75,1.326428,638574,30115
1276.33,1.326674,642499,30283
1279.76,1.332180,645905,30060
1283.19,1.327481,648307,30500
1286.61,1.332055,650446,30280
1290.03,1.330207,652132,30488
1293.44,1.331387,653907,30488
1296.85,1.334663,655963,30354
1301.39,1.331224,657349,30660
1304.8,1.334675,657558,30427
1308.19,1.335321,658515,30426
1311.58,1.338060,658804,30248
1314.97,1.333029,659011,30610
1318.36,1.329446,658272,30829
1321.73,1.333002,658022,30566
1326.23,1.331738,657870,30648
1329.6,1.335365,656482,30329
1332.97,1.333562,654926,30383
1336.33,1.333166,653727,30355
1339.69,1.332448,652497,30348
1343.04,1.329882,649913,30407
1346.39,1.331894,647671,30162
1349.73,1.332767,645338,29993
1354.18,1.333096,641175,29777
1357.52,1.331502,638376,29756
1360.85,1.331124,635805,29662
1364.17,1.328171,633413,29752
1367.49,1.330093,631026,29509
1370.81,1.332076,628050,29236
1374.12,1.332937,625034,29038
1378.54,1.331084,620272,28940
1381.84,1.327512,616892,29020
1385.14,1.324883,613613,29041
1388.43,1.331722,611526,28490
1391.72,1.331063,610663,28493
1395.01,1.326358,610634,28802
1398.29,1.328475,611700,28712
1402.66,1.330701,614051,28675
1405.93,1.335596,616268,28456
1409.2,1.333265,617795,28680
1412.46,1.333220,618872,28733
1415.72,1.336247,619795,28576
1418.98,1.333557,620495,28786
1422.23,1.336058,621087,28648
1426.56,1.330208,621375,29050
1429.8,1.332129,621616,28933
1433.04,1.335167,622129,28755
1436.27,1.335063,621526,28734
1439.5,1.331942,621113,28922
1442.72,1.341112,620921,28309
1445.94,1.340242,620270,28336
1450.23,1.336382,618860,28524
1453.44,1.335824,617697,28507
1456.64,1.340026,616264,28167
1459.85,1.336290,614413,28325
1463.04,1.332429,612307,28480
1466.24,1.334334,610032,28250
1469.43,1.337753,607345,27905
1473.67,1.338892,603789,27669
1476.85,1.333926,601175,27866
1480.02,1.331295,597737,27875
1483.19,1.332866,594479,27623
1486.36,1.337524,591232,27179
1489.52,1.334444,587853,27216
1492.68,1.336229,583875,26921
1496.89,1.339417,578062,26458
1500.03,1.334984,574159,26549
1503.18,1.339734,570285,26083
1506.32,1.336649,565444,26046
1509.45,1.340764,560571,25578
1512.58,1.333618,555821,25782
1515.71,1.341740,550344,25055
1519.87,1.333100,543983,25263
1522.99,1.340552,538764,24595
1526.1,1.343081,533692,24222
1529.21,1.333902,527902,24471
1532.32,1.344774,521886,23594
1535.42,1.336435,515888,23775
1538.51,1.340632,509987,23277
1541.6,1.336663,503936,23212
1545.72,1.343720,494694,22419
1548.8,1.335282,488378,22567
1551.88,1.334727,481832,22293
1554.95,1.337968,474989,21813
1558.02,1.336952,467818,21534
1561.08,1.340525,460730,21034
1564.15,1.341941,454170,20667
1568.22,1.333545,444181,20607
1571.27,1.334283,436947,20237
1574.32,1.337056,429598,19770
1577.36,1.342232,422039,19192
1580.4,1.335997,414375,19116
1583.43,1.329489,406354,19029
1586.46,1.335229,398475,18415
1590.49,1.333308,388982,18056
1593.51,1.335079,380708,17600
1596.53,1.330916,372727,17397
1599.54,1.332708,365060,16969
1602.55,1.336793,357543,16464
1605.55,1.330402,349495,16332
1608.55,1.315414,341154,16502
1612.54,1.333615,330877,15348
1615.53,1.323503,322904,15331
1618.51,1.327886,315116,14811
1621.49,1.310371,307217,15034
1624.47,1.319790,299481,14341
1627.44,1.330576,292112,13645
1630.41,1.324648,284245,13460
1634.36,1.320969,274079,13089
1637.32,1.332743,266916,12406
1640.27,1.324773,259612,12290
1643.22,1.312218,251804,12270
1646.16,1.320529,244348,11681
1649.1,1.307729,236703,11654
1652.04,1.300899,228171,11412
1655.95,1.301813,215408,10751
1658.88,1.313187,204937,9964
1661.8,1.282812,193395,10084
1664.72,1.271802,179728,9612
1667.63,1.278539,163642,8617
1670.54,1.269305,146312,7870
1673.44,1.245296,128451,7302
1677.31,1.212904,105080,6436
1680.21,1.211738,88906,5460
1683.1,1.189242,75033,4853
1685.99,1.190339,63520,4098
1688.87,1.221154,53714,3228
1691.75,1.237044,45653,2645
1694.62,1.193953,39137,2504
1697.49,1.218552,33776,2042
1701.31,1.204105,28175,1761