File: ML/samples/unknown/Column 1_078994_20241121_173207.csv
Method:,Column 1,,
Host Date-Time:,21/11/24 @ 17:32:7,,
Header Version:,1,,
System Temp (C):,37.64,,
Detector Temp (C):,36.98,,
Humidity (%):,0.83,,
Lamp PD:,3795,,
Shift Vector Coefficients:,-10.5391,0.0761263,-0.000134223,,
Pixel to Wavelength Coefficients:,1775.68,-0.916766,-0.000235065,,
Serial Number:,5510004,,
Scan Config Name:,Column 1,,
Scan Config Type:,Slew,,
Section 1,,
Start wavelength (nm):,900,,
End wavelength (nm):,1700,,
Pattern Pixel Width (nm):,   7.03,,,,
Exposure (ms):,  0.635,,,,
Digital Resolution:,228,,
Num Repeats:,6,,
PGA Gain:,64,,
Total Measurement Time in sec:,  2.725,,
Wavelength (nm),Absorbance (AU),Reference Signal (unitless),Sample Signal (unitless)
901.51,1.298257,108485,5459
905.376,1.309073,121306,5954
909.237,1.338160,131909,6055
913.095,1.291791,143299,7319
916.948,1.327735,156982,7381
922.079,1.315402,179937,8704
925.923,1.338997,200504,9186
929.762,1.336283,222660,10265
933.597,1.311835,244426,11921
937.427,1.322534,263972,12561
941.254,1.326583,281845,13287
945.076,1.310887,297271,14530
950.165,1.325754,315605,14907
953.978,1.303299,328029,16316
957.786,1.317579,340470,16387
961.59,1.308436,352317,17318
965.389,1.302007,363056,18112
969.185,1.308190,373162,18353
972.976,1.314554,382632,18545
976.763,1.309168,391202,19197
981.806,1.302650,400190,19935
985.583,1.300590,406088,20325
989.355,1.312991,410162,19951
993.124,1.307375,412868,20344
996.888,1.308861,414263,20343
1000.65,1.310174,415476,20341
1004.4,1.304303,415479,20618
1009.41,1.304733,414358,20542
1013.15,1.300529,412923,20670
1016.89,1.312868,411526,20023
1020.63,1.301674,409066,20423
1024.36,1.312560,406777,19806
1028.09,1.301317,404427,20208
1031.82,1.307662,401911,19791
1036.78,1.311054,398410,19466
1040.49,1.314980,396204,19184
1044.2,1.307843,394236,19405
1047.91,1.311323,392042,19143
1051.61,1.314153,389823,18911
1055.31,1.312793,388234,18893
1059,1.301522,387599,19358
1063.92,1.309339,386688,18968
1067.61,1.310844,386598,18898
1071.29,1.307328,387377,19090
1074.96,1.301562,388536,19403
1078.63,1.315454,389855,18856
1082.3,1.317012,391215,18854
1085.96,1.309546,393215,19279
1090.84,1.318849,396270,19017
1094.49,1.316845,398760,19225
1098.14,1.311429,400987,19575
1101.79,1.313363,403477,19609
1105.43,1.307924,406116,19986
1109.06,1.307297,407701,20093
1112.7,1.311887,409859,19987
1117.53,1.317942,412494,19837
1121.15,1.307451,414909,20441
1124.77,1.324792,416559,19719
1128.38,1.311609,418532,20423
1131.99,1.312957,419956,20429
1135.6,1.310905,421946,20623
1139.2,1.306267,423881,20940
1143.99,1.318605,426786,20493
1147.58,1.316225,428617,20694
1151.17,1.317755,431169,20744
1154.75,1.321896,433579,20662
1158.33,1.314213,436264,21161
1161.91,1.310217,439132,21497
1165.48,1.313507,442389,21493
1169.04,1.311734,446101,21762
1173.79,1.312509,451929,22007
1177.34,1.310587,456026,22305
1180.9,1.310400,461306,22573
1184.44,1.317475,467657,22514
1187.99,1.314759,473969,22961
1191.52,1.308493,479856,23584
1195.06,1.317921,487372,23439
1199.76,1.319754,497347,23818
1203.29,1.322904,504311,23977
1206.81,1.313333,511507,24861
1210.33,1.320798,519078,24799
1213.84,1.321010,527163,25173
1217.35,1.317372,534208,25724
1220.85,1.321238,540472,25795
1225.51,1.317143,549929,26495
1229.01,1.321442,556888,26566
1232.5,1.318367,562180,27009
1235.98,1.321152,567975,27113
1239.46,1.318871,574815,27584
1242.94,1.315565,582782,28180
1246.41,1.311776,591476,28851
1251.03,1.319235,604016,28961
1254.5,1.322765,612289,29120
1257.96,1.324881,619125,29302
1261.41,1.321672,624551,29778
1264.86,1.328435,629900,29569
1268.31,1.323038,634345,30150
1271.75,1.324342,638574,30260
1276.33,1.319703,642499,30773
1279.76,1.322974,645905,30704
1283.19,1.321766,648307,30904
1286.61,1.329310,650446,30472
1290.03,1.320557,652132,31173
1293.44,1.324925,653907,30945
1296.85,1.327357,655963,30869
1301.39,1.330191,657349,30733
1304.8,1.323752,657558,31202
1308.19,1.326196,658515,31072
1311.58,1.325005,658804,31171
1314.97,1.325616,659011,31137
1318.36,1.327899,658272,30939
1321.73,1.323627,658022,31233
1326.23,1.329829,657870,30783
1329.6,1.329816,656482,30719
1332.97,1.326543,654926,30878
1336.33,1.326465,653727,30827
1339.69,1.329198,652497,30576
1343.04,1.322503,649913,30928
1346.39,1.331664,647671,30178
1349.73,1.323243,645338,30658
1354.18,1.323432,641175,30447
1357.52,1.320577,638376,30514
1360.85,1.322656,635805,30246
1364.17,1.327646,633413,29788
1367.49,1.321856,631026,30074
1370.81,1.324157,628050,29774
1374.12,1.326759,625034,29454
1378.54,1.326159,620272,29270
1381.84,1.325124,616892,29180
1385.14,1.321502,613613,29268
1388.43,1.326751,611526,28818
1391.72,1.319498,610663,29262
1395.01,1.322620,610634,29051
1398.29,1.318561,611700,29375
1402.66,1.328631,614051,28812
1405.93,1.326310,616268,29071
1409.2,1.325462,617795,29200
1412.46,1.330613,618872,28906
1415.72,1.322514,619795,29494
1418.98,1.326286,620495,29272
1422.23,1.334243,621087,28768
1426.56,1.336912,621375,28605
1429.8,1.335202,621616,28729
1433.04,1.324279,622129,29485
1436.27,1.330523,621526,29036
1439.5,1.331672,621113,28940
1442.72,1.334973,620921,28712
1445.94,1.329001,620270,29079
1450.23,1.330334,618860,28924
1453.44,1.331504,617697,28792
1456.64,1.334952,616264,28498
1459.85,1.331472,614413,28641
1463.04,1.333116,612307,28435
1466.24,1.327047,610032,28728
1469.43,1.332632,607345,28236
1473.67,1.335717,603789,27872
1476.85,1.327000,601175,28314
1480.02,1.329678,597737,27979
1483.19,1.329280,594479,27852
1486.36,1.323268,591232,28086
1489.52,1.330110,587853,27489
1492.68,1.336422,583875,26909
1496.89,1.336505,578062,26636
1500.03,1.334379,574159,26586
1503.18,1.345618,570285,25732
1506.32,1.332830,565444,26276
1509.45,1.333307,560571,26021
1512.58,1.329978,555821,25999
1515.71,1.329082,550344,25796
1519.87,1.330837,543983,25395
1522.99,1.338772,538764,24696
1526.1,1.341077,533692,24334
1529.21,1.332484,527902,24551
1532.32,1.329954,521886,24413
1535.42,1.335358,515888,23834
1538.51,1.321649,509987,24317
1541.6,1.326858,503936,23742
1545.72,1.328980,494694,23193
1548.8,1.321531,488378,23293
1551.88,1.331737,481832,22447
1554.95,1.333039,474989,22062
1558.02,1.334258,467818,21668
1561.08,1.332546,460730,21424
1564.15,1.324437,454170,21517
1568.22,1.333988,444181,20586
1571.27,1.330671,436947,20406
1574.32,1.333337,429598,19940
1577.36,1.330402,422039,19722
1580.4,1.320970,414375,19789
1583.43,1.330517,406354,18984
1586.46,1.336883,398475,18345
1590.49,1.334585,388982,18003
1593.51,1.328711,380708,17860
1596.53,1.321728,372727,17769
1599.54,1.332862,365060,16963
1602.55,1.324133,357543,16951
1605.55,1.326721,349495,16471
1608.55,1.325289,341154,16131
1612.54,1.319720,330877,15847
1615.53,1.321299,322904,15409
1618.51,1.301328,315116,15745
1621.49,1.324642,307217,14548
1624.47,1.312999,299481,14567
1627.44,1.321100,292112,13946
1630.41,1.318051,284245,13666
1634.36,1.313469,274079,13317
1637.32,1.318250,266916,12827
1640.27,1.311788,259612,12663
1643.22,1.308693,251804,12370
1646.16,1.311951,244348,11914
1649.1,1.306055,236703,11699
1652.04,1.300442,228171,11424
1655.95,1.295437,215408,10910
1658.88,1.290928,204937,10488
1661.8,1.289409,193395,9932
1664.72,1.254659,179728,9999
1667.63,1.236080,163642,9502
1670.54,1.209640,146312,9029
1673.44,1.192231,128451,8251
1677.31,1.153287,105080,7383
1680.21,1.127614,88906,6627
1683.1,1.154680,75033,5255
1685.99,1.116900,63520,4853
1688.87,1.140250,53714,3889
1691.75,1.128374,45653,3397
1694.62,1.085407,39137,3215
1697.49,1.075749,33776,2837
1701.31,1.138534,28175,2048