File: ML/samples/unknown/Column 1_078238_20241121_165216.csv
Method:,Column 1,,
Host Date-Time:,21/11/24 @ 16:52:16,,
Header Version:,1,,
System Temp (C):,34.18,,
Detector Temp (C):,31.53,,
Humidity (%):,2.74,,
Lamp PD:,3802,,
Shift Vector Coefficients:,-10.5391,0.0761263,-0.000134223,,
Pixel to Wavelength Coefficients:,1775.68,-0.916766,-0.000235065,,
Serial Number:,5510004,,
Scan Config Name:,Column 1,,
Scan Config Type:,Slew,,
Section 1,,
Start wavelength (nm):,900,,
End wavelength (nm):,1700,,
Pattern Pixel Width (nm):,   7.03,,,,
Exposure (ms):,  0.635,,,,
Digital Resolution:,228,,
Num Repeats:,6,,
PGA Gain:,64,,
Total Measurement Time in sec:,  2.726,,
Wavelength (nm),Absorbance (AU),Reference Signal (unitless),Sample Signal (unitless)
901.51,1.357216,108485,4766
905.376,1.315540,121306,5866
909.237,1.318596,131909,6334
913.095,1.321950,143299,6828
916.948,1.322878,156982,7464
922.079,1.307344,179937,8867
925.923,1.340987,200504,9144
929.762,1.315547,222660,10767
933.597,1.325603,244426,11549
937.427,1.325970,263972,12462
941.254,1.319355,281845,13510
945.076,1.317513,297271,14310
950.165,1.323429,315605,14987
953.978,1.309923,328029,16069
957.786,1.322323,340470,16209
961.59,1.309591,352317,17272
965.389,1.315672,363056,17551
969.185,1.321209,373162,17811
972.976,1.302932,382632,19048
976.763,1.314586,391202,18959
981.806,1.310387,400190,19583
985.583,1.318920,406088,19485
989.355,1.308680,410162,20150
993.124,1.297978,412868,20789
996.888,1.309673,414263,20305
1000.65,1.309896,415476,20354
1004.4,1.305801,415479,20547
1009.41,1.311895,414358,20206
1013.15,1.318109,412923,19850
1016.89,1.310920,411526,20113
1020.63,1.304233,409066,20303
1024.36,1.310023,406777,19922
1028.09,1.319330,404427,19387
1031.82,1.305059,401911,19910
1036.78,1.315043,398410,19288
1040.49,1.300290,396204,19844
1044.2,1.315064,394236,19085
1047.91,1.309918,392042,19205
1051.61,1.310722,389823,19061
1055.31,1.309472,388234,19038
1059,1.317681,387599,18651
1063.92,1.308973,386688,18984
1067.61,1.313448,386598,18785
1071.29,1.307373,387377,19088
1074.96,1.314212,388536,18846
1078.63,1.316168,389855,18825
1082.3,1.316713,391215,18867
1085.96,1.315694,393215,19008
1090.84,1.316412,396270,19124
1094.49,1.314390,398760,19334
1098.14,1.315306,400987,19401
1101.79,1.320509,403477,19289
1105.43,1.312007,406116,19799
1109.06,1.320641,407701,19485
1112.7,1.322756,409859,19493
1117.53,1.319631,412494,19760
1121.15,1.313204,414909,20172
1124.77,1.317151,416559,20069
1128.38,1.324012,418532,19848
1131.99,1.322065,419956,20005
1135.6,1.318596,421946,20261
1139.2,1.317805,423881,20391
1143.99,1.321859,426786,20340
1147.58,1.323420,428617,20354
1151.17,1.325273,431169,20388
1154.75,1.330622,433579,20251
1158.33,1.320518,436264,20856
1161.91,1.323073,439132,20870
1165.48,1.321460,442389,21103
1169.04,1.328975,446101,20915
1173.79,1.322692,451929,21497
1177.34,1.314126,456026,22124
1180.9,1.313664,461306,22404
1184.44,1.317089,467657,22534
1187.99,1.322161,473969,22573
1191.52,1.318365,479856,23054
1195.06,1.317884,487372,23441
1199.76,1.329360,497347,23297
1203.29,1.316842,504311,24314
1206.81,1.326276,511507,24131
1210.33,1.326262,519078,24489
1213.84,1.325066,527163,24939
1217.35,1.330762,534208,24943
1220.85,1.323094,540472,25685
1225.51,1.325116,549929,26013
1229.01,1.321001,556888,26593
1232.5,1.320608,562180,26870
1235.98,1.325595,567975,26837
1239.46,1.321603,574815,27411
1242.94,1.326300,582782,27492
1246.41,1.324764,591476,28001
1251.03,1.323606,604016,28671
1254.5,1.321856,612289,29181
1257.96,1.329335,619125,29003
1261.41,1.327841,624551,29358
1264.86,1.333681,629900,29214
1268.31,1.327585,634345,29836
1271.75,1.332016,638574,29730
1276.33,1.328355,642499,30166
1279.76,1.329228,645905,30265
1283.19,1.328593,648307,30422
1286.61,1.332615,650446,30241
1290.03,1.327268,652132,30695
1293.44,1.333372,653907,30349
1296.85,1.327751,655963,30841
1301.39,1.331082,657349,30670
1304.8,1.335947,657558,30338
1308.19,1.332873,658515,30598
1311.58,1.333219,658804,30587
1314.97,1.336119,659011,30393
1318.36,1.326316,658272,31052
1321.73,1.330480,658022,30744
1326.23,1.333911,657870,30495
1329.6,1.334278,656482,30405
1332.97,1.334506,654926,30317
1336.33,1.332023,653727,30435
1339.69,1.331934,652497,30384
1343.04,1.334419,649913,30091
1346.39,1.328509,647671,30398
1349.73,1.332724,645338,29996
1354.18,1.326380,641175,30241
1357.52,1.329347,638376,29904
1360.85,1.325032,635805,30081
1364.17,1.328361,633413,29739
1367.49,1.326210,631026,29774
1370.81,1.336301,628050,28953
1374.12,1.347677,625034,28069
1378.54,1.325463,620272,29317
1381.84,1.328921,616892,28926
1385.14,1.321650,613613,29258
1388.43,1.327626,611526,28760
1391.72,1.327723,610663,28713
1395.01,1.326826,610634,28771
1398.29,1.324051,611700,29006
1402.66,1.332233,614051,28574
1405.93,1.331253,616268,28742
1409.2,1.328372,617795,29005
1412.46,1.338099,618872,28412
1415.72,1.330930,619795,28928
1418.98,1.334856,620495,28700
1422.23,1.330216,621087,29036
1426.56,1.338890,621375,28475
1429.8,1.335051,621616,28739
1433.04,1.335016,622129,28765
1436.27,1.338843,621526,28485
1439.5,1.331732,621113,28936
1442.72,1.333478,620921,28811
1445.94,1.334896,620270,28687
1450.23,1.333741,618860,28698
1453.44,1.333984,617697,28628
1456.64,1.332536,616264,28657
1459.85,1.334959,614413,28412
1463.04,1.334830,612307,28323
1466.24,1.334457,610032,28242
1469.43,1.335255,607345,28066
1473.67,1.341363,603789,27512
1476.85,1.333646,601175,27884
1480.02,1.331280,597737,27876
1483.19,1.333196,594479,27602
1486.36,1.338709,591232,27105
1489.52,1.338613,587853,26956
1492.68,1.340443,583875,26661
1496.89,1.339319,578062,26464
1500.03,1.338977,574159,26306
1503.18,1.340001,570285,26067
1506.32,1.335234,565444,26131
1509.45,1.344653,560571,25350
1512.58,1.333787,555821,25772
1515.71,1.340857,550344,25106
1519.87,1.360892,543983,23697
1522.99,1.336649,538764,24817
1526.1,1.343529,533692,24197
1529.21,1.342722,527902,23979
1532.32,1.340452,521886,23830
1535.42,1.333576,515888,23932
1538.51,1.341454,509987,23233
1541.6,1.346713,503936,22681
1545.72,1.336955,494694,22771
1548.8,1.328674,488378,22913
1551.88,1.344479,481832,21798
1554.95,1.335209,474989,21952
1558.02,1.338407,467818,21462
1561.08,1.336149,460730,21247
1564.15,1.335268,454170,20987
1568.22,1.334621,444181,20556
1571.27,1.345720,436947,19711
1574.32,1.332423,429598,19982
1577.36,1.344820,422039,19078
1580.4,1.334296,414375,19191
1583.43,1.328417,406354,19076
1586.46,1.333065,398475,18507
1590.49,1.332539,388982,18088
1593.51,1.334192,380708,17636
1596.53,1.334023,372727,17273
1599.54,1.336332,365060,16828
1602.55,1.328692,357543,16774
1605.55,1.334221,349495,16189
1608.55,1.330435,341154,15941
1612.54,1.320845,330877,15806
1615.53,1.322824,322904,15355
1618.51,1.324935,315116,14912
1621.49,1.314026,307217,14908
1624.47,1.335390,299481,13835
1627.44,1.320260,292112,13973
1630.41,1.325326,284245,13439
1634.36,1.323098,274079,13025
1637.32,1.306525,266916,13178
1640.27,1.321534,259612,12382
1643.22,1.340327,251804,11501
1646.16,1.330952,244348,11404
1649.1,1.308811,236703,11625
1652.04,1.309469,228171,11189
1655.95,1.313108,215408,10475
1658.88,1.311534,204937,10002
1661.8,1.280065,193395,10148
1664.72,1.289038,179728,9238
1667.63,1.273378,163642,8720
1670.54,1.284067,146312,7607
1673.44,1.268820,128451,6917
1677.31,1.220666,105080,6322
1680.21,1.259800,88906,4888
1683.1,1.236364,75033,4354
1685.99,1.221872,63520,3811
1688.87,1.238306,53714,3103
1691.75,1.233121,45653,2669
1694.62,1.187754,39137,2540
1697.49,1.188362,33776,2189
1701.31,1.316006,28175,1361