File: ML/samples/unknown/Column 1_078603_20241121_171049.csv
Method:,Column 1,,
Host Date-Time:,21/11/24 @ 17:10:49,,
Header Version:,1,,
System Temp (C):,36.98,,
Detector Temp (C):,34.96,,
Humidity (%):,1.03,,
Lamp PD:,3798,,
Shift Vector Coefficients:,-10.5391,0.0761263,-0.000134223,,
Pixel to Wavelength Coefficients:,1775.68,-0.916766,-0.000235065,,
Serial Number:,5510004,,
Scan Config Name:,Column 1,,
Scan Config Type:,Slew,,
Section 1,,
Start wavelength (nm):,900,,
End wavelength (nm):,1700,,
Pattern Pixel Width (nm):,   7.03,,,,
Exposure (ms):,  0.635,,,,
Digital Resolution:,228,,
Num Repeats:,6,,
PGA Gain:,64,,
Total Measurement Time in sec:,  2.726,,
Wavelength (nm),Absorbance (AU),Reference Signal (unitless),Sample Signal (unitless)
901.51,1.323225,108485,5154
905.376,1.304574,121306,6016
909.237,1.318802,131909,6331
913.095,1.314696,143299,6943
916.948,1.319748,156982,7518
922.079,1.335519,179937,8310
925.923,1.320259,200504,9591
929.762,1.329108,222660,10436
933.597,1.327979,244426,11486
937.427,1.330137,263972,12343
941.254,1.312910,281845,13712
945.076,1.324303,297271,14088
950.165,1.309120,315605,15489
953.978,1.314433,328029,15903
957.786,1.315807,340470,16454
961.59,1.310447,352317,17238
965.389,1.300547,363056,18173
969.185,1.305242,373162,18478
972.976,1.304371,382632,18985
976.763,1.308602,391202,19222
981.806,1.307646,400190,19707
985.583,1.298033,406088,20445
989.355,1.302900,410162,20420
993.124,1.305182,412868,20447
996.888,1.299881,414263,20768
1000.65,1.304869,415476,20591
1004.4,1.300757,415479,20787
1009.41,1.310886,414358,20253
1013.15,1.306005,412923,20411
1016.89,1.302072,411526,20527
1020.63,1.294064,409066,20784
1024.36,1.305513,406777,20130
1028.09,1.299879,404427,20275
1031.82,1.305845,401911,19874
1036.78,1.303621,398410,19802
1040.49,1.310453,396204,19385
1044.2,1.308022,394236,19397
1047.91,1.306405,392042,19361
1051.61,1.318678,389823,18715
1055.31,1.300487,388234,19436
1059,1.306123,387599,19154
1063.92,1.313850,386688,18772
1067.61,1.317280,386598,18620
1071.29,1.307487,387377,19083
1074.96,1.309354,388536,19058
1078.63,1.307218,389855,19217
1082.3,1.304010,391215,19427
1085.96,1.311963,393215,19172
1090.84,1.311400,396270,19346
1094.49,1.310543,398760,19506
1098.14,1.306136,400987,19815
1101.79,1.307752,403477,19864
1105.43,1.309601,406116,19909
1109.06,1.313808,407701,19794
1112.7,1.314262,409859,19878
1117.53,1.318095,412494,19830
1121.15,1.313505,414909,20158
1124.77,1.318017,416559,20029
1128.38,1.320373,418532,20015
1131.99,1.320397,419956,20082
1135.6,1.313355,421946,20507
1139.2,1.314200,423881,20561
1143.99,1.316174,426786,20608
1147.58,1.317339,428617,20641
1151.17,1.317357,431169,20763
1154.75,1.320385,433579,20734
1158.33,1.317758,436264,20989
1161.91,1.311715,439132,21423
1165.48,1.322243,442389,21065
1169.04,1.314417,446101,21628
1173.79,1.307682,451929,22253
1177.34,1.321031,456026,21775
1180.9,1.312405,461306,22469
1184.44,1.316146,467657,22583
1187.99,1.315914,473969,22900
1191.52,1.322548,479856,22833
1195.06,1.314709,487372,23613
1199.76,1.320978,497347,23751
1203.29,1.313426,504311,24506
1206.81,1.324194,511507,24247
1210.33,1.320186,519078,24834
1213.84,1.320062,527163,25228
1217.35,1.319980,534208,25570
1220.85,1.316749,540472,26063
1225.51,1.318588,549929,26407
1229.01,1.318606,556888,26740
1232.5,1.322357,562180,26762
1235.98,1.313216,567975,27613
1239.46,1.318981,574815,27577
1242.94,1.318922,582782,27963
1246.41,1.320873,591476,28253
1251.03,1.323076,604016,28706
1254.5,1.318905,612289,29380
1257.96,1.321324,619125,29543
1261.41,1.323324,624551,29665
1264.86,1.319725,629900,30168
1268.31,1.321198,634345,30278
1271.75,1.320271,638574,30545
1276.33,1.328398,642499,30163
1279.76,1.329228,645905,30265
1283.19,1.324006,648307,30745
1286.61,1.325239,650446,30759
1290.03,1.324082,652132,30921
1293.44,1.325853,653907,30879
1296.85,1.319259,655963,31450
1301.39,1.334708,657349,30415
1304.8,1.326586,657558,30999
1308.19,1.328298,658515,30922
1311.58,1.320970,658804,31462
1314.97,1.326258,659011,31091
1318.36,1.329516,658272,30824
1321.73,1.327580,658022,30950
1326.23,1.325897,657870,31063
1329.6,1.328686,656482,30799
1332.97,1.327684,654926,30797
1336.33,1.328442,653727,30687
1339.69,1.328460,652497,30628
1343.04,1.323628,649913,30848
1346.39,1.328052,647671,30430
1349.73,1.328617,645338,30281
1354.18,1.325563,641175,30298
1357.52,1.325876,638376,30144
1360.85,1.327116,635805,29937
1364.17,1.329516,633413,29660
1367.49,1.331360,631026,29423
1370.81,1.328688,628050,29465
1374.12,1.324905,625034,29580
1378.54,1.317725,620272,29844
1381.84,1.318097,616892,29656
1385.14,1.328668,613613,28789
1388.43,1.319162,611526,29326
1391.72,1.324513,610663,28926
1395.01,1.321798,610634,29106
1398.29,1.320888,611700,29218
1402.66,1.324565,614051,29083
1405.93,1.330996,616268,28759
1409.2,1.328162,617795,29019
1412.46,1.328709,618872,29033
1415.72,1.322662,619795,29484
1418.98,1.325930,620495,29296
1422.23,1.326151,621087,29309
1426.56,1.331555,621375,28960
1429.8,1.336853,621616,28620
1433.04,1.332607,622129,28925
1436.27,1.328314,621526,29184
1439.5,1.328666,621113,29141
1442.72,1.332394,620921,28883
1445.94,1.330707,620270,28965
1450.23,1.325660,618860,29237
1453.44,1.335702,617697,28515
1456.64,1.337858,616264,28308
1459.85,1.337965,614413,28216
1463.04,1.335582,612307,28274
1466.24,1.331805,610032,28415
1469.43,1.331112,607345,28335
1473.67,1.332968,603789,28049
1476.85,1.337212,601175,27656
1480.02,1.332966,597737,27768
1483.19,1.333716,594479,27569
1486.36,1.333073,591232,27459
1489.52,1.336973,587853,27058
1492.68,1.334121,583875,27052
1496.89,1.333597,578062,26815
1500.03,1.333042,574159,26668
1503.18,1.334307,570285,26411
1506.32,1.340686,565444,25805
1509.45,1.333841,560571,25989
1512.58,1.342433,555821,25264
1515.71,1.331191,550344,25671
1519.87,1.335341,543983,25133
1522.99,1.329567,538764,25225
1526.1,1.331999,533692,24848
1529.21,1.338433,527902,24217
1532.32,1.329368,521886,24446
1535.42,1.322769,515888,24535
1538.51,1.330836,509987,23808
1541.6,1.336457,503936,23223
1545.72,1.336726,494694,22783
1548.8,1.337578,488378,22448
1551.88,1.318945,481832,23118
1554.95,1.330115,474989,22211
1558.02,1.334739,467818,21644
1561.08,1.343487,460730,20891
1564.15,1.336325,454170,20936
1568.22,1.330019,444181,20775
1571.27,1.331822,436947,20352
1574.32,1.326744,429598,20245
1577.36,1.330468,422039,19719
1580.4,1.331117,414375,19332
1583.43,1.334816,406354,18797
1586.46,1.331589,398475,18570
1590.49,1.328001,388982,18278
1593.51,1.328540,380708,17867
1596.53,1.325139,372727,17630
1599.54,1.322764,365060,17362
1602.55,1.323902,357543,16960
1605.55,1.321323,349495,16677
1608.55,1.337660,341154,15678
1612.54,1.323518,330877,15709
1615.53,1.325178,322904,15272
1618.51,1.324673,315116,14921
1621.49,1.319213,307217,14731
1624.47,1.321976,299481,14269
1627.44,1.318120,292112,14042
1630.41,1.316022,284245,13730
1634.36,1.321235,274079,13081
1637.32,1.324765,266916,12636
1640.27,1.308406,259612,12762
1643.22,1.312430,251804,12264
1646.16,1.304041,244348,12133
1649.1,1.308736,236703,11627
1652.04,1.303226,228171,11351
1655.95,1.293610,215408,10956
1658.88,1.308850,204937,10064
1661.8,1.280193,193395,10145
1664.72,1.262460,179728,9821
1667.63,1.254281,163642,9112
1670.54,1.239916,146312,8421
1673.44,1.252250,128451,7186
1677.31,1.192860,105080,6740
1680.21,1.180885,88906,5862
1683.1,1.140133,75033,5434
1685.99,1.120495,63520,4813
1688.87,1.154207,53714,3766
1691.75,1.147720,45653,3249
1694.62,1.203954,39137,2447
1697.49,1.173924,33776,2263
1701.31,1.221977,28175,1690