File: ML/samples/unknown/Column 1_078601_20241121_171043.csv
Method:,Column 1,,
Host Date-Time:,21/11/24 @ 17:10:43,,
Header Version:,1,,
System Temp (C):,36.97,,
Detector Temp (C):,34.91,,
Humidity (%):,0.98,,
Lamp PD:,3798,,
Shift Vector Coefficients:,-10.5391,0.0761263,-0.000134223,,
Pixel to Wavelength Coefficients:,1775.68,-0.916766,-0.000235065,,
Serial Number:,5510004,,
Scan Config Name:,Column 1,,
Scan Config Type:,Slew,,
Section 1,,
Start wavelength (nm):,900,,
End wavelength (nm):,1700,,
Pattern Pixel Width (nm):,   7.03,,,,
Exposure (ms):,  0.635,,,,
Digital Resolution:,228,,
Num Repeats:,6,,
PGA Gain:,64,,
Total Measurement Time in sec:,  2.727,,
Wavelength (nm),Absorbance (AU),Reference Signal (unitless),Sample Signal (unitless)
901.51,1.304749,108485,5378
905.376,1.318959,121306,5820
909.237,1.322176,131909,6282
913.095,1.291376,143299,7326
916.948,1.310206,156982,7685
922.079,1.321077,179937,8591
925.923,1.327519,200504,9432
929.762,1.317893,222660,10709
933.597,1.319516,244426,11712
937.427,1.326319,263972,12452
941.254,1.316663,281845,13594
945.076,1.317240,297271,14319
950.165,1.312724,315605,15361
953.978,1.323986,328029,15557
957.786,1.302346,340470,16972
961.59,1.302954,352317,17538
965.389,1.307606,363056,17880
969.185,1.303413,373162,18556
972.976,1.304943,382632,18960
976.763,1.305249,391202,19371
981.806,1.307580,400190,19710
985.583,1.302345,406088,20243
989.355,1.306166,410162,20267
993.124,1.299631,412868,20710
996.888,1.301474,414263,20692
1000.65,1.301381,415476,20757
1004.4,1.308430,415479,20423
1009.41,1.315413,414358,20043
1013.15,1.305452,412923,20437
1016.89,1.301184,411526,20569
1020.63,1.299976,409066,20503
1024.36,1.306571,406777,20081
1028.09,1.297636,404427,20380
1031.82,1.301951,401911,20053
1036.78,1.301783,398410,19886
1040.49,1.303188,396204,19712
1044.2,1.301400,394236,19695
1047.91,1.309150,392042,19239
1051.61,1.305288,389823,19301
1055.31,1.314543,388234,18817
1059,1.306577,387599,19134
1063.92,1.308036,386688,19025
1067.61,1.303190,386598,19234
1071.29,1.303230,387377,19271
1074.96,1.311662,388536,18957
1078.63,1.306269,389855,19259
1082.3,1.313479,391215,19008
1085.96,1.308219,393215,19338
1090.84,1.306267,396270,19576
1094.49,1.318860,398760,19136
1098.14,1.309922,400987,19643
1101.79,1.311154,403477,19709
1105.43,1.317459,406116,19552
1109.06,1.309290,407701,20001
1112.7,1.308920,409859,20124
1117.53,1.308542,412494,20271
1121.15,1.305247,414909,20545
1124.77,1.317844,416559,20037
1128.38,1.307461,418532,20619
1131.99,1.323435,419956,19942
1135.6,1.316821,421946,20344
1139.2,1.329090,423881,19868
1143.99,1.319177,426786,20466
1147.58,1.317844,428617,20617
1151.17,1.305392,431169,21343
1154.75,1.318025,433579,20847
1158.33,1.302290,436264,21750
1161.91,1.310500,439132,21483
1165.48,1.307866,442389,21774
1169.04,1.311834,446101,21757
1173.79,1.317391,451929,21761
1177.34,1.307271,456026,22476
1180.9,1.314848,461306,22343
1184.44,1.318750,467657,22448
1187.99,1.322026,473969,22580
1191.52,1.314221,479856,23275
1195.06,1.318867,487372,23388
1199.76,1.319280,497347,23844
1203.29,1.306656,504311,24891
1206.81,1.323478,511507,24287
1210.33,1.320676,519078,24806
1213.84,1.319288,527163,25273
1217.35,1.323167,534208,25383
1220.85,1.317683,540472,26007
1225.51,1.320466,549929,26293
1229.01,1.316500,556888,26870
1232.5,1.318399,562180,27007
1235.98,1.326049,567975,26809
1239.46,1.319801,574815,27525
1242.94,1.315380,582782,28192
1246.41,1.318405,591476,28414
1251.03,1.317484,604016,29078
1254.5,1.321559,612289,29201
1257.96,1.317358,619125,29814
1261.41,1.324952,624551,29554
1264.86,1.320821,629900,30092
1268.31,1.323240,634345,30136
1271.75,1.323482,638574,30320
1276.33,1.323644,642499,30495
1279.76,1.325229,645905,30545
1283.19,1.327239,648307,30517
1286.61,1.325564,650446,30736
1290.03,1.325137,652132,30846
1293.44,1.325445,653907,30908
1296.85,1.325182,655963,31024
1301.39,1.321503,657349,31354
1304.8,1.324239,657558,31167
1308.19,1.323299,658515,31280
1311.58,1.327619,658804,30984
1314.97,1.325546,659011,31142
1318.36,1.324139,658272,31208
1321.73,1.333528,658022,30529
1326.23,1.324041,657870,31196
1329.6,1.325847,656482,31001
1332.97,1.328912,654926,30710
1336.33,1.324890,653727,30939
1339.69,1.325830,652497,30814
1343.04,1.324883,649913,30759
1346.39,1.322071,647671,30852
1349.73,1.323498,645338,30640
1354.18,1.323461,641175,30445
1357.52,1.327912,638376,30003
1360.85,1.319252,635805,30484
1364.17,1.321364,633413,30222
1367.49,1.319983,631026,30204
1370.81,1.320815,628050,30004
1374.12,1.321673,625034,29801
1378.54,1.318089,620272,29819
1381.84,1.326286,616892,29102
1385.14,1.319872,613613,29378
1388.43,1.324961,611526,28937
1391.72,1.323868,610663,28969
1395.01,1.328823,610634,28639
1398.29,1.324155,611700,28999
1402.66,1.323357,614051,29164
1405.93,1.326384,616268,29066
1409.2,1.327878,617795,29038
1412.46,1.325772,618872,29230
1415.72,1.324255,619795,29376
1418.98,1.327861,620495,29166
1422.23,1.326952,621087,29255
1426.56,1.326486,621375,29300
1429.8,1.326136,621616,29335
1433.04,1.330989,622129,29033
1436.27,1.328374,621526,29180
1439.5,1.331792,621113,28932
1442.72,1.328174,620921,29165
1445.94,1.332420,620270,28851
1450.23,1.328656,618860,29036
1453.44,1.326286,617697,29140
1456.64,1.331371,616264,28734
1459.85,1.321874,614413,29281
1463.04,1.334815,612307,28324
1466.24,1.332157,610032,28392
1469.43,1.333186,607345,28200
1473.67,1.334690,603789,27938
1476.85,1.326984,601175,28315
1480.02,1.330020,597737,27957
1483.19,1.327522,594479,27965
1486.36,1.328120,591232,27774
1489.52,1.338243,587853,26979
1492.68,1.335584,583875,26961
1496.89,1.336603,578062,26630
1500.03,1.331708,574159,26750
1503.18,1.329483,570285,26706
1506.32,1.332483,565444,26297
1509.45,1.333874,560571,25987
1512.58,1.336339,555821,25621
1515.71,1.330634,550344,25704
1519.87,1.331453,543983,25359
1522.99,1.339159,538764,24674
1526.1,1.331545,533692,24874
1529.21,1.338971,527902,24187
1532.32,1.327082,521886,24575
1535.42,1.335085,515888,23849
1538.51,1.335642,509987,23546
1541.6,1.322508,503936,23981
1545.72,1.339767,494694,22624
1548.8,1.333420,488378,22664
1551.88,1.330019,481832,22536
1554.95,1.335566,474989,21934
1558.02,1.322747,467818,22250
1561.08,1.326667,460730,21716
1564.15,1.330555,454170,21216
1568.22,1.340535,444181,20278
1571.27,1.318540,436947,20984
1574.32,1.325780,429598,20290
1577.36,1.320690,422039,20168
1580.4,1.324872,414375,19612
1583.43,1.326963,406354,19140
1586.46,1.329024,398475,18680
1590.49,1.327621,388982,18294
1593.51,1.323826,380708,18062
1596.53,1.321679,372727,17771
1599.54,1.318681,365060,17526
1602.55,1.323570,357543,16973
1605.55,1.321037,349495,16688
1608.55,1.323811,341154,16186
1612.54,1.326626,330877,15597
1615.53,1.323900,322904,15317
1618.51,1.314887,315116,15261
1621.49,1.322676,307217,14614
1624.47,1.310561,299481,14649
1627.44,1.306976,292112,14407
1630.41,1.325067,284245,13447
1634.36,1.303826,274079,13616
1637.32,1.306163,266916,13189
1640.27,1.322658,259612,12350
1643.22,1.301106,251804,12588
1646.16,1.323177,244348,11610
1649.1,1.320511,236703,11316
1652.04,1.299796,228171,11441
1655.95,1.289153,215408,11069
1658.88,1.274672,204937,10888
1661.8,1.280836,193395,10130
1664.72,1.264455,179728,9776
1667.63,1.246675,163642,9273
1670.54,1.228264,146312,8650
1673.44,1.203644,128451,8037
1677.31,1.186654,105080,6837
1680.21,1.168542,88906,6031
1683.1,1.138856,75033,5450
1685.99,1.152312,63520,4473
1688.87,1.126078,53714,4018
1691.75,1.151209,45653,3223
1694.62,1.117789,39137,2984
1697.49,1.137320,33776,2462
1701.31,1.159607,28175,1951