File: ML/samples/unknown/Column 1_078248_20241121_165245.csv
Method:,Column 1,,
Host Date-Time:,21/11/24 @ 16:52:45,,
Header Version:,1,,
System Temp (C):,34.25,,
Detector Temp (C):,31.71,,
Humidity (%):,2.4,,
Lamp PD:,3803,,
Shift Vector Coefficients:,-10.5391,0.0761263,-0.000134223,,
Pixel to Wavelength Coefficients:,1775.68,-0.916766,-0.000235065,,
Serial Number:,5510004,,
Scan Config Name:,Column 1,,
Scan Config Type:,Slew,,
Section 1,,
Start wavelength (nm):,900,,
End wavelength (nm):,1700,,
Pattern Pixel Width (nm):,   7.03,,,,
Exposure (ms):,  0.635,,,,
Digital Resolution:,228,,
Num Repeats:,6,,
PGA Gain:,64,,
Total Measurement Time in sec:,  2.730,,
Wavelength (nm),Absorbance (AU),Reference Signal (unitless),Sample Signal (unitless)
901.51,1.326100,108485,5120
905.376,1.301266,121306,6062
909.237,1.304498,131909,6543
913.095,1.302727,143299,7137
916.948,1.322995,156982,7462
922.079,1.313410,179937,8744
925.923,1.317056,200504,9662
929.762,1.316557,222660,10742
933.597,1.326167,244426,11534
937.427,1.318610,263972,12675
941.254,1.312055,281845,13739
945.076,1.315182,297271,14387
950.165,1.313149,315605,15346
953.978,1.320345,328029,15688
957.786,1.309518,340470,16694
961.59,1.312796,352317,17145
965.389,1.320274,363056,17366
969.185,1.309043,373162,18317
972.976,1.304874,382632,18963
976.763,1.315870,391202,18903
981.806,1.310409,400190,19582
985.583,1.308808,406088,19944
989.355,1.306702,410162,20242
993.124,1.304969,412868,20457
996.888,1.314296,414263,20090
1000.65,1.305122,415476,20579
1004.4,1.311695,415479,20270
1009.41,1.312153,414358,20194
1013.15,1.311357,412923,20161
1016.89,1.306752,411526,20307
1020.63,1.305755,409066,20232
1024.36,1.311159,406777,19870
1028.09,1.312528,404427,19693
1031.82,1.308497,401911,19753
1036.78,1.310853,398410,19475
1040.49,1.311912,396204,19320
1044.2,1.319386,394236,18896
1047.91,1.300058,392042,19646
1051.61,1.315694,389823,18844
1055.31,1.314197,388234,18832
1059,1.312611,387599,18870
1063.92,1.317404,386688,18619
1067.61,1.312917,386598,18808
1071.29,1.312776,387377,18852
1074.96,1.312281,388536,18930
1078.63,1.318783,389855,18712
1082.3,1.309250,391215,19194
1085.96,1.311012,393215,19214
1090.84,1.316344,396270,19127
1094.49,1.317659,398760,19189
1098.14,1.313675,400987,19474
1101.79,1.316676,403477,19460
1105.43,1.319351,406116,19467
1109.06,1.319217,407701,19549
1112.7,1.309093,409859,20116
1117.53,1.323694,412494,19576
1121.15,1.316012,414909,20042
1124.77,1.314777,416559,20179
1128.38,1.313463,418532,20336
1131.99,1.319058,419956,20144
1135.6,1.318317,421946,20274
1139.2,1.312387,423881,20647
1143.99,1.320240,426786,20416
1147.58,1.319765,428617,20526
1151.17,1.317839,431169,20740
1154.75,1.318608,433579,20819
1158.33,1.314583,436264,21143
1161.91,1.320459,439132,20996
1165.48,1.319612,442389,21193
1169.04,1.322115,446101,21248
1173.79,1.322490,451929,21507
1177.34,1.315739,456026,22042
1180.9,1.326310,461306,21761
1184.44,1.323047,467657,22227
1187.99,1.319896,473969,22691
1191.52,1.319062,479856,23017
1195.06,1.317015,487372,23488
1199.76,1.326628,497347,23444
1203.29,1.322415,504311,24004
1206.81,1.327231,511507,24078
1210.33,1.326297,519078,24487
1213.84,1.325746,527163,24900
1217.35,1.318860,534208,25636
1220.85,1.327102,540472,25449
1225.51,1.326856,549929,25909
1229.01,1.320903,556888,26599
1232.5,1.326236,562180,26524
1235.98,1.322483,567975,27030
1239.46,1.315655,574815,27789
1242.94,1.322885,582782,27709
1246.41,1.327611,591476,27818
1251.03,1.324045,604016,28642
1254.5,1.326014,612289,28903
1257.96,1.320765,619125,29581
1261.41,1.322928,624551,29692
1264.86,1.325012,629900,29803
1268.31,1.330755,634345,29619
1271.75,1.326169,638574,30133
1276.33,1.331418,642499,29954
1279.76,1.330982,645905,30143
1283.19,1.325194,648307,30661
1286.61,1.330981,650446,30355
1290.03,1.331262,652132,30414
1293.44,1.333916,653907,30311
1296.85,1.333107,655963,30463
1301.39,1.332288,657349,30585
1304.8,1.334732,657558,30423
1308.19,1.333882,658515,30527
1311.58,1.323698,658804,31265
1314.97,1.335634,659011,30427
1318.36,1.331182,658272,30706
1321.73,1.329803,658022,30792
1326.23,1.335838,657870,30360
1329.6,1.332340,656482,30541
1332.97,1.333962,654926,30355
1336.33,1.330471,653727,30544
1339.69,1.327242,652497,30714
1343.04,1.329825,649913,30411
1346.39,1.329167,647671,30352
1349.73,1.327586,645338,30353
1354.18,1.331218,641175,29906
1357.52,1.328390,638376,29970
1360.85,1.326985,635805,29946
1364.17,1.328682,633413,29717
1367.49,1.321481,631026,30100
1370.81,1.333863,628050,29116
1374.12,1.331787,625034,29115
1378.54,1.329705,620272,29032
1381.84,1.325213,616892,29174
1385.14,1.325811,613613,28979
1388.43,1.325051,611526,28931
1391.72,1.329891,610663,28570
1395.01,1.323383,610634,29000
1398.29,1.328641,611700,28701
1402.66,1.330943,614051,28659
1405.93,1.332403,616268,28666
1409.2,1.335406,617795,28539
1412.46,1.335949,618872,28553
1415.72,1.335290,619795,28639
1418.98,1.331660,620495,28912
1422.23,1.327799,621087,29198
1426.56,1.332125,621375,28922
1429.8,1.333030,621616,28873
1433.04,1.333840,622129,28843
1436.27,1.331436,621526,28975
1439.5,1.334352,621113,28762
1442.72,1.329860,620921,29052
1445.94,1.333762,620270,28762
1450.23,1.329254,618860,28996
1453.44,1.333136,617697,28684
1456.64,1.333948,616264,28564
1459.85,1.340620,614413,28044
1463.04,1.334738,612307,28329
1466.24,1.337528,610032,28043
1469.43,1.338189,607345,27877
1473.67,1.336232,603789,27839
1476.85,1.332448,601175,27961
1480.02,1.337667,597737,27469
1483.19,1.340671,594479,27131
1486.36,1.337780,591232,27163
1489.52,1.341312,587853,26789
1492.68,1.350029,583875,26079
1496.89,1.337158,578062,26596
1500.03,1.334102,574159,26603
1503.18,1.339252,570285,26112
1506.32,1.341107,565444,25780
1509.45,1.341529,560571,25533
1512.58,1.338105,555821,25517
1515.71,1.338906,550344,25219
1519.87,1.340976,543983,24809
1522.99,1.339018,538764,24682
1526.1,1.337593,533692,24530
1529.21,1.338379,527902,24220
1532.32,1.334928,521886,24135
1535.42,1.339331,515888,23617
1538.51,1.335716,509987,23542
1541.6,1.336046,503936,23245
1545.72,1.334065,494694,22923
1548.8,1.332845,488378,22694
1551.88,1.338897,481832,22080
1554.95,1.336934,474989,21865
1558.02,1.341942,467818,21288
1561.08,1.338876,460730,21114
1564.15,1.339218,454170,20797
1568.22,1.326189,444181,20959
1571.27,1.329141,436947,20478
1574.32,1.333577,429598,19929
1577.36,1.331063,422039,19692
1580.4,1.330645,414375,19353
1583.43,1.325174,406354,19219
1586.46,1.333135,398475,18504
1590.49,1.333140,388982,18063
1593.51,1.335672,380708,17576
1596.53,1.329670,372727,17447
1599.54,1.318880,365060,17518
1602.55,1.314881,357543,17316
1605.55,1.326326,349495,16486
1608.55,1.330844,341154,15926
1612.54,1.322496,330877,15746
1615.53,1.324070,322904,15311
1618.51,1.325401,315116,14896
1621.49,1.328269,307217,14427
1624.47,1.326842,299481,14110
1627.44,1.321287,292112,13940
1630.41,1.332560,284245,13217
1634.36,1.323298,274079,13019
1637.32,1.312531,266916,12997
1640.27,1.295762,259612,13139
1643.22,1.322533,251804,11982
1646.16,1.328445,244348,11470
1649.1,1.316652,236703,11417
1652.04,1.300404,228171,11425
1655.95,1.295557,215408,10907
1658.88,1.291549,204937,10473
1661.8,1.275637,193395,10252
1664.72,1.302550,179728,8955
1667.63,1.269116,163642,8806
1670.54,1.273408,146312,7796
1673.44,1.231424,128451,7539
1677.31,1.221973,105080,6303
1680.21,1.158928,88906,6166
1683.1,1.182758,75033,4926
1685.99,1.192037,63520,4082
1688.87,1.220347,53714,3234
1691.75,1.220611,45653,2747
1694.62,1.218022,39137,2369
1697.49,1.187570,33776,2193
1701.31,1.243038,28175,1610