File: ML/samples/unknown/Column 1_078075_20241121_164414.csv
Method:,Column 1,,
Host Date-Time:,21/11/24 @ 16:44:14,,
Header Version:,1,,
System Temp (C):,31.62,,
Detector Temp (C):,26.5,,
Humidity (%):,5.17,,
Lamp PD:,3808,,
Shift Vector Coefficients:,-10.5391,0.0761263,-0.000134223,,
Pixel to Wavelength Coefficients:,1775.68,-0.916766,-0.000235065,,
Serial Number:,5510004,,
Scan Config Name:,Column 1,,
Scan Config Type:,Slew,,
Section 1,,
Start wavelength (nm):,900,,
End wavelength (nm):,1700,,
Pattern Pixel Width (nm):,   7.03,,,,
Exposure (ms):,  0.635,,,,
Digital Resolution:,228,,
Num Repeats:,6,,
PGA Gain:,64,,
Total Measurement Time in sec:,  2.707,,
Wavelength (nm),Absorbance (AU),Reference Signal (unitless),Sample Signal (unitless)
901.51,1.298894,108485,5451
905.376,1.299122,121306,6092
909.237,1.315931,131909,6373
913.095,1.318844,143299,6877
916.948,1.292001,156982,8014
922.079,1.320218,179937,8608
925.923,1.306312,200504,9904
929.762,1.308307,222660,10948
933.597,1.317371,244426,11770
937.427,1.304618,263972,13090
941.254,1.302179,281845,14055
945.076,1.300783,297271,14872
950.165,1.329793,315605,14769
953.978,1.311928,328029,15995
957.786,1.305943,340470,16832
961.59,1.309616,352317,17271
965.389,1.310604,363056,17757
969.185,1.307836,373162,18368
972.976,1.310568,382632,18716
976.763,1.307046,391202,19291
981.806,1.309213,400190,19636
985.583,1.320349,406088,19421
989.355,1.303091,410162,20411
993.124,1.311795,412868,20138
996.888,1.303852,414263,20579
1000.65,1.299648,415476,20840
1004.4,1.312017,415479,20255
1009.41,1.306661,414358,20451
1013.15,1.312392,412923,20113
1016.89,1.310640,411526,20126
1020.63,1.302696,409066,20375
1024.36,1.300920,406777,20344
1028.09,1.305398,404427,20019
1031.82,1.312650,401911,19565
1036.78,1.302613,398410,19848
1040.49,1.308620,396204,19467
1044.2,1.304610,394236,19550
1047.91,1.316572,392042,18913
1051.61,1.310927,389823,19052
1055.31,1.306449,388234,19171
1059,1.313578,387599,18828
1063.92,1.310302,386688,18926
1067.61,1.301702,386598,19300
1071.29,1.310891,387377,18934
1074.96,1.310792,388536,18995
1078.63,1.314143,389855,18913
1082.3,1.314669,391215,18956
1085.96,1.314598,393215,19056
1090.84,1.319512,396270,18988
1094.49,1.312552,398760,19416
1098.14,1.313653,400987,19475
1101.79,1.318420,403477,19382
1105.43,1.309361,406116,19920
1109.06,1.315743,407701,19706
1112.7,1.316101,409859,19794
1117.53,1.314822,412494,19980
1121.15,1.308706,414909,20382
1124.77,1.321850,416559,19853
1128.38,1.311928,418532,20408
1131.99,1.325509,419956,19847
1135.6,1.314670,421946,20445
1139.2,1.316721,423881,20442
1143.99,1.320261,426786,20415
1147.58,1.321971,428617,20422
1151.17,1.315104,431169,20871
1154.75,1.311840,433579,21146
1158.33,1.311390,436264,21299
1161.91,1.319137,439132,21060
1165.48,1.311672,442389,21584
1169.04,1.313454,446101,21676
1173.79,1.316395,451929,21811
1177.34,1.317160,456026,21970
1180.9,1.316386,461306,22264
1184.44,1.323222,467657,22218
1187.99,1.316161,473969,22887
1191.52,1.318628,479856,23040
1195.06,1.322129,487372,23213
1199.76,1.324742,497347,23546
1203.29,1.319961,504311,24140
1206.81,1.321978,511507,24371
1210.33,1.321307,519078,24770
1213.84,1.318464,527163,25321
1217.35,1.328417,534208,25078
1220.85,1.322097,540472,25744
1225.51,1.327997,549929,25841
1229.01,1.320038,556888,26652
1232.5,1.326155,562180,26529
1235.98,1.322933,567975,27002
1239.46,1.320748,574815,27465
1242.94,1.319062,582782,27954
1246.41,1.326193,591476,27909
1251.03,1.325518,604016,28545
1254.5,1.321068,612289,29234
1257.96,1.326991,619125,29160
1261.41,1.327575,624551,29376
1264.86,1.325216,629900,29789
1268.31,1.325755,634345,29962
1271.75,1.329221,638574,29922
1276.33,1.327348,642499,30236
1279.76,1.325243,645905,30544
1283.19,1.328065,648307,30459
1286.61,1.325126,650446,30767
1290.03,1.325038,652132,30853
1293.44,1.324379,653907,30984
1296.85,1.331584,655963,30570
1301.39,1.327964,657349,30891
1304.8,1.327498,657558,30934
1308.19,1.331838,658515,30671
1311.58,1.330008,658804,30814
1314.97,1.331754,659011,30700
1318.36,1.333835,658272,30519
1321.73,1.327650,658022,30945
1326.23,1.332745,657870,30577
1329.6,1.328729,656482,30796
1332.97,1.331978,654926,30494
1336.33,1.328994,653727,30648
1339.69,1.337559,652497,29993
1343.04,1.331857,649913,30269
1346.39,1.329410,647671,30335
1349.73,1.336578,645338,29731
1354.18,1.330261,641175,29972
1357.52,1.327651,638376,30021
1360.85,1.330553,635805,29701
1364.17,1.327762,633413,29780
1367.49,1.328682,631026,29605
1370.81,1.335896,628050,28980
1374.12,1.324803,625034,29587
1378.54,1.332391,620272,28853
1381.84,1.328006,616892,28987
1385.14,1.329892,613613,28708
1388.43,1.324347,611526,28978
1391.72,1.322147,610663,29084
1395.01,1.328717,610634,28646
1398.29,1.319597,611700,29305
1402.66,1.329280,614051,28769
1405.93,1.331132,616268,28750
1409.2,1.330623,617795,28855
1412.46,1.329697,618872,28967
1415.72,1.332946,619795,28794
1418.98,1.337787,620495,28507
1422.23,1.328857,621087,29127
1426.56,1.331645,621375,28954
1429.8,1.336746,621616,28627
1433.04,1.334292,622129,28813
1436.27,1.333780,621526,28819
1439.5,1.334971,621113,28721
1442.72,1.334489,620921,28744
1445.94,1.328957,620270,29082
1450.23,1.327789,618860,29094
1453.44,1.337213,617697,28416
1456.64,1.338072,616264,28294
1459.85,1.327097,614413,28931
1463.04,1.338155,612307,28107
1466.24,1.336476,610032,28111
1469.43,1.332479,607345,28246
1473.67,1.339567,603789,27626
1476.85,1.339179,601175,27531
1480.02,1.333200,597737,27753
1483.19,1.335689,594479,27444
1486.36,1.336471,591232,27245
1489.52,1.340373,587853,26847
1492.68,1.332886,583875,27129
1496.89,1.339598,578062,26447
1500.03,1.341212,574159,26171
1503.18,1.333847,570285,26439
1506.32,1.341157,565444,25777
1509.45,1.340340,560571,25603
1512.58,1.333585,555821,25784
1515.71,1.338941,550344,25217
1519.87,1.341221,543983,24795
1522.99,1.341170,538764,24560
1526.1,1.337558,533692,24532
1529.21,1.340482,527902,24103
1532.32,1.339105,521886,23904
1535.42,1.341026,515888,23525
1538.51,1.335808,509987,23537
1541.6,1.332010,503936,23462
1545.72,1.334122,494694,22920
1548.8,1.336940,488378,22481
1551.88,1.336719,481832,22191
1554.95,1.333275,474989,22050
1558.02,1.331063,467818,21828
1561.08,1.340215,460730,21049
1564.15,1.339698,454170,20774
1568.22,1.333524,444181,20608
1571.27,1.326962,436947,20581
1574.32,1.337979,429598,19728
1577.36,1.337820,422039,19388
1580.4,1.322751,414375,19708
1583.43,1.326101,406354,19178
1586.46,1.330118,398475,18633
1590.49,1.338486,388982,17842
1593.51,1.329100,380708,17844
1596.53,1.332793,372727,17322
1599.54,1.325852,365060,17239
1602.55,1.328174,357543,16794
1605.55,1.324800,349495,16544
1608.55,1.325693,341154,16116
1612.54,1.328915,330877,15515
1615.53,1.327744,322904,15182
1618.51,1.322263,315116,15004
1621.49,1.333966,307217,14239
1624.47,1.312791,299481,14574
1627.44,1.319142,292112,14009
1630.41,1.325100,284245,13446
1634.36,1.314612,274079,13282
1637.32,1.314810,266916,12929
1640.27,1.318075,259612,12481
1643.22,1.318385,251804,12097
1646.16,1.311296,244348,11932
1649.1,1.312036,236703,11539
1652.04,1.318688,228171,10954
1655.95,1.323599,215408,10225
1658.88,1.293753,204937,10420
1661.8,1.300749,193395,9676
1664.72,1.329355,179728,8419
1667.63,1.319634,163642,7839
1670.54,1.295872,146312,7403
1673.44,1.304394,128451,6373
1677.31,1.329820,105080,4917
1680.21,1.299012,88906,4466
1683.1,1.361502,75033,3264
1685.99,1.334415,63520,2941
1688.87,1.308155,53714,2642
1691.75,1.293233,45653,2324
1694.62,1.235797,39137,2274
1697.49,1.296629,33776,1706
1701.31,1.216868,28175,1710