File: ML/samples/unknown/Column 1_078926_20241121_172851.csv
Method:,Column 1,,
Host Date-Time:,21/11/24 @ 17:28:51,,
Header Version:,1,,
System Temp (C):,37.23,,
Detector Temp (C):,36.38,,
Humidity (%):,0.58,,
Lamp PD:,3796,,
Shift Vector Coefficients:,-10.5391,0.0761263,-0.000134223,,
Pixel to Wavelength Coefficients:,1775.68,-0.916766,-0.000235065,,
Serial Number:,5510004,,
Scan Config Name:,Column 1,,
Scan Config Type:,Slew,,
Section 1,,
Start wavelength (nm):,900,,
End wavelength (nm):,1700,,
Pattern Pixel Width (nm):,   7.03,,,,
Exposure (ms):,  0.635,,,,
Digital Resolution:,228,,
Num Repeats:,6,,
PGA Gain:,64,,
Total Measurement Time in sec:,  2.729,,
Wavelength (nm),Absorbance (AU),Reference Signal (unitless),Sample Signal (unitless)
901.51,1.338140,108485,4980
905.376,1.320155,121306,5804
909.237,1.318596,131909,6334
913.095,1.293337,143299,7293
916.948,1.307277,156982,7737
922.079,1.312319,179937,8766
925.923,1.323076,200504,9529
929.762,1.328734,222660,10445
933.597,1.319813,244426,11704
937.427,1.325030,263972,12489
941.254,1.317398,281845,13571
945.076,1.316482,297271,14344
950.165,1.312611,315605,15365
953.978,1.309113,328029,16099
957.786,1.311474,340470,16619
961.59,1.304715,352317,17467
965.389,1.307800,363056,17872
969.185,1.307127,373162,18398
972.976,1.312545,382632,18631
976.763,1.306012,391202,19337
981.806,1.305184,400190,19819
985.583,1.299523,406088,20375
989.355,1.303240,410162,20404
993.124,1.300345,412868,20676
996.888,1.308370,414263,20366
1000.65,1.309235,415476,20385
1004.4,1.300528,415479,20798
1009.41,1.302308,414358,20657
1013.15,1.300571,412923,20668
1016.89,1.300425,411526,20605
1020.63,1.310134,409066,20029
1024.36,1.297666,406777,20497
1028.09,1.307159,404427,19938
1031.82,1.306194,401911,19858
1036.78,1.313111,398410,19374
1040.49,1.305264,396204,19618
1044.2,1.302792,394236,19632
1047.91,1.308428,392042,19271
1051.61,1.312411,389823,18987
1055.31,1.307061,388234,19144
1059,1.312933,387599,18856
1063.92,1.307534,386688,19047
1067.61,1.306522,386598,19087
1071.29,1.307988,387377,19061
1074.96,1.313797,388536,18864
1078.63,1.321040,389855,18615
1082.3,1.319090,391215,18764
1085.96,1.307590,393215,19366
1090.84,1.305403,396270,19615
1094.49,1.314076,398760,19348
1098.14,1.310033,400987,19638
1101.79,1.317480,403477,19424
1105.43,1.308207,406116,19973
1109.06,1.314423,407701,19766
1112.7,1.314131,409859,19884
1117.53,1.302986,412494,20532
1121.15,1.318467,414909,19929
1124.77,1.309642,416559,20419
1128.38,1.316657,418532,20187
1131.99,1.322109,419956,20003
1135.6,1.311579,421946,20591
1139.2,1.309807,423881,20770
1143.99,1.314975,426786,20665
1147.58,1.316624,428617,20675
1151.17,1.315833,431169,20836
1154.75,1.316278,433579,20931
1158.33,1.317882,436264,20983
1161.91,1.309370,439132,21539
1165.48,1.314134,442389,21462
1169.04,1.311256,446101,21786
1173.79,1.316713,451929,21795
1177.34,1.306962,456026,22492
1180.9,1.313160,461306,22430
1184.44,1.310927,467657,22856
1187.99,1.307073,473969,23371
1191.52,1.324072,479856,22753
1195.06,1.318905,487372,23386
1199.76,1.318098,497347,23909
1203.29,1.324373,504311,23896
1206.81,1.317493,511507,24624
1210.33,1.316356,519078,25054
1213.84,1.324805,527163,24954
1217.35,1.313238,534208,25970
1220.85,1.322080,540472,25745
1225.51,1.322088,549929,26195
1229.01,1.319908,556888,26660
1232.5,1.322487,562180,26754
1235.98,1.318724,567975,27265
1239.46,1.317033,574815,27701
1242.94,1.310616,582782,28503
1246.41,1.320412,591476,28283
1251.03,1.311329,604016,29493
1254.5,1.321975,612289,29173
1257.96,1.319783,619125,29648
1261.41,1.323002,624551,29687
1264.86,1.322657,629900,29965
1268.31,1.323745,634345,30101
1271.75,1.325104,638574,30207
1276.33,1.324599,642499,30428
1279.76,1.326196,645905,30477
1283.19,1.322526,648307,30850
1286.61,1.325733,650446,30724
1290.03,1.328557,652132,30604
1293.44,1.325234,653907,30923
1296.85,1.328470,655963,30790
1301.39,1.324380,657349,31147
1304.8,1.324378,657558,31157
1308.19,1.326840,658515,31026
1311.58,1.326052,658804,31096
1314.97,1.325212,659011,31166
1318.36,1.324195,658272,31204
1321.73,1.326473,658022,31029
1326.23,1.332830,657870,30571
1329.6,1.324337,656482,31109
1332.97,1.327416,654926,30816
1336.33,1.324203,653727,30988
1339.69,1.331491,652497,30415
1343.04,1.328484,649913,30505
1346.39,1.326173,647671,30562
1349.73,1.322805,645338,30689
1354.18,1.320773,641175,30634
1357.52,1.321903,638376,30421
1360.85,1.326420,635805,29985
1364.17,1.321968,633413,30180
1367.49,1.320558,631026,30164
1370.81,1.324887,628050,29724
1374.12,1.326656,625034,29461
1378.54,1.320235,620272,29672
1381.84,1.319299,616892,29574
1385.14,1.323763,613613,29116
1388.43,1.322104,611526,29128
1391.72,1.320999,610663,29161
1395.01,1.327839,610634,28704
1398.29,1.329672,611700,28633
1402.66,1.330292,614051,28702
1405.93,1.326758,616268,29041
1409.2,1.331452,617795,28800
1412.46,1.329188,618872,29001
1415.72,1.326315,619795,29237
1418.98,1.333436,620495,28794
1422.23,1.324406,621087,29427
1426.56,1.329550,621375,29094
1429.8,1.327218,621616,29262
1433.04,1.331243,622129,29016
1436.27,1.330029,621526,29069
1439.5,1.329382,621113,29093
1442.72,1.327089,620921,29238
1445.94,1.326930,620270,29218
1450.23,1.336748,618860,28500
1453.44,1.328003,617697,29025
1456.64,1.329094,616264,28885
1459.85,1.333433,614413,28512
1463.04,1.335336,612307,28290
1466.24,1.334058,610032,28268
1469.43,1.327221,607345,28590
1473.67,1.340669,603789,27556
1476.85,1.330403,601175,28093
1480.02,1.328330,597737,28066
1483.19,1.334567,594479,27515
1486.36,1.328902,591232,27724
1489.52,1.333408,587853,27281
1492.68,1.329744,583875,27326
1496.89,1.331190,578062,26964
1500.03,1.335917,574159,26492
1503.18,1.332862,570285,26499
1506.32,1.335001,565444,26145
1509.45,1.334962,560571,25922
1512.58,1.323430,555821,26394
1515.71,1.335920,550344,25393
1519.87,1.354362,543983,24056
1522.99,1.330826,538764,25152
1526.1,1.331039,533692,24903
1529.21,1.330208,527902,24680
1532.32,1.328676,521886,24485
1535.42,1.333940,515888,23912
1538.51,1.333086,509987,23685
1541.6,1.327114,503936,23728
1545.72,1.332873,494694,22986
1548.8,1.330060,488378,22840
1551.88,1.333055,481832,22379
1554.95,1.338566,474989,21783
1558.02,1.326590,467818,22054
1561.08,1.331635,460730,21469
1564.15,1.337738,454170,20868
1568.22,1.336527,444181,20466
1571.27,1.330012,436947,20437
1574.32,1.330861,429598,20054
1577.36,1.324996,422039,19969
1580.4,1.322751,414375,19708
1583.43,1.326464,406354,19162
1586.46,1.316829,398475,19212
1590.49,1.323627,388982,18463
1593.51,1.330099,380708,17803
1596.53,1.323859,372727,17682
1599.54,1.323867,365060,17318
1602.55,1.325185,357543,16910
1605.55,1.327751,349495,16432
1608.55,1.321109,341154,16287
1612.54,1.323242,330877,15719
1615.53,1.334142,322904,14960
1618.51,1.317915,315116,15155
1621.49,1.322468,307217,14621
1624.47,1.316983,299481,14434
1627.44,1.316793,292112,14085
1630.41,1.322299,284245,13533
1634.36,1.315070,274079,13268
1637.32,1.320524,266916,12760
1640.27,1.317484,259612,12498
1643.22,1.304048,251804,12503
1646.16,1.288950,244348,12562
1649.1,1.304499,236703,11741
1652.04,1.310947,228171,11151
1655.95,1.272602,215408,11499
1658.88,1.300515,204937,10259
1661.8,1.275298,193395,10260
1664.72,1.249264,179728,10124
1667.63,1.244106,163642,9328
1670.54,1.219270,146312,8831
1673.44,1.191022,128451,8274
1677.31,1.157187,105080,7317
1680.21,1.167966,88906,6039
1683.1,1.143825,75033,5388
1685.99,1.173909,63520,4256
1688.87,1.115823,53714,4114
1691.75,1.124049,45653,3431
1694.62,1.133799,39137,2876
1697.49,1.121047,33776,2556
1701.31,1.198956,28175,1782