File: ML/samples/unknown/Column 1_078034_20241121_164215.csv
Method:,Column 1,,
Host Date-Time:,21/11/24 @ 16:42:15,,
Header Version:,1,,
System Temp (C):,30.31,,
Detector Temp (C):,25.15,,
Humidity (%):,5.95,,
Lamp PD:,3811,,
Shift Vector Coefficients:,-10.5391,0.0761263,-0.000134223,,
Pixel to Wavelength Coefficients:,1775.68,-0.916766,-0.000235065,,
Serial Number:,5510004,,
Scan Config Name:,Column 1,,
Scan Config Type:,Slew,,
Section 1,,
Start wavelength (nm):,900,,
End wavelength (nm):,1700,,
Pattern Pixel Width (nm):,   7.03,,,,
Exposure (ms):,  0.635,,,,
Digital Resolution:,228,,
Num Repeats:,6,,
PGA Gain:,64,,
Total Measurement Time in sec:,  2.708,,
Wavelength (nm),Absorbance (AU),Reference Signal (unitless),Sample Signal (unitless)
901.51,1.319784,108485,5195
905.376,1.284542,121306,6300
909.237,1.337730,131909,6061
913.095,1.329585,143299,6709
916.948,1.329385,156982,7353
922.079,1.303297,179937,8950
925.923,1.307366,200504,9880
929.762,1.298153,222660,11207
933.597,1.310416,244426,11960
937.427,1.308216,263972,12982
941.254,1.313448,281845,13695
945.076,1.306456,297271,14679
950.165,1.311313,315605,15411
953.978,1.316678,328029,15821
957.786,1.311579,340470,16615
961.59,1.316689,352317,16992
965.389,1.309944,363056,17784
969.185,1.312542,373162,18170
972.976,1.312545,382632,18631
976.763,1.313076,391202,19025
981.806,1.300629,400190,20028
985.583,1.314396,406088,19689
989.355,1.305673,410162,20290
993.124,1.303634,412868,20520
996.888,1.308392,414263,20365
1000.65,1.305459,415476,20563
1004.4,1.315591,415479,20089
1009.41,1.308918,414358,20345
1013.15,1.311422,412923,20158
1016.89,1.318149,411526,19781
1020.63,1.304255,409066,20302
1024.36,1.298663,406777,20450
1028.09,1.314983,404427,19582
1031.82,1.309708,401911,19698
1036.78,1.314525,398410,19311
1040.49,1.310050,396204,19403
1044.2,1.311348,394236,19249
1047.91,1.316503,392042,18916
1051.61,1.317241,389823,18777
1055.31,1.308128,388234,19097
1059,1.308055,387599,19069
1063.92,1.305351,386688,19143
1067.61,1.316604,386598,18649
1071.29,1.311052,387377,18927
1074.96,1.311776,388536,18952
1078.63,1.317277,389855,18777
1082.3,1.318581,391215,18786
1085.96,1.318789,393215,18873
1090.84,1.314012,396270,19230
1094.49,1.316732,398760,19230
1098.14,1.311562,400987,19569
1101.79,1.319160,403477,19349
1105.43,1.320021,406116,19437
1109.06,1.314159,407701,19778
1112.7,1.321843,409859,19534
1117.53,1.325584,412494,19491
1121.15,1.317292,414909,19983
1124.77,1.317086,416559,20072
1128.38,1.324581,418532,19822
1131.99,1.314703,419956,20347
1135.6,1.318382,421946,20271
1139.2,1.321162,423881,20234
1143.99,1.312147,426786,20800
1147.58,1.324317,428617,20312
1151.17,1.325294,431169,20387
1154.75,1.321833,433579,20665
1158.33,1.323276,436264,20724
1161.91,1.330587,439132,20512
1165.48,1.314418,442389,21448
1169.04,1.321584,446101,21274
1173.79,1.314091,451929,21927
1177.34,1.316666,456026,21995
1180.9,1.324319,461306,21861
1184.44,1.322676,467657,22246
1187.99,1.321027,473969,22632
1191.52,1.320783,479856,22926
1195.06,1.323160,487372,23158
1199.76,1.326220,497347,23466
1203.29,1.318166,504311,24240
1206.81,1.322477,511507,24343
1210.33,1.319836,519078,24854
1213.84,1.329864,527163,24665
1217.35,1.331127,534208,24922
1220.85,1.325042,540472,25570
1225.51,1.319015,549929,26381
1229.01,1.321213,556888,26580
1232.5,1.326728,562180,26494
1235.98,1.322982,567975,26999
1239.46,1.329453,574815,26920
1242.94,1.321149,582782,27820
1246.41,1.327861,591476,27802
1251.03,1.325032,604016,28577
1254.5,1.327112,612289,28830
1257.96,1.328857,619125,29035
1261.41,1.328315,624551,29326
1264.86,1.324866,629900,29813
1268.31,1.328299,634345,29787
1271.75,1.326472,638574,30112
1276.33,1.327650,642499,30215
1279.76,1.327495,645905,30386
1283.19,1.332191,648307,30171
1286.61,1.323956,650446,30850
1290.03,1.333639,652132,30248
1293.44,1.333715,653907,30325
1296.85,1.333463,655963,30438
1301.39,1.329654,657349,30771
1304.8,1.336076,657558,30329
1308.19,1.333015,658515,30588
1311.58,1.331208,658804,30729
1314.97,1.330088,659011,30818
1318.36,1.332287,658272,30628
1321.73,1.335753,658022,30373
1326.23,1.331837,657870,30641
1329.6,1.342613,656482,29827
1332.97,1.333233,654926,30406
1336.33,1.335332,653727,30204
1339.69,1.336070,652497,30096
1343.04,1.332719,649913,30209
1346.39,1.330471,647671,30261
1349.73,1.328732,645338,30273
1354.18,1.331218,641175,29906
1357.52,1.330540,638376,29822
1360.85,1.328423,635805,29847
1364.17,1.333192,633413,29410
1367.49,1.326414,631026,29760
1370.81,1.325106,628050,29709
1374.12,1.332772,625034,29049
1378.54,1.335639,620272,28638
1381.84,1.335623,616892,28483
1385.14,1.334913,613613,28378
1388.43,1.330885,611526,28545
1391.72,1.329451,610663,28599
1395.01,1.332172,610634,28419
1398.29,1.327282,611700,28791
1402.66,1.334122,614051,28450
1405.93,1.332842,616268,28637
1409.2,1.338077,617795,28364
1412.46,1.331485,618872,28848
1415.72,1.336292,619795,28573
1418.98,1.335841,620495,28635
1422.23,1.332871,621087,28859
1426.56,1.338402,621375,28507
1429.8,1.335368,621616,28718
1433.04,1.335711,622129,28719
1436.27,1.334353,621526,28781
1439.5,1.332243,621113,28902
1442.72,1.335700,620921,28664
1445.94,1.333083,620270,28807
1450.23,1.337358,618860,28460
1453.44,1.333136,617697,28684
1456.64,1.334754,616264,28511
1459.85,1.341473,614413,27989
1463.04,1.339067,612307,28048
1466.24,1.337296,610032,28058
1469.43,1.337722,607345,27907
1473.67,1.345168,603789,27272
1476.85,1.340585,601175,27442
1480.02,1.333623,597737,27726
1483.19,1.341263,594479,27094
1486.36,1.334087,591232,27395
1489.52,1.335323,587853,27161
1492.68,1.341749,583875,26581
1496.89,1.334050,578062,26787
1500.03,1.336541,574159,26454
1503.18,1.335427,570285,26343
1506.32,1.344150,565444,25600
1509.45,1.340425,560571,25598
1512.58,1.336475,555821,25613
1515.71,1.340978,550344,25099
1519.87,1.336552,543983,25063
1522.99,1.340569,538764,24594
1526.1,1.337522,533692,24534
1529.21,1.344937,527902,23857
1532.32,1.340342,521886,23836
1535.42,1.341543,515888,23497
1538.51,1.340800,509987,23268
1541.6,1.341006,503936,22981
1545.72,1.337451,494694,22745
1548.8,1.339051,488378,22372
1551.88,1.336093,481832,22223
1554.95,1.342995,474989,21562
1558.02,1.338832,467818,21441
1561.08,1.335618,460730,21273
1564.15,1.333471,454170,21074
1568.22,1.339316,444181,20335
1571.27,1.335809,436947,20166
1574.32,1.332771,429598,19966
1577.36,1.339615,422039,19308
1580.4,1.334568,414375,19179
1583.43,1.345600,406354,18336
1586.46,1.341333,398475,18158
1590.49,1.343382,388982,17642
1593.51,1.338423,380708,17465
1596.53,1.334451,372727,17256
1599.54,1.327189,365060,17186
1602.55,1.334977,357543,16533
1605.55,1.327117,349495,16456
1608.55,1.327097,341154,16064
1612.54,1.336454,330877,15248
1615.53,1.320314,322904,15444
1618.51,1.321916,315116,15016
1621.49,1.327938,307217,14438
1624.47,1.331671,299481,13954
1627.44,1.325324,292112,13811
1630.41,1.324293,284245,13471
1634.36,1.330802,274079,12796
1637.32,1.327662,266916,12552
1640.27,1.327360,259612,12217
1643.22,1.330877,251804,11754
1646.16,1.340111,244348,11166
1649.1,1.321279,236703,11296
1652.04,1.318807,228171,10951
1655.95,1.341859,215408,9804
1658.88,1.320261,204937,9803
1661.8,1.312994,193395,9407
1664.72,1.318353,179728,8635
1667.63,1.347017,163642,7360
1670.54,1.346197,146312,6593
1673.44,1.351190,128451,5722
1677.31,1.356784,105080,4621
1680.21,1.353766,88906,3937
1683.1,1.385575,75033,3088
1685.99,1.329132,63520,2977
1688.87,1.381588,53714,2231
1691.75,1.334981,45653,2111
1694.62,1.486057,39137,1278
1697.49,1.336599,33776,1556
1701.31,1.367438,28175,1209