File: ML/samples/unknown/Column 1_078348_20241121_165738.csv
Method:,Column 1,,
Host Date-Time:,21/11/24 @ 16:57:38,,
Header Version:,1,,
System Temp (C):,34.83,,
Detector Temp (C):,33.25,,
Humidity (%):,2.25,,
Lamp PD:,3801,,
Shift Vector Coefficients:,-10.5391,0.0761263,-0.000134223,,
Pixel to Wavelength Coefficients:,1775.68,-0.916766,-0.000235065,,
Serial Number:,5510004,,
Scan Config Name:,Column 1,,
Scan Config Type:,Slew,,
Section 1,,
Start wavelength (nm):,900,,
End wavelength (nm):,1700,,
Pattern Pixel Width (nm):,   7.03,,,,
Exposure (ms):,  0.635,,,,
Digital Resolution:,228,,
Num Repeats:,6,,
PGA Gain:,64,,
Total Measurement Time in sec:,  2.670,,
Wavelength (nm),Absorbance (AU),Reference Signal (unitless),Sample Signal (unitless)
901.51,1.300810,108485,5427
905.376,1.335772,121306,5599
909.237,1.326903,131909,6214
913.095,1.305291,143299,7095
916.948,1.332289,156982,7304
922.079,1.307344,179937,8867
925.923,1.316607,200504,9672
929.762,1.323115,222660,10581
933.597,1.318479,244426,11740
937.427,1.318404,263972,12681
941.254,1.318552,281845,13535
945.076,1.310648,297271,14538
950.165,1.323574,315605,14982
953.978,1.314788,328029,15890
957.786,1.318508,340470,16352
961.59,1.318662,352317,16915
965.389,1.307218,363056,17896
969.185,1.312375,373162,18177
972.976,1.304943,382632,18960
976.763,1.309326,391202,19190
981.806,1.312610,400190,19483
985.583,1.310007,406088,19889
989.355,1.310365,410162,20072
993.124,1.308957,412868,20270
996.888,1.306371,414263,20460
1000.65,1.312937,415476,20212
1004.4,1.301029,415479,20774
1009.41,1.307277,414358,20422
1013.15,1.314948,412923,19995
1016.89,1.310748,411526,20121
1020.63,1.307432,409066,20154
1024.36,1.315640,406777,19666
1028.09,1.314739,404427,19593
1031.82,1.308189,401911,19767
1036.78,1.303314,398410,19816
1040.49,1.318389,396204,19034
1044.2,1.312138,394236,19214
1047.91,1.312777,392042,19079
1051.61,1.314613,389823,18891
1055.31,1.315629,388234,18770
1059,1.311324,387599,18926
1063.92,1.310807,386688,18904
1067.61,1.317210,386598,18623
1071.29,1.318061,387377,18624
1074.96,1.310244,388536,19019
1078.63,1.304581,389855,19334
1082.3,1.313730,391215,18997
1085.96,1.311623,393215,19187
1090.84,1.315800,396270,19151
1094.49,1.317433,398760,19199
1098.14,1.317033,400987,19324
1101.79,1.314783,403477,19545
1105.43,1.320222,406116,19428
1109.06,1.320396,407701,19496
1112.7,1.319935,409859,19620
1117.53,1.326744,412494,19439
1121.15,1.314973,414909,20090
1124.77,1.313487,416559,20239
1128.38,1.310272,418532,20486
1131.99,1.318304,419956,20179
1135.6,1.313016,421946,20523
1139.2,1.316020,423881,20475
1143.99,1.326259,426786,20135
1147.58,1.322290,428617,20407
1151.17,1.315833,431169,20836
1154.75,1.319214,433579,20790
1158.33,1.313475,436264,21197
1161.91,1.311350,439132,21441
1165.48,1.324765,442389,20943
1169.04,1.316389,446101,21530
1173.79,1.319131,451929,21674
1177.34,1.315916,456026,22033
1180.9,1.316913,461306,22237
1184.44,1.318382,467657,22467
1187.99,1.314041,473969,22999
1191.52,1.324664,479856,22722
1195.06,1.321998,487372,23220
1199.76,1.324079,497347,23582
1203.29,1.317861,504311,24257
1206.81,1.322799,511507,24325
1210.33,1.327523,519078,24418
1213.84,1.322081,527163,25111
1217.35,1.319386,534208,25605
1220.85,1.324228,540472,25618
1225.51,1.322420,549929,26175
1229.01,1.321409,556888,26568
1232.5,1.315195,562180,27207
1235.98,1.320767,567975,27137
1239.46,1.319013,574815,27575
1242.94,1.327407,582782,27422
1246.41,1.319507,591476,28342
1251.03,1.325518,604016,28545
1254.5,1.329741,612289,28656
1257.96,1.330085,619125,28953
1261.41,1.324350,624551,29595
1264.86,1.325785,629900,29750
1268.31,1.329818,634345,29683
1271.75,1.328829,638574,29949
1276.33,1.327521,642499,30224
1279.76,1.321251,645905,30826
1283.19,1.328879,648307,30402
1286.61,1.326229,650446,30689
1290.03,1.327622,652132,30670
1293.44,1.326458,653907,30836
1296.85,1.331925,655963,30546
1301.39,1.331323,657349,30653
1304.8,1.330131,657558,30747
1308.19,1.331937,658515,30664
1311.58,1.334186,658804,30519
1314.97,1.328906,659011,30902
1318.36,1.332117,658272,30640
1321.73,1.330961,658022,30710
1326.23,1.331610,657870,30657
1329.6,1.332112,656482,30557
1332.97,1.329762,654926,30650
1336.33,1.326803,653727,30803
1339.69,1.328772,652497,30606
1343.04,1.332704,649913,30210
1346.39,1.332990,647671,30086
1349.73,1.329076,645338,30249
1354.18,1.327229,641175,30182
1357.52,1.325285,638376,30185
1360.85,1.329428,635805,29778
1364.17,1.333207,633413,29409
1367.49,1.326546,631026,29751
1370.81,1.327613,628050,29538
1374.12,1.331548,625034,29131
1378.54,1.334488,620272,28714
1381.84,1.324886,616892,29196
1385.14,1.329922,613613,28706
1388.43,1.335243,611526,28260
1391.72,1.327632,610663,28719
1395.01,1.329020,610634,28626
1398.29,1.334185,611700,28337
1402.66,1.333116,614051,28516
1405.93,1.330362,616268,28801
1409.2,1.332645,617795,28721
1412.46,1.335980,618872,28551
1415.72,1.329401,619795,29030
1418.98,1.329936,620495,29027
1422.23,1.331984,621087,28918
1426.56,1.333163,621375,28853
1429.8,1.330974,621616,29010
1433.04,1.335620,622129,28725
1436.27,1.336714,621526,28625
1439.5,1.340878,621113,28333
1442.72,1.333584,620921,28804
1445.94,1.331984,620270,28880
1450.23,1.330394,618860,28920
1453.44,1.332818,617697,28705
1456.64,1.332506,616264,28659
1459.85,1.333463,614413,28510
1463.04,1.339594,612307,28014
1466.24,1.334196,610032,28259
1469.43,1.336852,607345,27963
1473.67,1.334830,603789,27929
1476.85,1.335472,601175,27767
1480.02,1.335979,597737,27576
1483.19,1.336989,594479,27362
1486.36,1.333168,591232,27453
1489.52,1.333249,587853,27291
1492.68,1.334956,583875,27000
1496.89,1.336391,578062,26643
1500.03,1.333531,574159,26638
1503.18,1.338222,570285,26174
1506.32,1.334752,565444,26160
1509.45,1.338579,560571,25707
1512.58,1.342072,555821,25285
1515.71,1.335202,550344,25435
1519.87,1.340224,543983,24852
1522.99,1.340446,538764,24601
1526.1,1.333540,533692,24760
1529.21,1.348851,527902,23643
1532.32,1.340780,521886,23812
1535.42,1.340860,515888,23534
1538.51,1.337917,509987,23423
1541.6,1.343698,503936,22839
1545.72,1.336421,494694,22799
1548.8,1.328940,488378,22899
1551.88,1.342035,481832,21921
1554.95,1.339144,474989,21754
1558.02,1.333477,467818,21707
1561.08,1.334863,460730,21310
1564.15,1.332442,454170,21124
1568.22,1.334960,444181,20540
1571.27,1.337860,436947,20071
1574.32,1.334340,429598,19894
1577.36,1.335251,422039,19503
1580.4,1.333256,414375,19237
1583.43,1.328873,406354,19056
1586.46,1.330608,398475,18612
1590.49,1.327217,388982,18311
1593.51,1.320187,380708,18214
1596.53,1.327882,372727,17519
1599.54,1.324569,365060,17290
1602.55,1.321553,357543,17052
1605.55,1.335376,349495,16146
1608.55,1.327286,341154,16057
1612.54,1.322193,330877,15757
1615.53,1.320257,322904,15446
1618.51,1.316684,315116,15198
1621.49,1.321608,307217,14650
1624.47,1.326965,299481,14106
1627.44,1.317533,292112,14061
1630.41,1.317893,284245,13671
1634.36,1.315365,274079,13259
1637.32,1.310099,266916,13070
1640.27,1.323785,259612,12318
1643.22,1.315201,251804,12186
1646.16,1.317306,244348,11768
1649.1,1.323206,236703,11246
1652.04,1.296997,228171,11515
1655.95,1.298473,215408,10834
1658.88,1.289027,204937,10534
1661.8,1.280450,193395,10139
1664.72,1.267754,179728,9702
1667.63,1.254901,163642,9099
1670.54,1.245574,146312,8312
1673.44,1.235126,128451,7475
1677.31,1.220460,105080,6325
1680.21,1.206677,88906,5524
1683.1,1.218675,75033,4535
1685.99,1.218353,63520,3842
1688.87,1.180226,53714,3547
1691.75,1.190237,45653,2946
1694.62,1.175116,39137,2615
1697.49,1.240359,33776,1942
1701.31,1.219415,28175,1700