File: ML/samples/unknown/Column 1_078200_20241121_165023.csv
Method:,Column 1,,
Host Date-Time:,21/11/24 @ 16:50:23,,
Header Version:,1,,
System Temp (C):,33.86,,
Detector Temp (C):,30.66,,
Humidity (%):,3.08,,
Lamp PD:,3803,,
Shift Vector Coefficients:,-10.5391,0.0761263,-0.000134223,,
Pixel to Wavelength Coefficients:,1775.68,-0.916766,-0.000235065,,
Serial Number:,5510004,,
Scan Config Name:,Column 1,,
Scan Config Type:,Slew,,
Section 1,,
Start wavelength (nm):,900,,
End wavelength (nm):,1700,,
Pattern Pixel Width (nm):,   7.03,,,,
Exposure (ms):,  0.635,,,,
Digital Resolution:,228,,
Num Repeats:,6,,
PGA Gain:,64,,
Total Measurement Time in sec:,  2.720,,
Wavelength (nm),Absorbance (AU),Reference Signal (unitless),Sample Signal (unitless)
901.51,1.315707,108485,5244
905.376,1.339276,121306,5554
909.237,1.337515,131909,6064
913.095,1.316765,143299,6910
916.948,1.327735,156982,7381
922.079,1.325599,179937,8502
925.923,1.322666,200504,9538
929.762,1.347121,222660,10012
933.597,1.317186,244426,11775
937.427,1.319570,263972,12647
941.254,1.314655,281845,13657
945.076,1.321507,297271,14179
950.165,1.306911,315605,15568
953.978,1.312417,328029,15977
957.786,1.312337,340470,16586
961.59,1.319047,352317,16900
965.389,1.308701,363056,17835
969.185,1.307528,373162,18381
972.976,1.308485,382632,18806
976.763,1.314380,391202,18968
981.806,1.314599,400190,19394
985.583,1.307503,406088,20004
989.355,1.311036,410162,20041
993.124,1.306032,412868,20407
996.888,1.314794,414263,20067
1000.65,1.313603,415476,20181
1004.4,1.310198,415479,20340
1009.41,1.311208,414358,20238
1013.15,1.310668,412923,20193
1016.89,1.314346,411526,19955
1020.63,1.311981,409066,19944
1024.36,1.313086,406777,19782
1028.09,1.308927,404427,19857
1031.82,1.301821,401911,20059
1036.78,1.301303,398410,19908
1040.49,1.314482,396204,19206
1044.2,1.315656,394236,19059
1047.91,1.311050,392042,19155
1051.61,1.304254,389823,19347
1055.31,1.315606,388234,18771
1059,1.313740,387599,18821
1063.92,1.310417,386688,18921
1067.61,1.314143,386598,18755
1071.29,1.312362,387377,18870
1074.96,1.312235,388536,18932
1078.63,1.319829,389855,18667
1082.3,1.313068,391215,19026
1085.96,1.315968,393215,18996
1090.84,1.320428,396270,18948
1094.49,1.324158,398760,18904
1098.14,1.322188,400987,19096
1101.79,1.315050,403477,19533
1105.43,1.323475,406116,19283
1109.06,1.312953,407701,19833
1112.7,1.314218,409859,19880
1117.53,1.323871,412494,19568
1121.15,1.318751,414909,19916
1124.77,1.322332,416559,19831
1128.38,1.320373,418532,20015
1131.99,1.323500,419956,19939
1135.6,1.314776,421946,20440
1139.2,1.323292,423881,20135
1143.99,1.316955,426786,20571
1147.58,1.324894,428617,20285
1151.17,1.315292,431169,20862
1154.75,1.322338,433579,20641
1158.33,1.320310,436264,20866
1161.91,1.316915,439132,21168
1165.48,1.320905,442389,21130
1169.04,1.319466,446101,21378
1173.79,1.325022,451929,21382
1177.34,1.314283,456026,22116
1180.9,1.321290,461306,22014
1184.44,1.319486,467657,22410
1187.99,1.331967,473969,22069
1191.52,1.318855,479856,23028
1195.06,1.318812,487372,23391
1199.76,1.322278,497347,23680
1203.29,1.331280,504311,23519
1206.81,1.323388,511507,24292
1210.33,1.327327,519078,24429
1213.84,1.325990,527163,24886
1217.35,1.325862,534208,25226
1220.85,1.325893,540472,25520
1225.51,1.320599,549929,26285
1229.01,1.331112,556888,25981
1232.5,1.328420,562180,26391
1235.98,1.323384,567975,26974
1239.46,1.324130,574815,27252
1242.94,1.322744,582782,27718
1246.41,1.321750,591476,28196
1251.03,1.326981,604016,28449
1254.5,1.328213,612289,28757
1257.96,1.328722,619125,29044
1261.41,1.328300,624551,29327
1264.86,1.328200,629900,29585
1268.31,1.328255,634345,29790
1271.75,1.335757,638574,29475
1276.33,1.326401,642499,30302
1279.76,1.331343,645905,30118
1283.19,1.327282,648307,30514
1286.61,1.328826,650446,30506
1290.03,1.326137,652132,30775
1293.44,1.335265,653907,30217
1296.85,1.334377,655963,30374
1301.39,1.329753,657349,30764
1304.8,1.333179,657558,30532
1308.19,1.336378,658515,30352
1311.58,1.333205,658804,30588
1314.97,1.333555,659011,30573
1318.36,1.331295,658272,30698
1321.73,1.332377,658022,30610
1326.23,1.333200,657870,30545
1329.6,1.330452,656482,30674
1332.97,1.331722,654926,30512
1336.33,1.329789,653727,30592
1339.69,1.338370,652497,29937
1343.04,1.338362,649913,29819
1346.39,1.329382,647671,30337
1349.73,1.333463,645338,29945
1354.18,1.330580,641175,29950
1357.52,1.331035,638376,29788
1360.85,1.326739,635805,29963
1364.17,1.325551,633413,29932
1367.49,1.331892,631026,29387
1370.81,1.329056,628050,29440
1374.12,1.329822,625034,29247
1378.54,1.331775,620272,28894
1381.84,1.330395,616892,28828
1385.14,1.328351,613613,28810
1388.43,1.328609,611526,28695
1391.72,1.328722,610663,28647
1395.01,1.328869,610634,28636
1398.29,1.331465,611700,28515
1402.66,1.327758,614051,28870
1405.93,1.331933,616268,28697
1409.2,1.326578,617795,29125
1412.46,1.334416,618872,28654
1415.72,1.330375,619795,28965
1418.98,1.334705,620495,28710
1422.23,1.336240,621087,28636
1426.56,1.335094,621375,28725
1429.8,1.335701,621616,28696
1433.04,1.337803,622129,28581
1436.27,1.335033,621526,28736
1439.5,1.335047,621113,28716
1442.72,1.339015,620921,28446
1445.94,1.338376,620270,28458
1450.23,1.336763,618860,28499
1453.44,1.332289,617697,28740
1456.64,1.343603,616264,27936
1459.85,1.341039,614413,28017
1463.04,1.338959,612307,28055
1466.24,1.332080,610032,28397
1469.43,1.335023,607345,28081
1473.67,1.339049,603789,27659
1476.85,1.337494,601175,27638
1480.02,1.334109,597737,27695
1483.19,1.339057,594479,27232
1486.36,1.337796,591232,27162
1489.52,1.339888,587853,26877
1492.68,1.339565,583875,26715
1496.89,1.336799,578062,26618
1500.03,1.333955,574159,26612
1503.18,1.342876,570285,25895
1506.32,1.332682,565444,26285
1509.45,1.344755,560571,25344
1512.58,1.335441,555821,25674
1515.71,1.339303,550344,25196
1519.87,1.338358,543983,24959
1522.99,1.346866,538764,24240
1526.1,1.341702,533692,24299
1529.21,1.347365,527902,23724
1532.32,1.334623,521886,24152
1535.42,1.336782,515888,23756
1538.51,1.337065,509987,23469
1541.6,1.340931,503936,22985
1545.72,1.340286,494694,22597
1548.8,1.334436,488378,22611
1551.88,1.334591,481832,22300
1554.95,1.338386,474989,21792
1558.02,1.336368,467818,21563
1561.08,1.336128,460730,21248
1564.15,1.336200,454170,20942
1568.22,1.334748,444181,20550
1571.27,1.334111,436947,20245
1574.32,1.332119,429598,19996
1577.36,1.338245,422039,19369
1580.4,1.338686,414375,18998
1583.43,1.335973,406354,18747
1586.46,1.339305,398475,18243
1590.49,1.337101,388982,17899
1593.51,1.330123,380708,17802
1596.53,1.328105,372727,17510
1599.54,1.330665,365060,17049
1602.55,1.332044,357543,16645
1605.55,1.322366,349495,16637
1608.55,1.330898,341154,15924
1612.54,1.330710,330877,15451
1615.53,1.332201,322904,15027
1618.51,1.332070,315116,14669
1621.49,1.327427,307217,14455
1624.47,1.322341,299481,14257
1627.44,1.318708,292112,14023
1630.41,1.324906,284245,13452
1634.36,1.337850,274079,12590
1637.32,1.307845,266916,13138
1640.27,1.308576,259612,12757
1643.22,1.323295,251804,11961
1646.16,1.319192,244348,11717
1649.1,1.313128,236703,11510
1652.04,1.321512,228171,10883
1655.95,1.305423,215408,10662
1658.88,1.301702,204937,10231
1661.8,1.290722,193395,9902
1664.72,1.305763,179728,8889
1667.63,1.283048,163642,8528
1670.54,1.280145,146312,7676
1673.44,1.299110,128451,6451
1677.31,1.251184,105080,5893
1680.21,1.279521,88906,4671
1683.1,1.217432,75033,4548
1685.99,1.242048,63520,3638
1688.87,1.264110,53714,2924
1691.75,1.235078,45653,2657
1694.62,1.140494,39137,2832
1697.49,1.101772,33776,2672
1701.31,1.246287,28175,1598