File: ML/samples/unknown/Column 1_078628_20241121_171203.csv
Method:,Column 1,,
Host Date-Time:,21/11/24 @ 17:12:3,,
Header Version:,1,,
System Temp (C):,36.9,,
Detector Temp (C):,35.16,,
Humidity (%):,0.88,,
Lamp PD:,3797,,
Shift Vector Coefficients:,-10.5391,0.0761263,-0.000134223,,
Pixel to Wavelength Coefficients:,1775.68,-0.916766,-0.000235065,,
Serial Number:,5510004,,
Scan Config Name:,Column 1,,
Scan Config Type:,Slew,,
Section 1,,
Start wavelength (nm):,900,,
End wavelength (nm):,1700,,
Pattern Pixel Width (nm):,   7.03,,,,
Exposure (ms):,  0.635,,,,
Digital Resolution:,228,,
Num Repeats:,6,,
PGA Gain:,64,,
Total Measurement Time in sec:,  2.730,,
Wavelength (nm),Absorbance (AU),Reference Signal (unitless),Sample Signal (unitless)
901.51,1.314962,108485,5253
905.376,1.328465,121306,5694
909.237,1.320039,131909,6313
913.095,1.303458,143299,7125
916.948,1.339786,156982,7179
922.079,1.327545,179937,8464
925.923,1.337628,200504,9215
929.762,1.331696,222660,10374
933.597,1.325002,244426,11565
937.427,1.329294,263972,12367
941.254,1.324269,281845,13358
945.076,1.318881,297271,14265
950.165,1.302719,315605,15719
953.978,1.308952,328029,16105
957.786,1.311422,340470,16621
961.59,1.303796,352317,17504
965.389,1.323714,363056,17229
969.185,1.302408,373162,18599
972.976,1.304783,382632,18967
976.763,1.299348,391202,19636
981.806,1.303741,400190,19885
985.583,1.306614,406088,20045
989.355,1.304818,410162,20330
993.124,1.307076,412868,20358
996.888,1.308349,414263,20367
1000.65,1.305798,415476,20547
1004.4,1.310390,415479,20331
1009.41,1.303361,414358,20607
1013.15,1.304052,412923,20503
1016.89,1.305108,411526,20384
1020.63,1.308187,409066,20119
1024.36,1.310132,406777,19917
1028.09,1.307006,404427,19945
1031.82,1.300977,401911,20098
1036.78,1.298584,398410,20033
1040.49,1.303872,396204,19681
1044.2,1.304232,394236,19567
1047.91,1.297919,392042,19743
1051.61,1.304119,389823,19353
1055.31,1.308219,388234,19093
1059,1.309926,387599,18987
1063.92,1.309064,386688,18980
1067.61,1.307319,386598,19052
1071.29,1.317222,387377,18660
1074.96,1.317218,388536,18716
1078.63,1.301180,389855,19486
1082.3,1.313182,391215,19021
1085.96,1.311917,393215,19174
1090.84,1.307378,396270,19526
1094.49,1.317750,398760,19185
1098.14,1.314859,400987,19421
1101.79,1.315918,403477,19494
1105.43,1.315774,406116,19628
1109.06,1.311532,407701,19898
1112.7,1.311257,409859,20016
1117.53,1.316936,412494,19883
1121.15,1.318380,414909,19933
1124.77,1.316913,416559,20080
1128.38,1.316377,418532,20200
1131.99,1.315472,419956,20311
1135.6,1.323337,421946,20041
1139.2,1.318957,423881,20337
1143.99,1.322372,426786,20316
1147.58,1.307458,428617,21116
1151.17,1.315666,431169,20844
1154.75,1.315283,433579,20979
1158.33,1.309457,436264,21394
1161.91,1.320107,439132,21013
1165.48,1.314458,442389,21446
1169.04,1.314598,446101,21619
1173.79,1.318110,451929,21725
1177.34,1.312930,456026,22185
1180.9,1.319008,461306,22130
1184.44,1.318015,467657,22486
1187.99,1.315990,473969,22896
1191.52,1.312341,479856,23376
1195.06,1.315888,487372,23549
1199.76,1.325795,497347,23489
1203.29,1.318578,504311,24217
1206.81,1.318676,511507,24557
1210.33,1.319994,519078,24845
1213.84,1.320217,527163,25219
1217.35,1.317794,534208,25699
1220.85,1.318251,540472,25973
1225.51,1.322155,549929,26191
1229.01,1.318899,556888,26722
1232.5,1.321222,562180,26832
1235.98,1.320703,567975,27141
1239.46,1.309787,574815,28167
1242.94,1.317759,582782,28038
1246.41,1.320980,591476,28246
1251.03,1.325808,604016,28526
1254.5,1.318934,612289,29378
1257.96,1.320956,619125,29568
1261.41,1.320027,624551,29891
1264.86,1.318130,629900,30279
1268.31,1.321844,634345,30233
1271.75,1.320527,638574,30527
1276.33,1.326358,642499,30305
1279.76,1.327252,645905,30403
1283.19,1.327467,648307,30501
1286.61,1.325112,650446,30768
1290.03,1.325249,652132,30838
1293.44,1.324266,653907,30992
1296.85,1.320822,655963,31337
1301.39,1.321808,657349,31332
1304.8,1.329496,657558,30792
1308.19,1.321885,658515,31382
1311.58,1.327044,658804,31025
1314.97,1.325839,659011,31121
1318.36,1.322209,658272,31347
1321.73,1.324573,658022,31165
1326.23,1.330380,657870,30744
1329.6,1.330113,656482,30698
1332.97,1.331295,654926,30542
1336.33,1.329320,653727,30625
1339.69,1.326748,652497,30749
1343.04,1.326964,649913,30612
1346.39,1.326827,647671,30516
1349.73,1.331091,645338,30109
1354.18,1.326366,641175,30242
1357.52,1.320606,638376,30512
1360.85,1.322599,635805,30250
1364.17,1.322630,633413,30134
1367.49,1.315349,631026,30528
1370.81,1.322149,628050,29912
1374.12,1.325346,625034,29550
1378.54,1.329571,620272,29041
1381.84,1.320667,616892,29481
1385.14,1.327403,613613,28873
1388.43,1.320527,611526,29234
1391.72,1.323508,610663,28993
1395.01,1.322172,610634,29081
1398.29,1.324710,611700,28962
1402.66,1.326166,614051,28976
1405.93,1.327746,616268,28975
1409.2,1.323799,617795,29312
1412.46,1.327529,618872,29112
1415.72,1.323428,619795,29432
1418.98,1.324524,620495,29391
1422.23,1.327799,621087,29198
1426.56,1.331750,621375,28947
1429.8,1.329614,621616,29101
1433.04,1.325474,622129,29404
1436.27,1.327764,621526,29221
1439.5,1.330892,621113,28992
1442.72,1.330384,620921,29017
1445.94,1.334245,620270,28730
1450.23,1.330004,618860,28946
1453.44,1.326316,617697,29138
1456.64,1.336693,616264,28384
1459.85,1.336505,614413,28311
1463.04,1.331713,612307,28527
1466.24,1.335689,610032,28162
1469.43,1.329109,607345,28466
1473.67,1.333975,603789,27984
1476.85,1.333132,601175,27917
1480.02,1.334925,597737,27643
1483.19,1.335483,594479,27457
1486.36,1.335150,591232,27328
1489.52,1.332248,587853,27354
1492.68,1.333479,583875,27092
1496.89,1.332998,578062,26852
1500.03,1.331741,574159,26748
1503.18,1.334406,570285,26405
1506.32,1.334968,565444,26147
1509.45,1.330362,560571,26198
1512.58,1.336831,555821,25592
1515.71,1.333583,550344,25530
1519.87,1.330017,543983,25443
1522.99,1.330912,538764,25147
1526.1,1.328917,533692,25025
1529.21,1.326703,527902,24880
1532.32,1.336118,521886,24069
1535.42,1.343265,515888,23404
1538.51,1.358282,509987,22350
1541.6,1.335355,503936,23282
1545.72,1.333119,494694,22973
1548.8,1.333899,488378,22639
1551.88,1.331602,481832,22454
1554.95,1.334261,474989,22000
1558.02,1.328900,467818,21937
1561.08,1.330705,460730,21515
1564.15,1.331867,454170,21152
1568.22,1.334875,444181,20544
1571.27,1.329863,436947,20444
1574.32,1.330299,429598,20080
1577.36,1.328030,422039,19830
1580.4,1.326313,414375,19547
1583.43,1.326056,406354,19180
1586.46,1.330701,398475,18608
1590.49,1.322476,388982,18512
1593.51,1.322290,380708,18126
1596.53,1.317036,372727,17962
1599.54,1.322240,365060,17383
1602.55,1.328873,357543,16767
1605.55,1.321479,349495,16671
1608.55,1.317419,341154,16426
1612.54,1.323048,330877,15726
1615.53,1.309702,322904,15826
1618.51,1.325634,315116,14888
1621.49,1.323479,307217,14587
1624.47,1.315931,299481,14469
1627.44,1.301613,292112,14586
1630.41,1.319707,284245,13614
1634.36,1.316776,274079,13216
1637.32,1.309568,266916,13086
1640.27,1.309565,259612,12728
1643.22,1.320148,251804,12048
1646.16,1.320083,244348,11693
1649.1,1.303317,236703,11773
1652.04,1.298849,228171,11466
1655.95,1.301692,215408,10754
1658.88,1.291715,204937,10469
1661.8,1.280236,193395,10144
1664.72,1.266592,179728,9728
1667.63,1.251194,163642,9177
1670.54,1.225960,146312,8696
1673.44,1.208207,128451,7953
1677.31,1.175926,105080,7008
1680.21,1.138228,88906,6467
1683.1,1.159834,75033,5193
1685.99,1.123119,63520,4784
1688.87,1.135364,53714,3933
1691.75,1.153235,45653,3208
1694.62,1.172137,39137,2633
1697.49,1.118506,33776,2571
1701.31,1.140660,28175,2038