File: ML/samples/unknown/Column 1_078451_20241121_170320.csv
Method:,Column 1,,
Host Date-Time:,21/11/24 @ 17:3:20,,
Header Version:,1,,
System Temp (C):,34.76,,
Detector Temp (C):,33.74,,
Humidity (%):,1.95,,
Lamp PD:,3801,,
Shift Vector Coefficients:,-10.5391,0.0761263,-0.000134223,,
Pixel to Wavelength Coefficients:,1775.68,-0.916766,-0.000235065,,
Serial Number:,5510004,,
Scan Config Name:,Column 1,,
Scan Config Type:,Slew,,
Section 1,,
Start wavelength (nm):,900,,
End wavelength (nm):,1700,,
Pattern Pixel Width (nm):,   7.03,,,,
Exposure (ms):,  0.635,,,,
Digital Resolution:,228,,
Num Repeats:,6,,
PGA Gain:,64,,
Total Measurement Time in sec:,  2.693,,
Wavelength (nm),Absorbance (AU),Reference Signal (unitless),Sample Signal (unitless)
901.51,1.313641,108485,5269
905.376,1.299836,121306,6082
909.237,1.325926,131909,6228
913.095,1.299031,143299,7198
916.948,1.310093,156982,7687
922.079,1.328264,179937,8450
925.923,1.312584,200504,9762
929.762,1.313897,222660,10808
933.597,1.339123,244426,11195
937.427,1.331123,263972,12315
941.254,1.318488,281845,13537
945.076,1.316967,297271,14328
950.165,1.311877,315605,15391
953.978,1.307283,328029,16167
957.786,1.315966,340470,16448
961.59,1.307059,352317,17373
965.389,1.310066,363056,17779
969.185,1.312160,373162,18186
972.976,1.306251,382632,18903
976.763,1.311823,391202,19080
981.806,1.310942,400190,19558
985.583,1.313669,406088,19722
989.355,1.300461,410162,20535
993.124,1.303846,412868,20510
996.888,1.307625,414263,20401
1000.65,1.310451,415476,20328
1004.4,1.311053,415479,20300
1009.41,1.310994,414358,20248
1013.15,1.307027,412923,20363
1016.89,1.312521,411526,20039
1020.63,1.308209,409066,20118
1024.36,1.305793,406777,20117
1028.09,1.311955,404427,19719
1031.82,1.302796,401911,20014
1036.78,1.307277,398410,19636
1040.49,1.313082,396204,19268
1044.2,1.314541,394236,19108
1047.91,1.304972,392042,19425
1051.61,1.308699,389823,19150
1055.31,1.316440,388234,18735
1059,1.316773,387599,18690
1063.92,1.308242,386688,19016
1067.61,1.309811,386598,18943
1071.29,1.313930,387377,18802
1074.96,1.318380,388536,18666
1078.63,1.313638,389855,18935
1082.3,1.317242,391215,18844
1085.96,1.309320,393215,19289
1090.84,1.312052,396270,19317
1094.49,1.312955,398760,19398
1098.14,1.316337,400987,19355
1101.79,1.317391,403477,19428
1105.43,1.315243,406116,19652
1109.06,1.320753,407701,19480
1112.7,1.316935,409859,19756
1117.53,1.315257,412494,19960
1121.15,1.316945,414909,19999
1124.77,1.312908,416559,20266
1128.38,1.314853,418532,20271
1131.99,1.321349,419956,20038
1135.6,1.321543,421946,20124
1139.2,1.315172,423881,20515
1143.99,1.317462,426786,20547
1147.58,1.319723,428617,20528
1151.17,1.317734,431169,20745
1154.75,1.320511,433579,20728
1158.33,1.321018,436264,20832
1161.91,1.318683,439132,21082
1165.48,1.314013,442389,21468
1169.04,1.319202,446101,21391
1173.79,1.313102,451929,21977
1177.34,1.308761,456026,22399
1180.9,1.318498,461306,22156
1184.44,1.317513,467657,22512
1187.99,1.317149,473969,22835
1191.52,1.323119,479856,22803
1195.06,1.316885,487372,23495
1199.76,1.322480,497347,23669
1203.29,1.314153,504311,24465
1206.81,1.321871,511507,24377
1210.33,1.329287,519078,24319
1213.84,1.317573,527163,25373
1217.35,1.326258,534208,25203
1220.85,1.322384,540472,25727
1225.51,1.325367,549929,25998
1229.01,1.319549,556888,26682
1232.5,1.322795,562180,26735
1235.98,1.320192,567975,27173
1239.46,1.321952,574815,27389
1242.94,1.323230,582782,27687
1246.41,1.317443,591476,28477
1251.03,1.323742,604016,28662
1254.5,1.325413,612289,28943
1257.96,1.327170,619125,29148
1261.41,1.327738,624551,29365
1264.86,1.324924,629900,29809
1268.31,1.321399,634345,30264
1271.75,1.327974,638574,30008
1276.33,1.327693,642499,30212
1279.76,1.324220,645905,30616
1283.19,1.329079,648307,30388
1286.61,1.328129,650446,30555
1290.03,1.320766,652132,31158
1293.44,1.327558,653907,30758
1296.85,1.329161,655963,30741
1301.39,1.334722,657349,30414
1304.8,1.325733,657558,31060
1308.19,1.328270,658515,30924
1311.58,1.326066,658804,31095
1314.97,1.329595,659011,30853
1318.36,1.334633,658272,30463
1321.73,1.332931,658022,30571
1326.23,1.336525,657870,30312
1329.6,1.332297,656482,30544
1332.97,1.332434,654926,30462
1336.33,1.329916,653727,30583
1339.69,1.337182,652497,30019
1343.04,1.331312,649913,30307
1346.39,1.326443,647671,30543
1349.73,1.328373,645338,30298
1354.18,1.328439,641175,30098
1357.52,1.326698,638376,30087
1360.85,1.325624,635805,30040
1364.17,1.326786,633413,29847
1367.49,1.328653,631026,29607
1370.81,1.331661,628050,29264
1374.12,1.331712,625034,29120
1378.54,1.326293,620272,29261
1381.84,1.332812,616892,28668
1385.14,1.324479,613613,29068
1388.43,1.329260,611526,28652
1391.72,1.326439,610663,28798
1395.01,1.325756,610634,28842
1398.29,1.330719,611700,28564
1402.66,1.327773,614051,28869
1405.93,1.331238,616268,28743
1409.2,1.332766,617795,28713
1412.46,1.328694,618872,29034
1415.72,1.334866,619795,28667
1418.98,1.331225,620495,28941
1422.23,1.332285,621087,28898
1426.56,1.324814,621375,29413
1429.8,1.327783,621616,29224
1433.04,1.330540,622129,29063
1436.27,1.329999,621526,29071
1439.5,1.337778,621113,28536
1442.72,1.337598,620921,28539
1445.94,1.331878,620270,28887
1450.23,1.336458,618860,28519
1453.44,1.332803,617697,28706
1456.64,1.331386,616264,28733
1459.85,1.329505,614413,28771
1463.04,1.333544,612307,28407
1466.24,1.332861,610032,28346
1469.43,1.335688,607345,28038
1473.67,1.333247,603789,28031
1476.85,1.338265,601175,27589
1480.02,1.329244,597737,28007
1483.19,1.338786,594479,27249
1486.36,1.333326,591232,27443
1489.52,1.335499,587853,27150
1492.68,1.335826,583875,26946
1496.89,1.340025,578062,26421
1500.03,1.335148,574159,26539
1503.18,1.338388,570285,26164
1506.32,1.337767,565444,25979
1509.45,1.340340,560571,25603
1512.58,1.332290,555821,25861
1515.71,1.332802,550344,25576
1519.87,1.345198,543983,24569
1522.99,1.336177,538764,24844
1526.1,1.340703,533692,24355
1529.21,1.335947,527902,24356
1532.32,1.341510,521886,23772
1535.42,1.338045,515888,23687
1538.51,1.334886,509987,23587
1541.6,1.331123,503936,23510
1545.72,1.336192,494694,22811
1548.8,1.327444,488378,22978
1551.88,1.337365,481832,22158
1554.95,1.331741,474989,22128
1558.02,1.341025,467818,21333
1561.08,1.337992,460730,21157
1564.15,1.348462,454170,20359
1568.22,1.337738,444181,20409
1571.27,1.336930,436947,20114
1574.32,1.336551,429598,19793
1577.36,1.336098,422039,19465
1580.4,1.336497,414375,19094
1583.43,1.325762,406354,19193
1586.46,1.324054,398475,18895
1590.49,1.325064,388982,18402
1593.51,1.333897,380708,17648
1596.53,1.332367,372727,17339
1599.54,1.326912,365060,17197
1602.55,1.326677,357543,16852
1605.55,1.321975,349495,16652
1608.55,1.329863,341154,15962
1612.54,1.327601,330877,15562
1615.53,1.331681,322904,15045
1618.51,1.315058,315116,15255
1621.49,1.333478,307217,14255
1624.47,1.311779,299481,14608
1627.44,1.310244,292112,14299
1630.41,1.319739,284245,13613
1634.36,1.317993,274079,13179
1637.32,1.322776,266916,12694
1640.27,1.313128,259612,12624
1643.22,1.299694,251804,12629
1646.16,1.309226,244348,11989
1649.1,1.326034,236703,11173
1652.04,1.314859,228171,11051
1655.95,1.295716,215408,10903
1658.88,1.284108,204937,10654
1661.8,1.285014,193395,10033
1664.72,1.287395,179728,9273
1667.63,1.261248,163642,8967
1670.54,1.249405,146312,8239
1673.44,1.238100,128451,7424
1677.31,1.185069,105080,6862
1680.21,1.200046,88906,5609
1683.1,1.201863,75033,4714
1685.99,1.195134,63520,4053
1688.87,1.165895,53714,3666
1691.75,1.116022,45653,3495
1694.62,1.202182,39137,2457
1697.49,1.208462,33776,2090
1701.31,1.239278,28175,1624