File: ML/samples/unknown/Column 1_078597_20241121_171031.csv
Method:,Column 1,,
Host Date-Time:,21/11/24 @ 17:10:31,,
Header Version:,1,,
System Temp (C):,36.84,,
Detector Temp (C):,34.85,,
Humidity (%):,1.17,,
Lamp PD:,3798,,
Shift Vector Coefficients:,-10.5391,0.0761263,-0.000134223,,
Pixel to Wavelength Coefficients:,1775.68,-0.916766,-0.000235065,,
Serial Number:,5510004,,
Scan Config Name:,Column 1,,
Scan Config Type:,Slew,,
Section 1,,
Start wavelength (nm):,900,,
End wavelength (nm):,1700,,
Pattern Pixel Width (nm):,   7.03,,,,
Exposure (ms):,  0.635,,,,
Digital Resolution:,228,,
Num Repeats:,6,,
PGA Gain:,64,,
Total Measurement Time in sec:,  2.726,,
Wavelength (nm),Absorbance (AU),Reference Signal (unitless),Sample Signal (unitless)
901.51,1.342963,108485,4925
905.376,1.311267,121306,5924
909.237,1.308164,131909,6488
913.095,1.307131,143299,7065
916.948,1.308233,156982,7720
922.079,1.306659,179937,8881
925.923,1.326599,200504,9452
929.762,1.312733,222660,10837
933.597,1.319553,244426,11711
937.427,1.300688,263972,13209
941.254,1.322970,281845,13398
945.076,1.306663,297271,14672
950.165,1.312979,315605,15352
953.978,1.322064,328029,15626
957.786,1.307623,340470,16767
961.59,1.307960,352317,17337
965.389,1.296219,363056,18355
969.185,1.302992,373162,18574
972.976,1.303639,382632,19017
976.763,1.302901,391202,19476
981.806,1.306150,400190,19775
985.583,1.303140,406088,20206
989.355,1.308120,410162,20176
993.124,1.303168,412868,20542
996.888,1.300488,414263,20739
1000.65,1.297652,415476,20936
1004.4,1.299797,415479,20833
1009.41,1.303635,414358,20594
1013.15,1.308031,412923,20316
1016.89,1.312695,411526,20031
1020.63,1.301674,409066,20423
1024.36,1.302181,406777,20285
1028.09,1.298361,404427,20346
1031.82,1.299209,401911,20180
1036.78,1.304719,398410,19752
1040.49,1.305774,396204,19595
1044.2,1.304321,394236,19563
1047.91,1.300390,392042,19631
1051.61,1.299854,389823,19544
1055.31,1.308583,388234,19077
1059,1.315497,387599,18745
1063.92,1.301151,386688,19329
1067.61,1.308620,386598,18995
1071.29,1.304606,387377,19210
1074.96,1.296909,388536,19612
1078.63,1.309711,389855,19107
1082.3,1.314944,391215,18944
1085.96,1.306046,393215,19435
1090.84,1.310413,396270,19390
1094.49,1.310744,398760,19497
1098.14,1.313029,400987,19503
1101.79,1.301975,403477,20130
1105.43,1.309688,406116,19905
1109.06,1.313479,407701,19809
1112.7,1.309093,409859,20116
1117.53,1.306192,412494,20381
1121.15,1.309218,414909,20358
1124.77,1.305451,416559,20617
1128.38,1.316743,418532,20183
1131.99,1.301440,419956,20978
1135.6,1.309622,421946,20684
1139.2,1.311400,423881,20694
1143.99,1.325763,426786,20158
1147.58,1.310802,428617,20954
1151.17,1.310592,431169,21089
1154.75,1.311327,433579,21171
1158.33,1.309986,436264,21368
1161.91,1.317305,439132,21149
1165.48,1.310627,442389,21636
1169.04,1.311017,446101,21798
1173.79,1.314150,451929,21924
1177.34,1.319379,456026,21858
1180.9,1.312850,461306,22446
1184.44,1.314093,467657,22690
1187.99,1.317206,473969,22832
1191.52,1.320290,479856,22952
1195.06,1.312490,487372,23734
1199.76,1.308203,497347,24460
1203.29,1.310424,504311,24676
1206.81,1.317176,511507,24642
1210.33,1.313401,519078,25225
1213.84,1.321096,527163,25168
1217.35,1.319997,534208,25569
1220.85,1.314008,540472,26228
1225.51,1.323516,549929,26109
1229.01,1.314243,556888,27010
1232.5,1.320446,562180,26880
1235.98,1.316262,567975,27420
1239.46,1.317833,574815,27650
1242.94,1.321805,582782,27778
1246.41,1.315207,591476,28624
1251.03,1.320166,604016,28899
1254.5,1.318919,612289,29379
1257.96,1.317577,619125,29799
1261.41,1.318794,624551,29976
1264.86,1.317657,629900,30312
1268.31,1.321356,634345,30267
1271.75,1.318016,638574,30704
1276.33,1.320282,642499,30732
1279.76,1.321618,645905,30800
1283.19,1.323738,648307,30764
1286.61,1.325338,650446,30752
1290.03,1.322862,652132,31008
1293.44,1.322644,653907,31108
1296.85,1.324902,655963,31044
1301.39,1.323934,657349,31179
1304.8,1.323223,657558,31240
1308.19,1.328495,658515,30908
1311.58,1.321813,658804,31401
1314.97,1.326817,659011,31051
1318.36,1.327604,658272,30960
1321.73,1.322155,658022,31339
1326.23,1.331965,657870,30632
1329.6,1.320030,656482,31419
1332.97,1.324522,654926,31022
1336.33,1.328400,653727,30690
1339.69,1.326225,652497,30786
1343.04,1.325137,649913,30741
1346.39,1.324697,647671,30666
1349.73,1.325915,645338,30470
1354.18,1.322307,641175,30526
1357.52,1.320948,638376,30488
1360.85,1.324613,635805,30110
1364.17,1.325305,633413,29949
1367.49,1.323433,631026,29965
1370.81,1.325677,628050,29670
1374.12,1.321134,625034,29838
1378.54,1.322025,620272,29550
1381.84,1.318053,616892,29659
1385.14,1.320005,613613,29369
1388.43,1.319770,611526,29285
1391.72,1.318504,610663,29329
1395.01,1.322859,610634,29035
1398.29,1.319849,611700,29288
1402.66,1.322851,614051,29198
1405.93,1.323495,616268,29260
1409.2,1.329451,617795,28933
1412.46,1.327245,618872,29131
1415.72,1.329955,619795,28993
1418.98,1.323771,620495,29442
1422.23,1.329513,621087,29083
1426.56,1.328194,621375,29185
1429.8,1.332234,621616,28926
1433.04,1.328260,622129,29216
1436.27,1.329477,621526,29106
1439.5,1.334895,621113,28726
1442.72,1.329099,620921,29103
1445.94,1.330333,620270,28990
1450.23,1.336793,618860,28497
1453.44,1.318399,617697,29674
1456.64,1.322825,616264,29305
1459.85,1.326002,614413,29004
1463.04,1.332521,612307,28474
1466.24,1.327834,610032,28676
1469.43,1.325993,607345,28671
1473.67,1.326315,603789,28482
1476.85,1.323334,601175,28554
1480.02,1.331342,597737,27872
1483.19,1.330795,594479,27755
1486.36,1.335007,591232,27337
1489.52,1.332868,587853,27315
1492.68,1.328728,583875,27390
1496.89,1.332448,578062,26886
1500.03,1.336065,574159,26483
1503.18,1.336202,570285,26296
1506.32,1.327279,565444,26614
1509.45,1.333273,560571,26023
1512.58,1.330329,555821,25978
1515.71,1.329200,550344,25789
1519.87,1.334926,543983,25157
1522.99,1.327027,538764,25373
1526.1,1.331737,533692,24863
1529.21,1.326703,527902,24880
1532.32,1.332703,521886,24259
1535.42,1.325219,515888,24397
1538.51,1.329288,509987,23893
1541.6,1.326968,503936,23736
1545.72,1.327410,494694,23277
1548.8,1.328447,488378,22925
1551.88,1.325113,481832,22792
1554.95,1.329275,474989,22254
1558.02,1.328840,467818,21940
1561.08,1.337664,460730,21173
1564.15,1.322463,454170,21615
1568.22,1.326065,444181,20965
1571.27,1.325551,436947,20648
1574.32,1.322688,429598,20435
1577.36,1.318563,422039,20267
1580.4,1.319021,414375,19878
1583.43,1.321394,406354,19387
1586.46,1.325620,398475,18827
1590.49,1.325820,388982,18370
1593.51,1.322122,380708,18133
1596.53,1.322731,372727,17728
1599.54,1.331839,365060,17003
1602.55,1.319799,357543,17121
1605.55,1.316867,349495,16849
1608.55,1.316600,341154,16457
1612.54,1.330991,330877,15441
1615.53,1.315226,322904,15626
1618.51,1.320213,315116,15075
1621.49,1.312949,307217,14945
1624.47,1.321671,299481,14279
1627.44,1.308546,292112,14355
1630.41,1.314349,284245,13783
1634.36,1.312394,274079,13350
1637.32,1.303733,266916,13263
1640.27,1.301854,259612,12956
1643.22,1.303250,251804,12526
1646.16,1.311368,244348,11930
1649.1,1.304758,236703,11734
1652.04,1.289296,228171,11721
1655.95,1.306116,215408,10645
1658.88,1.288327,204937,10551
1661.8,1.274030,193395,10290
1664.72,1.284781,179728,9329
1667.63,1.256623,163642,9063
1670.54,1.243906,146312,8344
1673.44,1.212156,128451,7881
1677.31,1.220185,105080,6329
1680.21,1.176316,88906,5924
1683.1,1.156585,75033,5232
1685.99,1.121760,63520,4799
1688.87,1.135253,53714,3934
1691.75,1.143993,45653,3277
1694.62,1.214553,39137,2388
1697.49,1.082537,33776,2793
1701.31,1.097681,28175,2250