File: ML/samples/unknown/Column 1_078222_20241121_165128.csv
Method:,Column 1,,
Host Date-Time:,21/11/24 @ 16:51:28,,
Header Version:,1,,
System Temp (C):,33.99,,
Detector Temp (C):,31.29,,
Humidity (%):,3.38,,
Lamp PD:,3803,,
Shift Vector Coefficients:,-10.5391,0.0761263,-0.000134223,,
Pixel to Wavelength Coefficients:,1775.68,-0.916766,-0.000235065,,
Serial Number:,5510004,,
Scan Config Name:,Column 1,,
Scan Config Type:,Slew,,
Section 1,,
Start wavelength (nm):,900,,
End wavelength (nm):,1700,,
Pattern Pixel Width (nm):,   7.03,,,,
Exposure (ms):,  0.635,,,,
Digital Resolution:,228,,
Num Repeats:,6,,
PGA Gain:,64,,
Total Measurement Time in sec:,  2.696,,
Wavelength (nm),Absorbance (AU),Reference Signal (unitless),Sample Signal (unitless)
901.51,1.305881,108485,5364
905.376,1.310315,121306,5937
909.237,1.298564,131909,6633
913.095,1.314446,143299,6947
916.948,1.304424,156982,7788
922.079,1.310588,179937,8801
925.923,1.329967,200504,9379
929.762,1.318868,222660,10685
933.597,1.322008,244426,11645
937.427,1.317788,263972,12699
941.254,1.319580,281845,13503
945.076,1.312834,297271,14465
950.165,1.316530,315605,15227
953.978,1.322120,328029,15624
957.786,1.311056,340470,16635
961.59,1.312821,352317,17144
965.389,1.306175,363056,17939
969.185,1.314291,373162,18097
972.976,1.311683,382632,18668
976.763,1.303481,391202,19450
981.806,1.302345,400190,19949
985.583,1.304345,406088,20150
989.355,1.304669,410162,20337
993.124,1.311256,412868,20163
996.888,1.307795,414263,20393
1000.65,1.315934,415476,20073
1004.4,1.315894,415479,20075
1009.41,1.305283,414358,20516
1013.15,1.314297,412923,20025
1016.89,1.313563,411526,19991
1020.63,1.304340,409066,20298
1024.36,1.303855,406777,20207
1028.09,1.307159,404427,19938
1031.82,1.312761,401911,19560
1036.78,1.313694,398410,19348
1040.49,1.303012,396204,19720
1044.2,1.303478,394236,19601
1047.91,1.311550,392042,19133
1051.61,1.304433,389823,19339
1055.31,1.298503,388234,19525
1059,1.309469,387599,19007
1063.92,1.310394,386688,18922
1067.61,1.301208,386598,19322
1071.29,1.306782,387377,19114
1074.96,1.309468,388536,19053
1078.63,1.304536,389855,19336
1082.3,1.314348,391215,18970
1085.96,1.305577,393215,19456
1090.84,1.310481,396270,19387
1094.49,1.312418,398760,19422
1098.14,1.325704,400987,18942
1101.79,1.317771,403477,19411
1105.43,1.313567,406116,19728
1109.06,1.318862,407701,19565
1112.7,1.315049,409859,19842
1117.53,1.321724,412494,19665
1121.15,1.319143,414909,19898
1124.77,1.314798,416559,20178
1128.38,1.319831,418532,20040
1131.99,1.316500,419956,20263
1135.6,1.322666,421946,20072
1139.2,1.327258,423881,19952
1143.99,1.319198,426786,20465
1147.58,1.310595,428617,20964
1151.17,1.312946,431169,20975
1154.75,1.321497,433579,20681
1158.33,1.311655,436264,21286
1161.91,1.315911,439132,21217
1165.48,1.311572,442389,21589
1169.04,1.315925,446101,21553
1173.79,1.314705,451929,21896
1177.34,1.312050,456026,22230
1180.9,1.319322,461306,22114
1184.44,1.310813,467657,22862
1187.99,1.322449,473969,22558
1191.52,1.319496,479856,22994
1195.06,1.320784,487372,23285
1199.76,1.316304,497347,24008
1203.29,1.316860,504311,24313
1206.81,1.322638,511507,24334
1210.33,1.328092,519078,24386
1213.84,1.321856,527163,25124
1217.35,1.330640,534208,24950
1220.85,1.327359,540472,25434
1225.51,1.320847,549929,26270
1229.01,1.317909,556888,26783
1232.5,1.320236,562180,26893
1235.98,1.319011,567975,27247
1239.46,1.320970,574815,27451
1242.94,1.322964,582782,27704
1246.41,1.319890,591476,28317
1251.03,1.324485,604016,28613
1254.5,1.320356,612289,29282
1257.96,1.322339,619125,29474
1261.41,1.325702,624551,29503
1264.86,1.328905,629900,29537
1268.31,1.330770,634345,29618
1271.75,1.324170,638574,30272
1276.33,1.331229,642499,29967
1279.76,1.330521,645905,30175
1283.19,1.330481,648307,30290
1286.61,1.324083,650446,30841
1290.03,1.328132,652132,30634
1293.44,1.333586,653907,30334
1296.85,1.331428,655963,30581
1301.39,1.327823,657349,30901
1304.8,1.329087,657558,30821
1308.19,1.328031,658515,30941
1311.58,1.335469,658804,30429
1314.97,1.336891,659011,30339
1318.36,1.333266,658272,30559
1321.73,1.332193,658022,30623
1326.23,1.330436,657870,30740
1329.6,1.333764,656482,30441
1332.97,1.330400,654926,30605
1336.33,1.329718,653727,30597
1339.69,1.328687,652497,30612
1343.04,1.325844,649913,30691
1346.39,1.329038,647671,30361
1349.73,1.328445,645338,30293
1354.18,1.329711,641175,30010
1357.52,1.335549,638376,29480
1360.85,1.325537,635805,30046
1364.17,1.331365,633413,29534
1367.49,1.327715,631026,29671
1370.81,1.329765,628050,29392
1374.12,1.323264,625034,29692
1378.54,1.327512,620272,29179
1381.84,1.326480,616892,29089
1385.14,1.327929,613613,28838
1388.43,1.329427,611526,28641
1391.72,1.326062,610663,28823
1395.01,1.324958,610634,28895
1398.29,1.325040,611700,28940
1402.66,1.322747,614051,29205
1405.93,1.321171,616268,29417
1409.2,1.330638,617795,28854
1412.46,1.329772,618872,28962
1415.72,1.331110,619795,28916
1418.98,1.332818,620495,28835
1422.23,1.334031,621087,28782
1426.56,1.330118,621375,29056
1429.8,1.328973,621616,29144
1433.04,1.331303,622129,29012
1436.27,1.333329,621526,28849
1439.5,1.335228,621113,28704
1442.72,1.335790,620921,28658
1445.94,1.329644,620270,29036
1450.23,1.332683,618860,28768
1453.44,1.331157,617697,28815
1456.64,1.337336,616264,28342
1459.85,1.334897,614413,28416
1463.04,1.335674,612307,28268
1466.24,1.333152,610032,28327
1469.43,1.340000,607345,27761
1473.67,1.336809,603789,27802
1476.85,1.331099,601175,28048
1480.02,1.331732,597737,27847
1483.19,1.340511,594479,27141
1486.36,1.338372,591232,27126
1489.52,1.336989,587853,27057
1492.68,1.337392,583875,26849
1496.89,1.336065,578062,26663
1500.03,1.334771,574159,26562
1503.18,1.344607,570285,25792
1506.32,1.336115,565444,26078
1509.45,1.337297,560571,25783
1512.58,1.332206,555821,25866
1515.71,1.337033,550344,25328
1519.87,1.337281,543983,25021
1522.99,1.339582,538764,24650
1526.1,1.332366,533692,24827
1529.21,1.337770,527902,24254
1532.32,1.337075,521886,24016
1535.42,1.336307,515888,23782
1538.51,1.338065,509987,23415
1541.6,1.341006,503936,22981
1545.72,1.337069,494694,22765
1548.8,1.332960,488378,22688
1551.88,1.337287,481832,22162
1554.95,1.334518,474989,21987
1558.02,1.335081,467818,21627
1561.08,1.334374,460730,21334
1564.15,1.339970,454170,20761
1568.22,1.333461,444181,20611
1571.27,1.324878,436947,20680
1574.32,1.331338,429598,20032
1577.36,1.329829,422039,19748
1580.4,1.331117,414375,19332
1583.43,1.335255,406354,18778
1586.46,1.332151,398475,18546
1590.49,1.333982,388982,18028
1593.51,1.333233,380708,17675
1596.53,1.323663,372727,17690
1599.54,1.320818,365060,17440
1602.55,1.326522,357543,16858
1605.55,1.330295,349495,16336
1608.55,1.332374,341154,15870
1612.54,1.333558,330877,15350
1615.53,1.325121,322904,15274
1618.51,1.318775,315116,15125
1621.49,1.334301,307217,14228
1624.47,1.324295,299481,14193
1627.44,1.316423,292112,14097
1630.41,1.321786,284245,13549
1634.36,1.312492,274079,13347
1637.32,1.327800,266916,12548
1640.27,1.312784,259612,12634
1643.22,1.309994,251804,12333
1646.16,1.316458,244348,11791
1649.1,1.313468,236703,11501
1652.04,1.312507,228171,11111
1655.95,1.301611,215408,10756
1658.88,1.307213,204937,10102
1661.8,1.286055,193395,10009
1664.72,1.277167,179728,9494
1667.63,1.257390,163642,9047
1670.54,1.258999,146312,8059
1673.44,1.246129,128451,7288
1677.31,1.282502,105080,5483
1680.21,1.202530,88906,5577
1683.1,1.196552,75033,4772
1685.99,1.221075,63520,3818
1688.87,1.213817,53714,3283
1691.75,1.138855,45653,3316
1694.62,1.182823,39137,2569
1697.49,1.266395,33776,1829
1701.31,1.195074,28175,1798