File: ML/samples/unknown/Column 1_078882_20241121_172644.csv
Method:,Column 1,,
Host Date-Time:,21/11/24 @ 17:26:44,,
Header Version:,1,,
System Temp (C):,37.49,,
Detector Temp (C):,36.21,,
Humidity (%):,0.98,,
Lamp PD:,3796,,
Shift Vector Coefficients:,-10.5391,0.0761263,-0.000134223,,
Pixel to Wavelength Coefficients:,1775.68,-0.916766,-0.000235065,,
Serial Number:,5510004,,
Scan Config Name:,Column 1,,
Scan Config Type:,Slew,,
Section 1,,
Start wavelength (nm):,900,,
End wavelength (nm):,1700,,
Pattern Pixel Width (nm):,   7.03,,,,
Exposure (ms):,  0.635,,,,
Digital Resolution:,228,,
Num Repeats:,6,,
PGA Gain:,64,,
Total Measurement Time in sec:,  2.728,,
Wavelength (nm),Absorbance (AU),Reference Signal (unitless),Sample Signal (unitless)
901.51,1.321208,108485,5178
905.376,1.359524,121306,5301
909.237,1.350085,131909,5891
913.095,1.341862,143299,6522
916.948,1.320731,156982,7501
922.079,1.325957,179937,8495
925.923,1.311740,200504,9781
929.762,1.340834,222660,10158
933.597,1.325791,244426,11544
937.427,1.322257,263972,12569
941.254,1.325898,281845,13308
945.076,1.324457,297271,14083
950.165,1.312640,315605,15364
953.978,1.322315,328029,15617
957.786,1.319785,340470,16304
961.59,1.317969,352317,16942
965.389,1.311020,363056,17740
969.185,1.311516,373162,18213
972.976,1.308924,382632,18787
976.763,1.308399,391202,19231
981.806,1.313682,400190,19435
985.583,1.300355,406088,20336
989.355,1.307755,410162,20193
993.124,1.317570,412868,19872
996.888,1.302987,414263,20620
1000.65,1.313001,415476,20209
1004.4,1.300402,415479,20804
1009.41,1.310286,414358,20281
1013.15,1.309380,412923,20253
1016.89,1.310726,411526,20122
1020.63,1.299341,409066,20533
1024.36,1.304478,406777,20178
1028.09,1.303817,404427,20092
1031.82,1.302948,401911,20007
1036.78,1.308296,398410,19590
1040.49,1.308977,396204,19451
1044.2,1.306257,394236,19476
1047.91,1.307528,392042,19311
1051.61,1.318979,389823,18702
1055.31,1.311874,388234,18933
1059,1.317215,387599,18671
1063.92,1.309339,386688,18968
1067.61,1.307798,386598,19031
1071.29,1.313745,387377,18810
1074.96,1.312786,388536,18908
1078.63,1.304514,389855,19337
1082.3,1.317981,391215,18812
1085.96,1.312189,393215,19162
1090.84,1.312456,396270,19299
1094.49,1.313335,398760,19381
1098.14,1.316921,400987,19329
1101.79,1.310780,403477,19726
1105.43,1.319061,406116,19480
1109.06,1.313435,407701,19811
1112.7,1.316408,409859,19780
1117.53,1.312503,412494,20087
1121.15,1.325033,414909,19630
1124.77,1.320104,416559,19933
1128.38,1.306914,418532,20645
1131.99,1.315280,419956,20320
1135.6,1.316692,421946,20350
1139.2,1.315787,423881,20486
1143.99,1.315353,426786,20647
1147.58,1.322695,428617,20388
1151.17,1.320254,431169,20625
1154.75,1.307528,433579,21357
1158.33,1.314316,436264,21156
1161.91,1.320459,439132,20996
1165.48,1.310126,442389,21661
1169.04,1.321462,446101,21280
1173.79,1.314805,451929,21891
1177.34,1.316587,456026,21999
1180.9,1.317656,461306,22199
1184.44,1.309088,467657,22953
1187.99,1.329495,473969,22195
1191.52,1.319761,479856,22980
1195.06,1.318070,487372,23431
1199.76,1.315346,497347,24061
1203.29,1.321565,504311,24051
1206.81,1.315399,511507,24743
1210.33,1.326545,519078,24473
1213.84,1.318241,527163,25334
1217.35,1.320116,534208,25562
1220.85,1.321103,540472,25803
1225.51,1.320764,549929,26275
1229.01,1.325994,556888,26289
1232.5,1.321757,562180,26799
1235.98,1.326405,567975,26787
1239.46,1.318147,574815,27630
1242.94,1.320431,582782,27866
1246.41,1.326489,591476,27890
1251.03,1.323969,604016,28647
1254.5,1.326254,612289,28887
1257.96,1.321471,619125,29533
1261.41,1.324863,624551,29560
1264.86,1.324822,629900,29816
1268.31,1.326248,634345,29928
1271.75,1.330689,638574,29821
1276.33,1.330173,642499,30040
1279.76,1.330795,645905,30156
1283.19,1.325350,648307,30650
1286.61,1.330695,650446,30375
1290.03,1.329339,652132,30549
1293.44,1.326500,653907,30833
1296.85,1.325826,655963,30978
1301.39,1.326406,657349,31002
1304.8,1.331376,657558,30659
1308.19,1.323243,658515,31284
1311.58,1.330586,658804,30773
1314.97,1.332462,659011,30650
1318.36,1.328798,658272,30875
1321.73,1.329647,658022,30803
1326.23,1.324821,657870,31140
1329.6,1.330778,656482,30651
1332.97,1.333319,654926,30400
1336.33,1.327241,653727,30772
1339.69,1.333781,652497,30255
1343.04,1.329996,649913,30399
1346.39,1.329153,647671,30353
1349.73,1.332029,645338,30044
1354.18,1.324174,641175,30395
1357.52,1.326712,638376,30086
1360.85,1.327871,635805,29885
1364.17,1.335309,633413,29267
1367.49,1.323404,631026,29967
1370.81,1.326908,628050,29586
1374.12,1.321454,625034,29816
1378.54,1.330754,620272,28962
1381.84,1.326674,616892,29076
1385.14,1.328608,613613,28793
1388.43,1.328155,611526,28725
1391.72,1.328935,610663,28633
1395.01,1.330038,610634,28559
1398.29,1.329793,611700,28625
1402.66,1.325477,614051,29022
1405.93,1.333358,616268,28603
1409.2,1.329631,617795,28921
1412.46,1.336710,618872,28503
1415.72,1.328474,619795,29092
1418.98,1.331450,620495,28926
1422.23,1.335543,621087,28682
1426.56,1.336244,621375,28649
1429.8,1.332204,621616,28928
1433.04,1.330465,622129,29068
1436.27,1.332051,621526,28934
1439.5,1.332528,621113,28883
1442.72,1.340575,620921,28344
1445.94,1.336975,620270,28550
1450.23,1.329254,618860,28996
1453.44,1.331896,617697,28766
1456.64,1.332521,616264,28658
1459.85,1.331912,614413,28612
1463.04,1.339873,612307,27996
1466.24,1.334780,610032,28221
1469.43,1.334528,607345,28113
1473.67,1.341000,603789,27535
1476.85,1.327214,601175,28300
1480.02,1.338047,597737,27445
1483.19,1.335199,594479,27475
1486.36,1.339510,591232,27055
1489.52,1.334492,587853,27213
1492.68,1.331001,583875,27247
1496.89,1.342746,578062,26256
1500.03,1.332928,574159,26675
1503.18,1.345534,570285,25737
1506.32,1.334536,565444,26173
1509.45,1.331757,560571,26114
1512.58,1.333686,555821,25778
1515.71,1.339165,550344,25204
1519.87,1.333565,543983,25236
1522.99,1.342428,538764,24489
1526.1,1.339705,533692,24411
1529.21,1.332184,527902,24568
1532.32,1.345991,521886,23528
1535.42,1.329548,515888,24155
1538.51,1.333728,509987,23650
1541.6,1.327755,503936,23693
1545.72,1.344263,494694,22391
1548.8,1.338024,488378,22425
1551.88,1.331544,481832,22457
1554.95,1.337968,474989,21813
1558.02,1.344069,467818,21184
1561.08,1.330423,460730,21529
1564.15,1.337842,454170,20863
1568.22,1.333735,444181,20598
1571.27,1.330692,436947,20405
1574.32,1.332315,429598,19987
1577.36,1.332631,422039,19621
1580.4,1.337453,414375,19052
1583.43,1.334400,406354,18815
1586.46,1.329559,398475,18657
1590.49,1.330168,388982,18187
1593.51,1.327133,380708,17925
1596.53,1.332567,372727,17331
1599.54,1.330665,365060,17049
1602.55,1.332071,357543,16644
1605.55,1.321505,349495,16670
1608.55,1.321990,341154,16254
1612.54,1.331667,330877,15417
1615.53,1.329263,322904,15129
1618.51,1.327710,315116,14817
1621.49,1.326557,307217,14484
1624.47,1.308049,299481,14734
1627.44,1.319390,292112,14001
1630.41,1.331051,284245,13263
1634.36,1.328466,274079,12865
1637.32,1.318995,266916,12805
1640.27,1.311994,259612,12657
1643.22,1.317094,251804,12133
1646.16,1.310968,244348,11941
1649.1,1.316310,236703,11426
1652.04,1.296620,228171,11525
1655.95,1.296473,215408,10884
1658.88,1.288862,204937,10538
1661.8,1.285751,193395,10016
1664.72,1.266637,179728,9727
1667.63,1.255044,163642,9096
1670.54,1.225561,146312,8704
1673.44,1.225985,128451,7634
1677.31,1.182419,105080,6904
1680.21,1.137356,88906,6480
1683.1,1.146736,75033,5352
1685.99,1.156311,63520,4432
1688.87,1.162003,53714,3699
1691.75,1.147586,45653,3250
1694.62,1.144810,39137,2804
1697.49,1.113301,33776,2602
1701.31,1.203612,28175,1763