File: ML/samples/unknown/Column 1_078077_20241121_164420.csv
Method:,Column 1,,
Host Date-Time:,21/11/24 @ 16:44:20,,
Header Version:,1,,
System Temp (C):,31.7,,
Detector Temp (C):,26.55,,
Humidity (%):,5.02,,
Lamp PD:,3808,,
Shift Vector Coefficients:,-10.5391,0.0761263,-0.000134223,,
Pixel to Wavelength Coefficients:,1775.68,-0.916766,-0.000235065,,
Serial Number:,5510004,,
Scan Config Name:,Column 1,,
Scan Config Type:,Slew,,
Section 1,,
Start wavelength (nm):,900,,
End wavelength (nm):,1700,,
Pattern Pixel Width (nm):,   7.03,,,,
Exposure (ms):,  0.635,,,,
Digital Resolution:,228,,
Num Repeats:,6,,
PGA Gain:,64,,
Total Measurement Time in sec:,  2.709,,
Wavelength (nm),Absorbance (AU),Reference Signal (unitless),Sample Signal (unitless)
901.51,1.321375,108485,5176
905.376,1.337092,121306,5582
909.237,1.313484,131909,6409
913.095,1.298669,143299,7204
916.948,1.316639,156982,7572
922.079,1.307638,179937,8861
925.923,1.306751,200504,9894
929.762,1.304752,222660,11038
933.597,1.313624,244426,11872
937.427,1.324127,263972,12515
941.254,1.314941,281845,13648
945.076,1.302715,297271,14806
950.165,1.319420,315605,15126
953.978,1.309329,328029,16091
957.786,1.302960,340470,16948
961.59,1.307484,352317,17356
965.389,1.309212,363056,17814
969.185,1.308072,373162,18358
972.976,1.310754,382632,18708
976.763,1.308535,391202,19225
981.806,1.311964,400190,19512
985.583,1.307069,406088,20024
989.355,1.305995,410162,20275
993.124,1.313610,412868,20054
996.888,1.304464,414263,20550
1000.65,1.315566,415476,20090
1004.4,1.304092,415479,20628
1009.41,1.306682,414358,20450
1013.15,1.311249,412923,20166
1016.89,1.313411,411526,19998
1020.63,1.311611,409066,19961
1024.36,1.310438,406777,19903
1028.09,1.312705,404427,19685
1031.82,1.309531,401911,19706
1036.78,1.316215,398410,19236
1040.49,1.318754,396204,19018
1044.2,1.309030,394236,19352
1047.91,1.302408,392042,19540
1051.61,1.310448,389823,19073
1055.31,1.304573,388234,19254
1059,1.308328,387599,19057
1063.92,1.314128,386688,18760
1067.61,1.309834,386598,18942
1071.29,1.306147,387377,19142
1074.96,1.316986,388536,18726
1078.63,1.312401,389855,18989
1082.3,1.310133,391215,19155
1085.96,1.310470,393215,19238
1090.84,1.321070,396270,18920
1094.49,1.319928,398760,19089
1098.14,1.317303,400987,19312
1101.79,1.305136,403477,19984
1105.43,1.324355,406116,19244
1109.06,1.312384,407701,19859
1112.7,1.310130,409859,20068
1117.53,1.316259,412494,19914
1121.15,1.312946,414909,20184
1124.77,1.321632,416559,19863
1128.38,1.324296,418532,19835
1131.99,1.311768,419956,20485
1135.6,1.319497,421946,20219
1139.2,1.322280,423881,20182
1143.99,1.314786,426786,20674
1147.58,1.321185,428617,20459
1151.17,1.313111,431169,20967
1154.75,1.311286,433579,21173
1158.33,1.318110,436264,20972
1161.91,1.320024,439132,21017
1165.48,1.321460,442389,21103
1169.04,1.315301,446101,21584
1173.79,1.317431,451929,21759
1177.34,1.314028,456026,22129
1180.9,1.319283,461306,22116
1184.44,1.313959,467657,22697
1187.99,1.316332,473969,22878
1191.52,1.322358,479856,22843
1195.06,1.317496,487372,23462
1199.76,1.327407,497347,23402
1203.29,1.326505,504311,23779
1206.81,1.321658,511507,24389
1210.33,1.325075,519078,24556
1213.84,1.327598,527163,24794
1217.35,1.325174,534208,25266
1220.85,1.331321,540472,25203
1225.51,1.323234,549929,26126
1229.01,1.322555,556888,26498
1232.5,1.316490,562180,27126
1235.98,1.318182,567975,27299
1239.46,1.326767,574815,27087
1242.94,1.321805,582782,27778
1246.41,1.332241,591476,27523
1251.03,1.327394,604016,28422
1254.5,1.319511,612289,29339
1257.96,1.327274,619125,29141
1261.41,1.329427,624551,29251
1264.86,1.327042,629900,29664
1268.31,1.328430,634345,29778
1271.75,1.327714,638574,30026
1276.33,1.334181,642499,29764
1279.76,1.331559,645905,30103
1283.19,1.326912,648307,30540
1286.61,1.333363,650446,30189
1290.03,1.331034,652132,30430
1293.44,1.335164,653907,30224
1296.85,1.329798,655963,30696
1301.39,1.333425,657349,30505
1304.8,1.329651,657558,30781
1308.19,1.333355,658515,30564
1311.58,1.332978,658804,30604
1314.97,1.333810,659011,30555
1318.36,1.334975,658272,30439
1321.73,1.327748,658022,30938
1326.23,1.336125,657870,30340
1329.6,1.333807,656482,30438
1332.97,1.332092,654926,30486
1336.33,1.332237,653727,30420
1339.69,1.334385,652497,30213
1343.04,1.337155,649913,29902
1346.39,1.329139,647671,30354
1349.73,1.327958,645338,30327
1354.18,1.328944,641175,30063
1357.52,1.328636,638376,29953
1360.85,1.334121,635805,29458
1364.17,1.329545,633413,29658
1367.49,1.326838,631026,29731
1370.81,1.330505,628050,29342
1374.12,1.333640,625034,28991
1378.54,1.324811,620272,29361
1381.84,1.322705,616892,29343
1385.14,1.330225,613613,28686
1388.43,1.325607,611526,28894
1391.72,1.325897,610663,28834
1395.01,1.328459,610634,28663
1398.29,1.326709,611700,28829
1402.66,1.334092,614051,28452
1405.93,1.331676,616268,28714
1409.2,1.327997,617795,29030
1412.46,1.329847,618872,28957
1415.72,1.329910,619795,28996
1418.98,1.332457,620495,28859
1422.23,1.332270,621087,28899
1426.56,1.331690,621375,28951
1429.8,1.332985,621616,28876
1433.04,1.337226,622129,28619
1436.27,1.335577,621526,28700
1439.5,1.333356,621113,28828
1442.72,1.333463,620921,28812
1445.94,1.334003,620270,28746
1450.23,1.331477,618860,28848
1453.44,1.334182,617697,28615
1456.64,1.336999,616264,28364
1459.85,1.338812,614413,28161
1463.04,1.335751,612307,28263
1466.24,1.336476,610032,28111
1469.43,1.335394,607345,28057
1473.67,1.336154,603789,27844
1476.85,1.340648,601175,27438
1480.02,1.332247,597737,27814
1483.19,1.335531,594479,27454
1486.36,1.336631,591232,27235
1489.52,1.340859,587853,26817
1492.68,1.334474,583875,27030
1496.89,1.337125,578062,26598
1500.03,1.335721,574159,26504
1503.18,1.337774,570285,26201
1506.32,1.339627,565444,25868
1509.45,1.336540,560571,25828
1512.58,1.337714,555821,25540
1515.71,1.336040,550344,25386
1519.87,1.342273,543983,24735
1522.99,1.340870,538764,24577
1526.1,1.342364,533692,24262
1529.21,1.342324,527902,24001
1532.32,1.336930,521886,24024
1535.42,1.337441,515888,23720
1538.51,1.339849,509987,23319
1541.6,1.342521,503936,22901
1545.72,1.332250,494694,23019
1548.8,1.340646,488378,22290
1551.88,1.336210,481832,22217
1554.95,1.332940,474989,22067
1558.02,1.332518,467818,21755
1561.08,1.333378,460730,21383
1564.15,1.334937,454170,21003
1568.22,1.333271,444181,20620
1571.27,1.331075,436947,20387
1574.32,1.336046,429598,19816
1577.36,1.335095,422039,19510
1580.4,1.335043,414375,19158
1583.43,1.334423,406354,18814
1586.46,1.329094,398475,18677
1590.49,1.329333,388982,18222
1593.51,1.329733,380708,17818
1596.53,1.324031,372727,17675
1599.54,1.333425,365060,16941
1602.55,1.331653,357543,16660
1605.55,1.323202,349495,16605
1608.55,1.331499,341154,15902
1612.54,1.330429,330877,15461
1615.53,1.320173,322904,15449
1618.51,1.324847,315116,14915
1621.49,1.321786,307217,14644
1624.47,1.326658,299481,14116
1627.44,1.325199,292112,13815
1630.41,1.333152,284245,13199
1634.36,1.319909,274079,13121
1637.32,1.332778,266916,12405
1640.27,1.323326,259612,12331
1643.22,1.320148,251804,12048
1646.16,1.315869,244348,11807
1649.1,1.326890,236703,11151
1652.04,1.328309,228171,10714
1655.95,1.325301,215408,10185
1658.88,1.311490,204937,10003
1661.8,1.293627,193395,9836
1664.72,1.352123,179728,7989
1667.63,1.329439,163642,7664
1670.54,1.299761,146312,7337
1673.44,1.316346,128451,6200
1677.31,1.299051,105080,5278
1680.21,1.312443,88906,4330
1683.1,1.357529,75033,3294
1685.99,1.268504,63520,3423
1688.87,1.283395,53714,2797
1691.75,1.305553,45653,2259
1694.62,1.256528,39137,2168
1697.49,1.409682,33776,1315
1701.31,1.377246,28175,1182