File: ML/samples/unknown/Column 1_078419_20241121_170145.csv
Method:,Column 1,,
Host Date-Time:,21/11/24 @ 17:1:45,,
Header Version:,1,,
System Temp (C):,34.77,,
Detector Temp (C):,33.73,,
Humidity (%):,2.4,,
Lamp PD:,3802,,
Shift Vector Coefficients:,-10.5391,0.0761263,-0.000134223,,
Pixel to Wavelength Coefficients:,1775.68,-0.916766,-0.000235065,,
Serial Number:,5510004,,
Scan Config Name:,Column 1,,
Scan Config Type:,Slew,,
Section 1,,
Start wavelength (nm):,900,,
End wavelength (nm):,1700,,
Pattern Pixel Width (nm):,   7.03,,,,
Exposure (ms):,  0.635,,,,
Digital Resolution:,228,,
Num Repeats:,6,,
PGA Gain:,64,,
Total Measurement Time in sec:,  2.707,,
Wavelength (nm),Absorbance (AU),Reference Signal (unitless),Sample Signal (unitless)
901.51,1.338489,108485,4976
905.376,1.314431,121306,5881
909.237,1.335372,131909,6094
913.095,1.325590,143299,6771
916.948,1.321310,156982,7491
922.079,1.319261,179937,8627
925.923,1.319264,200504,9613
929.762,1.322132,222660,10605
933.597,1.325942,244426,11540
937.427,1.321705,263972,12585
941.254,1.323360,281845,13386
945.076,1.324766,297271,14073
950.165,1.307609,315605,15543
953.978,1.321426,328029,15649
957.786,1.301834,340470,16992
961.59,1.316076,352317,17016
965.389,1.311681,363056,17713
969.185,1.300567,373162,18678
972.976,1.313479,382632,18591
976.763,1.312757,391202,19039
981.806,1.308594,400190,19664
985.583,1.306744,406088,20039
989.355,1.305673,410162,20290
993.124,1.319717,412868,19774
996.888,1.309780,414263,20300
1000.65,1.301026,415476,20774
1004.4,1.305737,415479,20550
1009.41,1.317128,414358,19964
1013.15,1.313343,412923,20069
1016.89,1.305577,411526,20362
1020.63,1.314646,409066,19822
1024.36,1.316193,406777,19641
1028.09,1.320047,404427,19355
1031.82,1.313428,401911,19530
1036.78,1.314436,398410,19315
1040.49,1.309312,396204,19436
1044.2,1.307328,394236,19428
1047.91,1.318136,392042,18845
1051.61,1.325319,389823,18431
1055.31,1.312012,388234,18927
1059,1.311737,387599,18908
1063.92,1.317078,386688,18633
1067.61,1.308186,386598,19014
1071.29,1.314138,387377,18793
1074.96,1.305949,388536,19208
1078.63,1.317393,389855,18772
1082.3,1.316644,391215,18870
1085.96,1.322649,393215,18706
1090.84,1.321231,396270,18913
1094.49,1.312395,398760,19423
1098.14,1.314188,400987,19451
1101.79,1.322314,403477,19209
1105.43,1.312885,406116,19759
1109.06,1.325753,407701,19257
1112.7,1.321066,409859,19569
1117.53,1.322342,412494,19637
1121.15,1.319799,414909,19868
1124.77,1.322310,416559,19832
1128.38,1.324231,418532,19838
1131.99,1.316564,419956,20260
1135.6,1.320250,421946,20184
1139.2,1.318786,423881,20345
1143.99,1.323656,426786,20256
1147.58,1.319384,428617,20544
1151.17,1.324741,431169,20413
1154.75,1.322632,433579,20627
1158.33,1.318503,436264,20953
1161.91,1.320252,439132,21006
1165.48,1.321337,442389,21109
1169.04,1.319710,446101,21366
1173.79,1.316953,451929,21783
1177.34,1.318843,456026,21885
1180.9,1.317793,461306,22192
1184.44,1.320553,467657,22355
1187.99,1.321065,473969,22630
1191.52,1.316129,479856,23173
1195.06,1.321158,487372,23265
1199.76,1.320576,497347,23773
1203.29,1.324519,504311,23888
1206.81,1.323764,511507,24271
1210.33,1.320658,519078,24807
1213.84,1.330110,527163,24651
1217.35,1.327846,534208,25111
1220.85,1.329018,540472,25337
1225.51,1.322868,549929,26148
1229.01,1.322670,556888,26491
1232.5,1.320349,562180,26886
1235.98,1.326648,567975,26772
1239.46,1.321429,574815,27422
1242.94,1.320837,582782,27840
1246.41,1.319583,591476,28337
1251.03,1.325534,604016,28544
1254.5,1.327654,612289,28794
1257.96,1.332627,619125,28784
1261.41,1.329353,624551,29256
1264.86,1.327467,629900,29635
1268.31,1.328168,634345,29796
1271.75,1.325866,638574,30154
1276.33,1.328470,642499,30158
1279.76,1.331559,645905,30103
1283.19,1.335935,648307,29912
1286.61,1.325705,650446,30726
1290.03,1.334544,652132,30185
1293.44,1.330164,653907,30574
1296.85,1.327680,655963,30846
1301.39,1.334023,657349,30463
1304.8,1.337884,657558,30203
1308.19,1.331526,658515,30693
1311.58,1.329149,658804,30875
1314.97,1.333782,659011,30557
1318.36,1.334832,658272,30449
1321.73,1.333898,658022,30503
1326.23,1.334510,657870,30453
1329.6,1.338209,656482,30131
1332.97,1.331835,654926,30504
1336.33,1.337422,653727,30059
1339.69,1.331534,652497,30412
1343.04,1.333453,649913,30158
1346.39,1.330313,647671,30272
1349.73,1.332680,645338,29999
1354.18,1.330986,641175,29922
1357.52,1.331955,638376,29725
1360.85,1.331504,635805,29636
1364.17,1.331585,633413,29519
1367.49,1.333773,631026,29260
1370.81,1.324916,628050,29722
1374.12,1.327793,625034,29384
1378.54,1.330334,620272,28990
1381.84,1.326973,616892,29056
1385.14,1.326681,613613,28921
1388.43,1.326887,611526,28809
1391.72,1.328889,610663,28636
1395.01,1.328172,610634,28682
1398.29,1.332578,611700,28442
1402.66,1.332461,614051,28559
1405.93,1.335519,616268,28461
1409.2,1.331950,617795,28767
1412.46,1.330192,618872,28934
1415.72,1.333127,619795,28782
1418.98,1.332156,620495,28879
1422.23,1.338673,621087,28476
1426.56,1.327882,621375,29206
1429.8,1.334100,621616,28802
1433.04,1.338031,622129,28566
1436.27,1.332862,621526,28880
1439.5,1.336349,621113,28630
1442.72,1.333553,620921,28806
1445.94,1.337416,620270,28521
1450.23,1.336991,618860,28484
1453.44,1.338192,617697,28352
1456.64,1.337076,616264,28359
1459.85,1.337934,614413,28218
1463.04,1.331394,612307,28548
1466.24,1.341355,610032,27797
1469.43,1.338330,607345,27868
1473.67,1.332890,603789,28054
1476.85,1.331378,601175,28030
1480.02,1.337383,597737,27487
1483.19,1.337147,594479,27352
1486.36,1.336678,591232,27232
1489.52,1.338936,587853,26936
1492.68,1.338526,583875,26779
1496.89,1.333402,578062,26827
1500.03,1.337050,574159,26423
1503.18,1.336549,570285,26275
1506.32,1.340938,565444,25790
1509.45,1.333791,560571,25992
1512.58,1.335746,555821,25656
1515.71,1.336331,550344,25369
1519.87,1.330478,543983,25416
1522.99,1.337087,538764,24792
1526.1,1.343583,533692,24194
1529.21,1.346177,527902,23789
1532.32,1.336370,521886,24055
1535.42,1.335213,515888,23842
1538.51,1.342577,509987,23173
1541.6,1.342654,503936,22894
1545.72,1.328456,494694,23221
1548.8,1.338198,488378,22416
1551.88,1.337189,481832,22167
1554.95,1.338646,474989,21779
1558.02,1.336791,467818,21542
1561.08,1.334496,460730,21328
1564.15,1.336491,454170,20928
1568.22,1.336124,444181,20485
1571.27,1.337427,436947,20091
1574.32,1.338706,429598,19695
1577.36,1.332123,422039,19644
1580.4,1.334885,414375,19165
1583.43,1.326260,406354,19171
1586.46,1.329047,398475,18679
1590.49,1.326838,388982,18327
1593.51,1.325971,380708,17973
1596.53,1.333571,372727,17291
1599.54,1.329190,365060,17107
1602.55,1.332776,357543,16617
1605.55,1.324381,349495,16560
1608.55,1.330217,341154,15949
1612.54,1.328467,330877,15531
1615.53,1.325775,322904,15251
1618.51,1.331124,315116,14701
1621.49,1.330593,307217,14350
1624.47,1.330365,299481,13996
1627.44,1.338477,292112,13399
1630.41,1.300671,284245,14224
1634.36,1.310641,274079,13404
1637.32,1.327281,266916,12563
1640.27,1.311411,259612,12674
1643.22,1.304744,251804,12483
1646.16,1.332401,244348,11366
1649.1,1.314716,236703,11468
1652.04,1.306722,228171,11260
1655.95,1.317483,215408,10370
1658.88,1.293503,204937,10426
1661.8,1.300077,193395,9691
1664.72,1.292152,179728,9172
1667.63,1.270005,163642,8788
1670.54,1.247355,146312,8278
1673.44,1.237632,128451,7432
1677.31,1.209075,105080,6493
1680.21,1.191459,88906,5721
1683.1,1.209765,75033,4629
1685.99,1.164921,63520,4345
1688.87,1.160480,53714,3712
1691.75,1.221402,45653,2742
1694.62,1.226165,39137,2325
1697.49,1.254681,33776,1879
1701.31,1.164307,28175,1930