File: ML/samples/unknown/Column 1_078220_20241121_165122.csv
Method:,Column 1,,
Host Date-Time:,21/11/24 @ 16:51:22,,
Header Version:,1,,
System Temp (C):,34.07,,
Detector Temp (C):,31.16,,
Humidity (%):,3.18,,
Lamp PD:,3803,,
Shift Vector Coefficients:,-10.5391,0.0761263,-0.000134223,,
Pixel to Wavelength Coefficients:,1775.68,-0.916766,-0.000235065,,
Serial Number:,5510004,,
Scan Config Name:,Column 1,,
Scan Config Type:,Slew,,
Section 1,,
Start wavelength (nm):,900,,
End wavelength (nm):,1700,,
Pattern Pixel Width (nm):,   7.03,,,,
Exposure (ms):,  0.635,,,,
Digital Resolution:,228,,
Num Repeats:,6,,
PGA Gain:,64,,
Total Measurement Time in sec:,  2.728,,
Wavelength (nm),Absorbance (AU),Reference Signal (unitless),Sample Signal (unitless)
901.51,1.301370,108485,5420
905.376,1.327931,121306,5701
909.237,1.336585,131909,6077
913.095,1.334664,143299,6631
916.948,1.335811,156982,7245
922.079,1.326213,179937,8490
925.923,1.335700,200504,9256
929.762,1.326618,222660,10496
933.597,1.334915,244426,11304
937.427,1.323641,263972,12529
941.254,1.327401,281845,13262
945.076,1.326745,297271,14009
950.165,1.308084,315605,15526
953.978,1.305915,328029,16218
957.786,1.317420,340470,16393
961.59,1.312037,352317,17175
965.389,1.317730,363056,17468
969.185,1.312949,373162,18153
972.976,1.303662,382632,19016
976.763,1.319099,391202,18763
981.806,1.310587,400190,19574
985.583,1.313735,406088,19719
989.355,1.314081,410162,19901
993.124,1.310052,412868,20219
996.888,1.317442,414263,19945
1000.65,1.318124,415476,19972
1004.4,1.306139,415479,20531
1009.41,1.312928,414358,20158
1013.15,1.307796,412923,20327
1016.89,1.320328,411526,19682
1020.63,1.303016,409066,20360
1024.36,1.308957,406777,19971
1028.09,1.305333,404427,20022
1031.82,1.314162,401911,19497
1036.78,1.315494,398410,19268
1040.49,1.315909,396204,19143
1044.2,1.319294,394236,18900
1047.91,1.315403,392042,18964
1051.61,1.316687,389823,18801
1055.31,1.313782,388234,18850
1059,1.311163,387599,18933
1063.92,1.313711,386688,18778
1067.61,1.313541,386598,18781
1071.29,1.315735,387377,18724
1074.96,1.312625,388536,18915
1078.63,1.314671,389855,18890
1082.3,1.314440,391215,18966
1085.96,1.320334,393215,18806
1090.84,1.315460,396270,19166
1094.49,1.321867,398760,19004
1098.14,1.318497,400987,19259
1101.79,1.313696,403477,19594
1105.43,1.323138,406116,19298
1109.06,1.308401,407701,20042
1112.7,1.326425,409859,19329
1117.53,1.322851,412494,19614
1121.15,1.314930,414909,20092
1124.77,1.313659,416559,20231
1128.38,1.320200,418532,20023
1131.99,1.326561,419956,19799
1135.6,1.327059,421946,19870
1139.2,1.321527,423881,20217
1143.99,1.318181,426786,20513
1147.58,1.326396,428617,20215
1151.17,1.324294,431169,20434
1154.75,1.319402,433579,20781
1158.33,1.316621,436264,21044
1161.91,1.328391,439132,20616
1165.48,1.321934,442389,21080
1169.04,1.313134,446101,21692
1173.79,1.326528,451929,21308
1177.34,1.316429,456026,22007
1180.9,1.319754,461306,22092
1184.44,1.320067,467657,22380
1187.99,1.318902,473969,22743
1191.52,1.326522,479856,22625
1195.06,1.316091,487372,23538
1199.76,1.322737,497347,23655
1203.29,1.315736,504311,24376
1206.81,1.321818,511507,24380
1210.33,1.328520,519078,24362
1213.84,1.330110,527163,24651
1217.35,1.327380,534208,25138
1220.85,1.324279,540472,25615
1225.51,1.320301,549929,26303
1229.01,1.326672,556888,26248
1232.5,1.318930,562180,26974
1235.98,1.327347,567975,26729
1239.46,1.330325,574815,26866
1242.94,1.328708,582782,27340
1246.41,1.321950,591476,28183
1251.03,1.325655,604016,28536
1254.5,1.332355,612289,28484
1257.96,1.327497,619125,29126
1261.41,1.332422,624551,29050
1264.86,1.328670,629900,29553
1268.31,1.327731,634345,29826
1271.75,1.335110,638574,29519
1276.33,1.330664,642499,30006
1279.76,1.331270,645905,30123
1283.19,1.332105,648307,30177
1286.61,1.329310,650446,30472
1290.03,1.324602,652132,30884
1293.44,1.329894,653907,30593
1296.85,1.330449,655963,30650
1301.39,1.339374,657349,30090
1304.8,1.333193,657558,30531
1308.19,1.327386,658515,30987
1311.58,1.336354,658804,30367
1314.97,1.332958,659011,30615
1318.36,1.335403,658272,30409
1321.73,1.334325,658022,30473
1326.23,1.335967,657870,30351
1329.6,1.334392,656482,30397
1332.97,1.334764,654926,30299
1336.33,1.332995,653727,30367
1339.69,1.336301,652497,30080
1343.04,1.337344,649913,29889
1346.39,1.329496,647671,30329
1349.73,1.334479,645338,29875
1354.18,1.331480,641175,29888
1357.52,1.333096,638376,29647
1360.85,1.330261,635805,29721
1364.17,1.332071,633413,29486
1367.49,1.328228,631026,29636
1370.81,1.327554,628050,29542
1374.12,1.327379,625034,29412
1378.54,1.338653,620272,28440
1381.84,1.326570,616892,29083
1385.14,1.333919,613613,28443
1388.43,1.327339,611526,28779
1391.72,1.322626,610663,29052
1395.01,1.325259,610634,28875
1398.29,1.328823,611700,28689
1402.66,1.332431,614051,28561
1405.93,1.333814,616268,28573
1409.2,1.331542,617795,28794
1412.46,1.328993,618872,29014
1415.72,1.338655,619795,28418
1418.98,1.335993,620495,28625
1422.23,1.335861,621087,28661
1426.56,1.336244,621375,28649
1429.8,1.333211,621616,28861
1433.04,1.333539,622129,28863
1436.27,1.337823,621526,28552
1439.5,1.337428,621113,28559
1442.72,1.334444,620921,28747
1445.94,1.338880,620270,28425
1450.23,1.336702,618860,28503
1453.44,1.340003,617697,28234
1456.64,1.331991,616264,28693
1459.85,1.336015,614413,28343
1463.04,1.333467,612307,28412
1466.24,1.337373,610032,28053
1469.43,1.336417,607345,27991
1473.67,1.338970,603789,27664
1476.85,1.332153,601175,27980
1480.02,1.334423,597737,27675
1483.19,1.337020,594479,27360
1486.36,1.331006,591232,27590
1489.52,1.334572,587853,27208
1492.68,1.342632,583875,26527
1496.89,1.342647,578062,26262
1500.03,1.336886,574159,26433
1503.18,1.334949,570285,26372
1506.32,1.335716,565444,26102
1509.45,1.340492,560571,25594
1512.58,1.334782,555821,25713
1515.71,1.342295,550344,25023
1519.87,1.341817,543983,24761
1522.99,1.337367,538764,24776
1526.1,1.346537,533692,24030
1529.21,1.333529,527902,24492
1532.32,1.339760,521886,23868
1535.42,1.334648,515888,23873
1538.51,1.337842,509987,23427
1541.6,1.337337,503936,23176
1545.72,1.345448,494694,22330
1548.8,1.339051,488378,22372
1551.88,1.331041,481832,22483
1554.95,1.336339,474989,21895
1558.02,1.341718,467818,21299
1561.08,1.335822,460730,21263
1564.15,1.340389,454170,20741
1568.22,1.345619,444181,20042
1571.27,1.338704,436947,20032
1574.32,1.339236,429598,19671
1577.36,1.339480,422039,19314
1580.4,1.338115,414375,19023
1583.43,1.331892,406354,18924
1586.46,1.339138,398475,18250
1590.49,1.338632,388982,17836
1593.51,1.346252,380708,17153
1596.53,1.344070,372727,16878
1599.54,1.330997,365060,17036
1602.55,1.323954,357543,16958
1605.55,1.336804,349495,16093
1608.55,1.337854,341154,15671
1612.54,1.333077,330877,15367
1615.53,1.324638,322904,15291
1618.51,1.333078,315116,14635
1621.49,1.324105,307217,14566
1624.47,1.321763,299481,14276
1627.44,1.328512,292112,13710
1630.41,1.338582,284245,13035
1634.36,1.326580,274079,12921
1637.32,1.320864,266916,12750
1640.27,1.318702,259612,12463
1643.22,1.340969,251804,11484
1646.16,1.301080,244348,12216
1649.1,1.329468,236703,11085
1652.04,1.322351,228171,10862
1655.95,1.305179,215408,10668
1658.88,1.299163,204937,10291
1661.8,1.275933,193395,10245
1664.72,1.310726,179728,8788
1667.63,1.274775,163642,8692
1670.54,1.258568,146312,8067
1673.44,1.260056,128451,7058
1677.31,1.241707,105080,6023
1680.21,1.263368,88906,4848
1683.1,1.253142,75033,4189
1685.99,1.251583,63520,3559
1688.87,1.229851,53714,3164
1691.75,1.242330,45653,2613
1694.62,1.154362,39137,2743
1697.49,1.157540,33776,2350
1701.31,1.189077,28175,1823