File: ML/samples/unknown/Column 1_078916_20241121_172822.csv
Method:,Column 1,,
Host Date-Time:,21/11/24 @ 17:28:22,,
Header Version:,1,,
System Temp (C):,36.91,,
Detector Temp (C):,36.33,,
Humidity (%):,0.14,,
Lamp PD:,3796,,
Shift Vector Coefficients:,-10.5391,0.0761263,-0.000134223,,
Pixel to Wavelength Coefficients:,1775.68,-0.916766,-0.000235065,,
Serial Number:,5510004,,
Scan Config Name:,Column 1,,
Scan Config Type:,Slew,,
Section 1,,
Start wavelength (nm):,900,,
End wavelength (nm):,1700,,
Pattern Pixel Width (nm):,   7.03,,,,
Exposure (ms):,  0.635,,,,
Digital Resolution:,228,,
Num Repeats:,6,,
PGA Gain:,64,,
Total Measurement Time in sec:,  2.726,,
Wavelength (nm),Absorbance (AU),Reference Signal (unitless),Sample Signal (unitless)
901.51,1.313065,108485,5276
905.376,1.285301,121306,6289
909.237,1.312604,131909,6422
913.095,1.315698,143299,6927
916.948,1.321600,156982,7486
922.079,1.318758,179937,8637
925.923,1.335137,200504,9268
929.762,1.326784,222660,10492
933.597,1.336570,244426,11261
937.427,1.337053,263972,12148
941.254,1.318809,281845,13527
945.076,1.303419,297271,14782
950.165,1.316558,315605,15226
953.978,1.313124,328029,15951
957.786,1.306976,340470,16792
961.59,1.304367,352317,17481
965.389,1.308676,363056,17836
969.185,1.306891,373162,18408
972.976,1.312592,382632,18629
976.763,1.311118,391202,19111
981.806,1.313280,400190,19453
985.583,1.308046,406088,19979
989.355,1.302496,410162,20439
993.124,1.302746,412868,20562
996.888,1.311731,414263,20209
1000.65,1.307343,415476,20474
1004.4,1.305441,415479,20564
1009.41,1.303656,414358,20593
1013.15,1.309015,412923,20270
1016.89,1.302707,411526,20497
1020.63,1.316028,409066,19759
1024.36,1.312340,406777,19816
1028.09,1.300136,404427,20263
1031.82,1.309972,401911,19686
1036.78,1.312484,398410,19402
1040.49,1.303254,396204,19709
1044.2,1.307082,394236,19439
1047.91,1.305218,392042,19414
1051.61,1.304725,389823,19326
1055.31,1.314913,388234,18801
1059,1.306395,387599,19142
1063.92,1.300455,386688,19360
1067.61,1.308049,386598,19020
1071.29,1.311902,387377,18890
1074.96,1.310792,388536,18995
1078.63,1.303348,389855,19389
1082.3,1.308979,391215,19206
1085.96,1.317548,393215,18927
1090.84,1.311445,396270,19344
1094.49,1.316281,398760,19250
1098.14,1.316674,400987,19340
1101.79,1.318420,403477,19382
1105.43,1.311065,406116,19842
1109.06,1.315259,407701,19728
1112.7,1.314022,409859,19889
1117.53,1.313390,412494,20046
1121.15,1.319231,414909,19894
1124.77,1.315941,416559,20125
1128.38,1.314896,418532,20269
1131.99,1.313595,419956,20399
1135.6,1.311305,421946,20604
1139.2,1.318850,423881,20342
1143.99,1.319050,426786,20472
1147.58,1.318076,428617,20606
1151.17,1.312966,431169,20974
1154.75,1.320322,433579,20737
1158.33,1.319354,436264,20912
1161.91,1.311958,439132,21411
1165.48,1.313709,442389,21483
1169.04,1.313034,446101,21697
1173.79,1.317451,451929,21758
1177.34,1.319181,456026,21868
1180.9,1.314459,461306,22363
1184.44,1.311117,467657,22846
1187.99,1.317568,473969,22813
1191.52,1.314632,479856,23253
1195.06,1.317236,487372,23476
1199.76,1.313221,497347,24179
1203.29,1.319314,504311,24176
1206.81,1.323353,511507,24294
1210.33,1.311872,519078,25314
1213.84,1.317026,527163,25405
1217.35,1.312988,534208,25985
1220.85,1.319792,540472,25881
1225.51,1.321939,549929,26204
1229.01,1.321949,556888,26535
1232.5,1.323039,562180,26720
1235.98,1.317610,567975,27335
1239.46,1.315733,574815,27784
1242.94,1.319357,582782,27935
1246.41,1.317702,591476,28460
1251.03,1.320602,604016,28870
1254.5,1.320845,612289,29249
1257.96,1.320619,619125,29591
1261.41,1.327708,624551,29367
1264.86,1.322339,629900,29987
1268.31,1.328853,634345,29749
1271.75,1.321752,638574,30441
1276.33,1.320564,642499,30712
1279.76,1.318107,645905,31050
1283.19,1.322638,648307,30842
1286.61,1.327362,650446,30609
1290.03,1.326250,652132,30767
1293.44,1.325811,653907,30882
1296.85,1.326135,655963,30956
1301.39,1.330417,657349,30717
1304.8,1.330951,657558,30689
1308.19,1.326448,658515,31054
1311.58,1.329163,658804,30874
1314.97,1.331175,659011,30741
1318.36,1.334248,658272,30490
1321.73,1.332079,658022,30631
1326.23,1.330493,657870,30736
1329.6,1.330637,656482,30661
1332.97,1.333390,654926,30395
1336.33,1.333839,653727,30308
1339.69,1.331134,652497,30440
1343.04,1.330754,649913,30346
1346.39,1.326173,647671,30562
1349.73,1.322748,645338,30693
1354.18,1.329436,641175,30029
1357.52,1.328448,638376,29966
1360.85,1.328583,635805,29836
1364.17,1.320761,633413,30264
1367.49,1.315377,631026,30526
1370.81,1.324785,628050,29731
1374.12,1.325890,625034,29513
1378.54,1.329122,620272,29071
1381.84,1.322187,616892,29378
1385.14,1.329498,613613,28734
1388.43,1.321970,611526,29137
1391.72,1.322088,610663,29088
1395.01,1.327264,610634,28742
1398.29,1.328868,611700,28686
1402.66,1.326181,614051,28975
1405.93,1.325623,616268,29117
1409.2,1.328986,617795,28964
1412.46,1.328111,618872,29073
1415.72,1.330045,619795,28987
1418.98,1.331570,620495,28918
1422.23,1.327993,621087,29185
1426.56,1.328402,621375,29171
1429.8,1.323479,621616,29515
1433.04,1.327473,622129,29269
1436.27,1.331301,621526,28984
1439.5,1.326629,621113,29278
1442.72,1.330489,620921,29010
1445.94,1.329509,620270,29045
1450.23,1.325793,618860,29228
1453.44,1.340342,617697,28212
1456.64,1.328283,616264,28939
1459.85,1.329219,614413,28790
1463.04,1.336289,612307,28228
1466.24,1.332754,610032,28353
1469.43,1.337007,607345,27953
1473.67,1.333216,603789,28033
1476.85,1.329986,601175,28120
1480.02,1.335255,597737,27622
1483.19,1.333668,594479,27572
1486.36,1.329953,591232,27657
1489.52,1.336187,587853,27107
1492.68,1.332310,583875,27165
1496.89,1.338810,578062,26495
1500.03,1.338169,574159,26355
1503.18,1.334685,570285,26388
1506.32,1.335333,565444,26125
1509.45,1.338613,560571,25705
1512.58,1.338242,555821,25509
1515.71,1.329537,550344,25769
1519.87,1.360306,543983,23729
1522.99,1.337946,538764,24743
1526.1,1.326925,533692,25140
1529.21,1.328032,527902,24804
1532.32,1.341346,521886,23781
1535.42,1.329656,515888,24149
1538.51,1.330162,509987,23845
1541.6,1.327059,503936,23731
1545.72,1.328362,494694,23226
1548.8,1.331870,488378,22745
1551.88,1.327291,481832,22678
1554.95,1.334814,474989,21972
1558.02,1.328781,467818,21943
1561.08,1.326707,460730,21714
1564.15,1.337342,454170,20887
1568.22,1.323278,444181,21100
1571.27,1.330245,436947,20426
1574.32,1.331772,429598,20012
1577.36,1.332853,422039,19611
1580.4,1.327337,414375,19501
1583.43,1.330563,406354,18982
1586.46,1.341501,398475,18151
1590.49,1.332539,388982,18088
1593.51,1.319948,380708,18224
1596.53,1.317811,372727,17930
1599.54,1.328835,365060,17121
1602.55,1.329703,357543,16735
1605.55,1.323045,349495,16611
1608.55,1.320177,341154,16322
1612.54,1.317396,330877,15932
1615.53,1.316757,322904,15571
1618.51,1.322379,315116,15000
1621.49,1.311586,307217,14992
1624.47,1.301118,299481,14971
1627.44,1.304751,292112,14481
1630.41,1.322620,284245,13523
1634.36,1.321667,274079,13068
1637.32,1.309767,266916,13080
1640.27,1.318807,259612,12460
1643.22,1.311228,251804,12298
1646.16,1.304506,244348,12120
1649.1,1.304055,236703,11753
1652.04,1.316355,228171,11013
1655.95,1.287313,215408,11116
1658.88,1.280131,204937,10752
1661.8,1.294378,193395,9819
1664.72,1.267441,179728,9709
1667.63,1.245505,163642,9298
1670.54,1.225811,146312,8699
1673.44,1.202241,128451,8063
1677.31,1.177602,105080,6981
1680.21,1.134284,88906,6526
1683.1,1.124898,75033,5628
1685.99,1.085656,63520,5215
1688.87,1.139023,53714,3900
1691.75,1.171342,45653,3077
1694.62,1.115032,39137,3003
1697.49,1.101772,33776,2672
1701.31,1.121484,28175,2130