File: ML/samples/unknown/Column 1_078567_20241121_170902.csv
Method:,Column 1,,
Host Date-Time:,21/11/24 @ 17:9:2,,
Header Version:,1,,
System Temp (C):,36.09,,
Detector Temp (C):,34.46,,
Humidity (%):,1.08,,
Lamp PD:,3799,,
Shift Vector Coefficients:,-10.5391,0.0761263,-0.000134223,,
Pixel to Wavelength Coefficients:,1775.68,-0.916766,-0.000235065,,
Serial Number:,5510004,,
Scan Config Name:,Column 1,,
Scan Config Type:,Slew,,
Section 1,,
Start wavelength (nm):,900,,
End wavelength (nm):,1700,,
Pattern Pixel Width (nm):,   7.03,,,,
Exposure (ms):,  0.635,,,,
Digital Resolution:,228,,
Num Repeats:,6,,
PGA Gain:,64,,
Total Measurement Time in sec:,  2.710,,
Wavelength (nm),Absorbance (AU),Reference Signal (unitless),Sample Signal (unitless)
901.51,1.301691,108485,5416
905.376,1.283646,121306,6313
909.237,1.311119,131909,6444
913.095,1.299454,143299,7191
916.948,1.323053,156982,7461
922.079,1.314305,179937,8726
925.923,1.326094,200504,9463
929.762,1.326287,222660,10504
933.597,1.320705,244426,11680
937.427,1.327017,263972,12432
941.254,1.305530,281845,13947
945.076,1.311605,297271,14506
950.165,1.306465,315605,15584
953.978,1.323903,328029,15560
957.786,1.306175,340470,16823
961.59,1.295928,352317,17824
965.389,1.302703,363056,18083
969.185,1.297924,373162,18792
972.976,1.303342,382632,19030
976.763,1.308399,391202,19231
981.806,1.297625,400190,20167
985.583,1.301831,406088,20267
989.355,1.302963,410162,20417
993.124,1.302176,412868,20589
996.888,1.301789,414263,20677
1000.65,1.300336,415476,20807
1004.4,1.301761,415479,20739
1009.41,1.302813,414358,20633
1013.15,1.307006,412923,20364
1016.89,1.300804,411526,20587
1020.63,1.301143,409066,20448
1024.36,1.309806,406777,19932
1028.09,1.297934,404427,20366
1031.82,1.300610,401911,20115
1036.78,1.305335,398410,19724
1040.49,1.309379,396204,19433
1044.2,1.303279,394236,19610
1047.91,1.307955,392042,19292
1051.61,1.305423,389823,19295
1055.31,1.300956,388234,19415
1059,1.311140,387599,18934
1063.92,1.305441,386688,19139
1067.61,1.305522,386598,19131
1071.29,1.306805,387377,19113
1074.96,1.305204,388536,19241
1078.63,1.302229,389855,19439
1082.3,1.310133,391215,19155
1085.96,1.313688,393215,19096
1090.84,1.311400,396270,19346
1094.49,1.303674,398760,19817
1098.14,1.312739,400987,19516
1101.79,1.312766,403477,19636
1105.43,1.312819,406116,19762
1109.06,1.304539,407701,20221
1112.7,1.313345,409859,19920
1117.53,1.312978,412494,20065
1121.15,1.311957,414909,20230
1124.77,1.314003,416559,20215
1128.38,1.298745,418532,21037
1131.99,1.316929,419956,20243
1135.6,1.310884,421946,20624
1139.2,1.312934,423881,20621
1143.99,1.311938,426786,20810
1147.58,1.310223,428617,20982
1151.17,1.316438,431169,20807
1154.75,1.312333,433579,21122
1158.33,1.309417,436264,21396
1161.91,1.313441,439132,21338
1165.48,1.306174,442389,21859
1169.04,1.312553,446101,21721
1173.79,1.301981,451929,22547
1177.34,1.314047,456026,22128
1180.9,1.307619,461306,22718
1184.44,1.316280,467657,22576
1187.99,1.316256,473969,22882
1191.52,1.315249,479856,23220
1195.06,1.312563,487372,23730
1199.76,1.311769,497347,24260
1203.29,1.322144,504311,24019
1206.81,1.316612,511507,24674
1210.33,1.317623,519078,24981
1213.84,1.313688,527163,25601
1217.35,1.322006,534208,25451
1220.85,1.314903,540472,26174
1225.51,1.319625,549929,26344
1229.01,1.321442,556888,26566
1232.5,1.315434,562180,27192
1235.98,1.314176,567975,27552
1239.46,1.318965,574815,27578
1242.94,1.313275,582782,28329
1246.41,1.315510,591476,28604
1251.03,1.314566,604016,29274
1254.5,1.319896,612289,29313
1257.96,1.322693,619125,29450
1261.41,1.320115,624551,29885
1264.86,1.321875,629900,30019
1268.31,1.321772,634345,30238
1271.75,1.322466,638574,30391
1276.33,1.327391,642499,30233
1279.76,1.318163,645905,31046
1283.19,1.328850,648307,30404
1286.61,1.321164,650446,31049
1290.03,1.323044,652132,30995
1293.44,1.320360,653907,31272
1296.85,1.320850,655963,31335
1301.39,1.326645,657349,30985
1304.8,1.324281,657558,31164
1308.19,1.326043,658515,31083
1311.58,1.329360,658804,30860
1314.97,1.322392,659011,31369
1318.36,1.327282,658272,30983
1321.73,1.328085,658022,30914
1326.23,1.326120,657870,31047
1329.6,1.323458,656482,31172
1332.97,1.331409,654926,30534
1336.33,1.325255,653727,30913
1339.69,1.323862,652497,30954
1343.04,1.316562,649913,31354
1346.39,1.321284,647671,30908
1349.73,1.318552,645338,30991
1354.18,1.322051,641175,30544
1357.52,1.321703,638376,30435
1360.85,1.317872,635805,30581
1364.17,1.324450,633413,30008
1367.49,1.317717,631026,30362
1370.81,1.322846,628050,29864
1374.12,1.323308,625034,29689
1378.54,1.324279,620272,29397
1381.84,1.323090,616892,29317
1385.14,1.325033,613613,29031
1388.43,1.323762,611526,29017
1391.72,1.322970,610663,29029
1395.01,1.321813,610634,29105
1398.29,1.321662,611700,29166
1402.66,1.323685,614051,29142
1405.93,1.320154,616268,29486
1409.2,1.325060,617795,29227
1412.46,1.321690,618872,29506
1415.72,1.330180,619795,28978
1418.98,1.332894,620495,28830
1422.23,1.324746,621087,29404
1426.56,1.328462,621375,29167
1429.8,1.329958,621616,29078
1433.04,1.331962,622129,28968
1436.27,1.324227,621526,29460
1439.5,1.324646,621113,29412
1442.72,1.332605,620921,28869
1445.94,1.331984,620270,28880
1450.23,1.329524,618860,28978
1453.44,1.324457,617697,29263
1456.64,1.329862,616264,28834
1459.85,1.326407,614413,28977
1463.04,1.324511,612307,29004
1466.24,1.329154,610032,28589
1469.43,1.330117,607345,28400
1473.67,1.331175,603789,28165
1476.85,1.336960,601175,27672
1480.02,1.326800,597737,28165
1483.19,1.326328,594479,28042
1486.36,1.328354,591232,27759
1489.52,1.327589,587853,27649
1492.68,1.329903,583875,27316
1496.89,1.334488,578062,26760
1500.03,1.334837,574159,26558
1503.18,1.334061,570285,26426
1506.32,1.325456,565444,26726
1509.45,1.325467,560571,26495
1512.58,1.328294,555821,26100
1515.71,1.333464,550344,25537
1519.87,1.332293,543983,25310
1522.99,1.325080,538764,25487
1526.1,1.321091,533692,25480
1529.21,1.333245,527902,24508
1532.32,1.334209,521886,24175
1535.42,1.331892,515888,24025
1538.51,1.329016,509987,23908
1541.6,1.322037,503936,24007
1545.72,1.333516,494694,22952
1548.8,1.329414,488378,22874
1551.88,1.322208,481832,22945
1554.95,1.333590,474989,22034
1558.02,1.327339,467818,22016
1561.08,1.328209,460730,21639
1564.15,1.329022,454170,21291
1568.22,1.329142,444181,20817
1571.27,1.330586,436947,20410
1574.32,1.324690,429598,20341
1577.36,1.327986,422039,19832
1580.4,1.328519,414375,19448
1583.43,1.327712,406354,19107
1586.46,1.329909,398475,18642
1590.49,1.316165,388982,18783
1593.51,1.321931,380708,18141
1596.53,1.327510,372727,17534
1599.54,1.317000,365060,17594
1602.55,1.326213,357543,16870
1605.55,1.312966,349495,17001
1608.55,1.318822,341154,16373
1612.54,1.324321,330877,15680
1615.53,1.318714,322904,15501
1618.51,1.307775,315116,15513
1621.49,1.322795,307217,14610
1624.47,1.313894,299481,14537
1627.44,1.303134,292112,14535
1630.41,1.311272,284245,13881
1634.36,1.311517,274079,13377
1637.32,1.312632,266916,12994
1640.27,1.303264,259612,12914
1643.22,1.315665,251804,12173
1646.16,1.313631,244348,11868
1649.1,1.308325,236703,11638
1652.04,1.302118,228171,11380
1655.95,1.292106,215408,10994
1658.88,1.295088,204937,10388
1661.8,1.277505,193395,10208
1664.72,1.266503,179728,9730
1667.63,1.252047,163642,9159
1670.54,1.224067,146312,8734
1673.44,1.203211,128451,8045
1677.31,1.167579,105080,7144
1680.21,1.158013,88906,6179
1683.1,1.145602,75033,5366
1685.99,1.165021,63520,4344
1688.87,1.125645,53714,4022
1691.75,1.177597,45653,3033
1694.62,1.111862,39137,3025
1697.49,1.144076,33776,2424
1701.31,1.150139,28175,1994