File: ML/samples/unknown/Column 1_078008_20241121_164059.csv
Method:,Column 1,,
Host Date-Time:,21/11/24 @ 16:40:59,,
Header Version:,1,,
System Temp (C):,29.22,,
Detector Temp (C):,25.01,,
Humidity (%):,7.54,,
Lamp PD:,3816,,
Shift Vector Coefficients:,-10.5391,0.0761263,-0.000134223,,
Pixel to Wavelength Coefficients:,1775.68,-0.916766,-0.000235065,,
Serial Number:,5510004,,
Scan Config Name:,Column 1,,
Scan Config Type:,Slew,,
Section 1,,
Start wavelength (nm):,900,,
End wavelength (nm):,1700,,
Pattern Pixel Width (nm):,   7.03,,,,
Exposure (ms):,  0.635,,,,
Digital Resolution:,228,,
Num Repeats:,6,,
PGA Gain:,64,,
Total Measurement Time in sec:,  2.708,,
Wavelength (nm),Absorbance (AU),Reference Signal (unitless),Sample Signal (unitless)
901.51,1.283321,108485,5650
905.376,1.315096,121306,5872
909.237,1.336014,131909,6085
913.095,1.316263,143299,6918
916.948,1.299765,156982,7872
922.079,1.292041,179937,9185
925.923,1.313876,200504,9733
929.762,1.310854,222660,10884
933.597,1.310961,244426,11945
937.427,1.292190,263972,13470
941.254,1.300976,281845,14094
945.076,1.316119,297271,14356
950.165,1.312216,315605,15379
953.978,1.304979,328029,16253
957.786,1.311160,340470,16631
961.59,1.300977,352317,17618
965.389,1.316613,363056,17513
969.185,1.305713,373162,18458
972.976,1.307032,382632,18869
976.763,1.308038,391202,19247
981.806,1.311408,400190,19537
985.583,1.312043,406088,19796
989.355,1.300418,410162,20537
993.124,1.313979,412868,20037
996.888,1.307072,414263,20427
1000.65,1.302953,415476,20682
1004.4,1.313736,415479,20175
1009.41,1.311294,414358,20234
1013.15,1.313278,412923,20072
1016.89,1.306816,411526,20304
1020.63,1.319183,409066,19616
1024.36,1.302996,406777,20247
1028.09,1.313102,404427,19667
1031.82,1.311232,401911,19629
1036.78,1.305600,398410,19712
1040.49,1.312632,396204,19288
1044.2,1.308941,394236,19356
1047.91,1.300899,392042,19608
1051.61,1.312434,389823,18986
1055.31,1.309244,388234,19048
1059,1.313625,387599,18826
1063.92,1.314661,386688,18737
1067.61,1.320675,386598,18475
1071.29,1.310548,387377,18949
1074.96,1.312855,388536,18905
1078.63,1.319317,389855,18689
1082.3,1.316368,391215,18882
1085.96,1.329623,393215,18408
1090.84,1.317732,396270,19066
1094.49,1.314480,398760,19330
1098.14,1.323920,400987,19020
1101.79,1.312235,403477,19660
1105.43,1.313853,406116,19715
1109.06,1.317576,407701,19623
1112.7,1.320622,409859,19589
1117.53,1.318489,412494,19812
1121.15,1.324944,414909,19634
1124.77,1.327066,416559,19616
1128.38,1.310144,418532,20492
1131.99,1.317208,419956,20230
1135.6,1.323814,421946,20019
1139.2,1.317614,423881,20400
1143.99,1.321987,426786,20334
1147.58,1.322780,428617,20384
1151.17,1.320696,431169,20604
1154.75,1.325802,433579,20477
1158.33,1.316910,436264,21030
1161.91,1.320914,439132,20974
1165.48,1.319940,442389,21177
1169.04,1.326491,446101,21035
1173.79,1.321401,451929,21561
1177.34,1.316409,456026,22008
1180.9,1.322713,461306,21942
1184.44,1.322636,467657,22248
1187.99,1.311330,473969,23143
1191.52,1.318101,479856,23068
1195.06,1.320188,487372,23317
1199.76,1.322608,497347,23662
1203.29,1.323592,504311,23939
1206.81,1.329927,511507,23929
1210.33,1.331543,519078,24193
1213.84,1.321614,527163,25138
1217.35,1.327345,534208,25140
1220.85,1.323991,540472,25632
1225.51,1.333409,549929,25521
1229.01,1.336545,556888,25658
1232.5,1.328897,562180,26362
1235.98,1.329219,567975,26614
1239.46,1.323222,574815,27309
1242.94,1.325164,582782,27564
1246.41,1.329708,591476,27684
1251.03,1.324971,604016,28581
1254.5,1.327745,612289,28788
1257.96,1.328707,619125,29045
1261.41,1.327029,624551,29413
1264.86,1.327540,629900,29630
1268.31,1.329204,634345,29725
1271.75,1.329743,638574,29886
1276.33,1.329349,642499,30097
1279.76,1.329099,645905,30274
1283.19,1.325350,648307,30650
1286.61,1.330381,650446,30397
1290.03,1.324630,652132,30882
1293.44,1.334059,653907,30301
1296.85,1.337491,655963,30157
1301.39,1.330813,657349,30689
1304.8,1.333506,657558,30509
1308.19,1.335435,658515,30418
1311.58,1.330713,658804,30764
1314.97,1.335077,659011,30466
1318.36,1.337867,658272,30237
1321.73,1.331413,658022,30678
1326.23,1.337946,657870,30213
1329.6,1.335594,656482,30313
1332.97,1.334621,654926,30309
1336.33,1.331995,653727,30437
1339.69,1.330179,652497,30507
1343.04,1.333582,649913,30149
1346.39,1.331477,647671,30191
1349.73,1.329478,645338,30221
1354.18,1.330522,641175,29954
1357.52,1.330089,638376,29853
1360.85,1.327696,635805,29897
1364.17,1.329706,633413,29647
1367.49,1.328917,631026,29589
1370.81,1.335342,628050,29017
1374.12,1.334600,625034,28927
1378.54,1.326531,620272,29245
1381.84,1.332161,616892,28711
1385.14,1.332654,613613,28526
1388.43,1.330094,611526,28597
1391.72,1.327360,610663,28737
1395.01,1.327007,610634,28759
1398.29,1.326348,611700,28853
1402.66,1.326346,614051,28964
1405.93,1.332857,616268,28636
1409.2,1.337220,617795,28420
1412.46,1.329667,618872,28969
1415.72,1.330150,619795,28980
1418.98,1.333783,620495,28771
1422.23,1.335876,621087,28660
1426.56,1.332982,621375,28865
1429.8,1.330690,621616,29029
1433.04,1.338001,622129,28568
1436.27,1.330283,621526,29052
1439.5,1.333431,621113,28823
1442.72,1.332605,620921,28869
1445.94,1.330452,620270,28982
1450.23,1.340420,618860,28260
1453.44,1.334076,617697,28622
1456.64,1.334465,616264,28530
1459.85,1.339399,614413,28123
1463.04,1.336135,612307,28238
1466.24,1.339998,610032,27884
1469.43,1.333726,607345,28165
1473.67,1.339976,603789,27600
1476.85,1.336537,601175,27699
1480.02,1.340061,597737,27318
1483.19,1.338547,594479,27264
1486.36,1.337556,591232,27177
1489.52,1.330995,587853,27433
1492.68,1.343238,583875,26490
1496.89,1.334375,578062,26767
1500.03,1.341710,574159,26141
1503.18,1.346615,570285,25673
1506.32,1.337400,565444,26001
1509.45,1.336573,560571,25826
1512.58,1.341197,555821,25336
1515.71,1.341497,550344,25069
1519.87,1.338480,543983,24952
1522.99,1.340781,538764,24582
1526.1,1.341131,533692,24331
1529.21,1.345484,527902,23827
1532.32,1.339269,521886,23895
1535.42,1.341321,515888,23509
1538.51,1.338343,509987,23400
1541.6,1.337018,503936,23193
1545.72,1.338923,494694,22668
1548.8,1.338024,488378,22425
1551.88,1.338268,481832,22112
1554.95,1.336577,474989,21883
1558.02,1.336710,467818,21546
1561.08,1.338938,460730,21111
1564.15,1.333018,454170,21096
1568.22,1.329100,444181,20819
1571.27,1.328929,436947,20488
1574.32,1.339125,429598,19676
1577.36,1.339390,422039,19318
1580.4,1.340059,414375,18938
1583.43,1.327508,406354,19116
1586.46,1.339543,398475,18233
1590.49,1.338413,388982,17845
1593.51,1.337157,380708,17516
1596.53,1.330542,372727,17412
1599.54,1.331124,365060,17031
1602.55,1.334583,357543,16548
1605.55,1.329101,349495,16381
1608.55,1.334458,341154,15794
1612.54,1.327294,330877,15573
1615.53,1.335887,322904,14900
1618.51,1.320761,315116,15056
1621.49,1.328089,307217,14433
1624.47,1.339934,299481,13691
1627.44,1.331979,292112,13601
1630.41,1.328960,284245,13327
1634.36,1.325874,274079,12942
1637.32,1.339374,266916,12218
1640.27,1.324914,259612,12286
1643.22,1.317238,251804,12129
1646.16,1.323850,244348,11592
1649.1,1.311471,236703,11554
1652.04,1.314780,228171,11053
1655.95,1.338153,215408,9888
1658.88,1.329530,204937,9596
1661.8,1.313641,193395,9393
1664.72,1.343885,179728,8142
1667.63,1.352420,163642,7269
1670.54,1.308128,146312,7197
1673.44,1.341136,128451,5856
1677.31,1.331235,105080,4901
1680.21,1.330151,88906,4157
1683.1,1.361635,75033,3263
1685.99,1.271176,63520,3402
1688.87,1.382367,53714,2227
1691.75,1.309221,45653,2240
1694.62,1.312693,39137,1905
1697.49,1.345623,33776,1524
1701.31,1.391818,28175,1143