File: ML/samples/unknown/Column 1_078881_20241121_172641.csv
Method:,Column 1,,
Host Date-Time:,21/11/24 @ 17:26:41,,
Header Version:,1,,
System Temp (C):,37.54,,
Detector Temp (C):,36.13,,
Humidity (%):,0.98,,
Lamp PD:,3796,,
Shift Vector Coefficients:,-10.5391,0.0761263,-0.000134223,,
Pixel to Wavelength Coefficients:,1775.68,-0.916766,-0.000235065,,
Serial Number:,5510004,,
Scan Config Name:,Column 1,,
Scan Config Type:,Slew,,
Section 1,,
Start wavelength (nm):,900,,
End wavelength (nm):,1700,,
Pattern Pixel Width (nm):,   7.03,,,,
Exposure (ms):,  0.635,,,,
Digital Resolution:,228,,
Num Repeats:,6,,
PGA Gain:,64,,
Total Measurement Time in sec:,  2.724,,
Wavelength (nm),Absorbance (AU),Reference Signal (unitless),Sample Signal (unitless)
901.51,1.316121,108485,5239
905.376,1.309438,121306,5949
909.237,1.330694,131909,6160
913.095,1.307746,143299,7055
916.948,1.327793,156982,7380
922.079,1.324630,179937,8521
925.923,1.307278,200504,9882
929.762,1.319112,222660,10679
933.597,1.341184,244426,11142
937.427,1.326179,263972,12456
941.254,1.315514,281845,13630
945.076,1.319795,297271,14235
950.165,1.328823,315605,14802
953.978,1.305540,328029,16232
957.786,1.307520,340470,16771
961.59,1.301298,352317,17605
965.389,1.316192,363056,17530
969.185,1.312542,373162,18170
972.976,1.314180,382632,18561
976.763,1.317966,391202,18812
981.806,1.301519,400190,19987
985.583,1.311407,406088,19825
989.355,1.304370,410162,20351
993.124,1.302577,412868,20570
996.888,1.303873,414263,20578
1000.65,1.306686,415476,20505
1004.4,1.305526,415479,20560
1009.41,1.308470,414358,20366
1013.15,1.305027,412923,20457
1016.89,1.304023,411526,20435
1020.63,1.309138,409066,20075
1024.36,1.299684,406777,20402
1028.09,1.302738,404427,20142
1031.82,1.299898,401911,20148
1036.78,1.304455,398410,19764
1040.49,1.296368,396204,20024
1044.2,1.311416,394236,19246
1047.91,1.314739,392042,18993
1051.61,1.317103,389823,18783
1055.31,1.310340,388234,19000
1059,1.316587,387599,18698
1063.92,1.320142,386688,18502
1067.61,1.311074,386598,18888
1071.29,1.302059,387377,19323
1074.96,1.306786,388536,19171
1078.63,1.309961,389855,19096
1082.3,1.303675,391215,19442
1085.96,1.308084,393215,19344
1090.84,1.310481,396270,19387
1094.49,1.310054,398760,19528
1098.14,1.311606,400987,19567
1101.79,1.316029,403477,19489
1105.43,1.323791,406116,19269
1109.06,1.325798,407701,19255
1112.7,1.314458,409859,19869
1117.53,1.317351,412494,19864
1121.15,1.320915,414909,19817
1124.77,1.314325,416559,20200
1128.38,1.310759,418532,20463
1131.99,1.318929,419956,20150
1135.6,1.311685,421946,20586
1139.2,1.318722,423881,20348
1143.99,1.318795,426786,20484
1147.58,1.311736,428617,20909
1151.17,1.313111,431169,20967
1154.75,1.318650,433579,20817
1158.33,1.317778,436264,20988
1161.91,1.319529,439132,21041
1165.48,1.314499,442389,21444
1169.04,1.316894,446101,21505
1173.79,1.315142,451929,21874
1177.34,1.309926,456026,22339
1180.9,1.313625,461306,22406
1184.44,1.316492,467657,22565
1187.99,1.321738,473969,22595
1191.52,1.318515,479856,23046
1195.06,1.315888,487372,23549
1199.76,1.315870,497347,24032
1203.29,1.322505,504311,23999
1206.81,1.319827,511507,24492
1210.33,1.329126,519078,24328
1213.84,1.323727,527163,25016
1217.35,1.319776,534208,25582
1220.85,1.318552,540472,25955
1225.51,1.317799,549929,26455
1229.01,1.320413,556888,26629
1232.5,1.316458,562180,27128
1235.98,1.320879,567975,27130
1239.46,1.317488,574815,27672
1242.94,1.319326,582782,27937
1246.41,1.315647,591476,28595
1251.03,1.320933,604016,28848
1254.5,1.314888,612289,29653
1257.96,1.324303,619125,29341
1261.41,1.320129,624551,29884
1264.86,1.319639,629900,30174
1268.31,1.321758,634345,30239
1271.75,1.323912,638574,30290
1276.33,1.317549,642499,30926
1279.76,1.327266,645905,30402
1283.19,1.324261,648307,30727
1286.61,1.326427,650446,30675
1290.03,1.329737,652132,30521
1293.44,1.326768,653907,30814
1296.85,1.330123,655963,30673
1301.39,1.325245,657349,31085
1304.8,1.325831,657558,31053
1308.19,1.323716,658515,31250
1311.58,1.327058,658804,31024
1314.97,1.327489,659011,31003
1318.36,1.329080,658272,30855
1321.73,1.331725,658022,30656
1326.23,1.325757,657870,31073
1329.6,1.329081,656482,30771
1332.97,1.329238,654926,30687
1336.33,1.331125,653727,30498
1339.69,1.333279,652497,30290
1343.04,1.327631,649913,30565
1346.39,1.326087,647671,30568
1349.73,1.324861,645338,30544
1354.18,1.326682,641175,30220
1357.52,1.327854,638376,30007
1360.85,1.328729,635805,29826
1364.17,1.330483,633413,29594
1367.49,1.330593,631026,29475
1370.81,1.323982,628050,29786
1374.12,1.330893,625034,29175
1378.54,1.325433,620272,29319
1381.84,1.316430,616892,29770
1385.14,1.322006,613613,29234
1388.43,1.324062,611526,28997
1391.72,1.329709,610663,28582
1395.01,1.330647,610634,28519
1398.29,1.327750,611700,28760
1402.66,1.325567,614051,29016
1405.93,1.331162,616268,28748
1409.2,1.332615,617795,28723
1412.46,1.330643,618872,28904
1415.72,1.322338,619795,29506
1418.98,1.323992,620495,29427
1422.23,1.334847,621087,28728
1426.56,1.323164,621375,29525
1429.8,1.326077,621616,29339
1433.04,1.326539,622129,29332
1436.27,1.329343,621526,29115
1439.5,1.328026,621113,29184
1442.72,1.331508,620921,28942
1445.94,1.331067,620270,28941
1450.23,1.334392,618860,28655
1453.44,1.330795,617697,28839
1456.64,1.329455,616264,28861
1459.85,1.329687,614413,28759
1463.04,1.333636,612307,28401
1466.24,1.331225,610032,28453
1469.43,1.331204,607345,28329
1473.67,1.329421,603789,28279
1476.85,1.328367,601175,28225
1480.02,1.327448,597737,28123
1483.19,1.333086,594479,27609
1486.36,1.336726,591232,27229
1489.52,1.332550,587853,27335
1492.68,1.337068,583875,26869
1496.89,1.331770,578062,26928
1500.03,1.331400,574159,26769
1503.18,1.335130,570285,26361
1506.32,1.336982,565444,26026
1509.45,1.335733,560571,25876
1512.58,1.334343,555821,25739
1515.71,1.334759,550344,25461
1519.87,1.335756,543983,25109
1522.99,1.335863,538764,24862
1526.1,1.328847,533692,25029
1529.21,1.334399,527902,24443
1532.32,1.328161,521886,24514
1535.42,1.332525,515888,23990
1538.51,1.339626,509987,23331
1541.6,1.329629,503936,23591
1545.72,1.339345,494694,22646
1548.8,1.335225,488378,22570
1551.88,1.331834,481832,22442
1554.95,1.337471,474989,21838
1558.02,1.328840,467818,21940
1561.08,1.328310,460730,21634
1564.15,1.333307,454170,21082
1568.22,1.325444,444181,20995
1571.27,1.334691,436947,20218
1574.32,1.327668,429598,20202
1577.36,1.322502,422039,20084
1580.4,1.330623,414375,19354
1583.43,1.330402,406354,18989
1586.46,1.326105,398475,18806
1590.49,1.320323,388982,18604
1593.51,1.329782,380708,17816
1596.53,1.326570,372727,17572
1599.54,1.337779,365060,16772
1602.55,1.321527,357543,17053
1605.55,1.327169,349495,16454
1608.55,1.308728,341154,16758
1612.54,1.323767,330877,15700
1615.53,1.317958,322904,15528
1618.51,1.316798,315116,15194
1621.49,1.312456,307217,14962
1624.47,1.330117,299481,14004
1627.44,1.333130,292112,13565
1630.41,1.317163,284245,13694
1634.36,1.315660,274079,13250
1637.32,1.317539,266916,12848
1640.27,1.300816,259612,12987
1643.22,1.312997,251804,12248
1646.16,1.312937,244348,11887
1649.1,1.293073,236703,12054
1652.04,1.310480,228171,11163
1655.95,1.280760,215408,11285
1658.88,1.290142,204937,10507
1661.8,1.300480,193395,9682
1664.72,1.276207,179728,9515
1667.63,1.256287,163642,9070
1670.54,1.217161,146312,8874
1673.44,1.230388,128451,7557
1677.31,1.205212,105080,6551
1680.21,1.180811,88906,5863
1683.1,1.123358,75033,5648
1685.99,1.129245,63520,4717
1688.87,1.145417,53714,3843
1691.75,1.124936,45653,3424
1694.62,1.123797,39137,2943
1697.49,1.144972,33776,2419
1701.31,1.161168,28175,1944