File: ML/samples/unknown/Column 1_078510_20241121_170613.csv
Method:,Column 1,,
Host Date-Time:,21/11/24 @ 17:6:13,,
Header Version:,1,,
System Temp (C):,34.66,,
Detector Temp (C):,33.83,,
Humidity (%):,2.05,,
Lamp PD:,3800,,
Shift Vector Coefficients:,-10.5391,0.0761263,-0.000134223,,
Pixel to Wavelength Coefficients:,1775.68,-0.916766,-0.000235065,,
Serial Number:,5510004,,
Scan Config Name:,Column 1,,
Scan Config Type:,Slew,,
Section 1,,
Start wavelength (nm):,900,,
End wavelength (nm):,1700,,
Pattern Pixel Width (nm):,   7.03,,,,
Exposure (ms):,  0.635,,,,
Digital Resolution:,228,,
Num Repeats:,6,,
PGA Gain:,64,,
Total Measurement Time in sec:,  2.726,,
Wavelength (nm),Absorbance (AU),Reference Signal (unitless),Sample Signal (unitless)
901.51,1.343758,108485,4916
905.376,1.342888,121306,5508
909.237,1.314094,131909,6400
913.095,1.321124,143299,6841
916.948,1.341058,156982,7158
922.079,1.340936,179937,8207
925.923,1.320395,200504,9588
929.762,1.312613,222660,10840
933.597,1.317703,244426,11761
937.427,1.310564,263972,12912
941.254,1.326714,281845,13283
945.076,1.324334,297271,14087
950.165,1.317700,315605,15186
953.978,1.310329,328029,16054
957.786,1.321760,340470,16230
961.59,1.314369,352317,17083
965.389,1.314017,363056,17618
969.185,1.314267,373162,18098
972.976,1.298644,382632,19237
976.763,1.313442,391202,19009
981.806,1.307888,400190,19696
985.583,1.312087,406088,19794
989.355,1.301074,410162,20506
993.124,1.318949,412868,19809
996.888,1.312915,414263,20154
1000.65,1.304405,415476,20613
1004.4,1.315202,415479,20107
1009.41,1.310693,414358,20262
1013.15,1.317343,412923,19885
1016.89,1.308981,411526,20203
1020.63,1.310047,409066,20033
1024.36,1.312494,406777,19809
1028.09,1.307638,404427,19916
1031.82,1.315836,401911,19422
1036.78,1.312797,398410,19388
1040.49,1.305907,396204,19589
1044.2,1.314973,394236,19089
1047.91,1.308699,392042,19259
1051.61,1.319444,389823,18682
1055.31,1.313207,388234,18875
1059,1.311898,387599,18901
1063.92,1.310463,386688,18919
1067.61,1.310660,386598,18906
1071.29,1.309426,387377,18998
1074.96,1.316917,388536,18729
1078.63,1.314694,389855,18889
1082.3,1.321667,391215,18653
1085.96,1.317181,393215,18943
1090.84,1.310346,396270,19393
1094.49,1.314884,398760,19312
1098.14,1.314546,400987,19435
1101.79,1.306944,403477,19901
1105.43,1.314647,406116,19679
1109.06,1.312363,407701,19860
1112.7,1.308855,409859,20127
1117.53,1.320291,412494,19730
1121.15,1.321880,414909,19773
1124.77,1.312630,416559,20279
1128.38,1.326756,418532,19723
1131.99,1.314042,419956,20378
1135.6,1.316117,421946,20377
1139.2,1.319833,423881,20296
1143.99,1.322650,426786,20303
1147.58,1.318244,428617,20598
1151.17,1.315354,431169,20859
1154.75,1.318671,433579,20816
1158.33,1.312677,436264,21236
1161.91,1.326520,439132,20705
1165.48,1.323420,442389,21008
1169.04,1.315221,446101,21588
1173.79,1.318871,451929,21687
1177.34,1.317931,456026,21931
1180.9,1.318223,461306,22170
1184.44,1.319970,467657,22385
1187.99,1.318902,473969,22743
1191.52,1.317856,479856,23081
1195.06,1.322916,487372,23171
1199.76,1.321252,497347,23736
1203.29,1.319925,504311,24142
1206.81,1.315944,511507,24712
1210.33,1.320116,519078,24838
1213.84,1.324266,527163,24985
1217.35,1.329007,534208,25044
1220.85,1.323940,540472,25635
1225.51,1.344352,549929,24886
1229.01,1.317990,556888,26778
1232.5,1.321141,562180,26837
1235.98,1.322323,567975,27040
1239.46,1.319485,574815,27545
1242.94,1.322071,582782,27761
1246.41,1.319936,591476,28314
1251.03,1.327761,604016,28398
1254.5,1.323422,612289,29076
1257.96,1.327841,619125,29103
1261.41,1.327738,624551,29365
1264.86,1.327789,629900,29613
1268.31,1.332769,634345,29482
1271.75,1.328597,638574,29965
1276.33,1.328053,642499,30187
1279.76,1.328540,645905,30313
1283.19,1.329264,648307,30375
1286.61,1.328926,650446,30499
1290.03,1.330805,652132,30446
1293.44,1.333729,653907,30324
1296.85,1.331101,655963,30604
1301.39,1.329584,657349,30776
1304.8,1.327245,657558,30952
1308.19,1.332234,658515,30643
1311.58,1.330968,658804,30746
1314.97,1.333768,659011,30558
1318.36,1.332528,658272,30611
1321.73,1.335053,658022,30422
1326.23,1.331313,657870,30678
1329.6,1.329575,656482,30736
1332.97,1.335927,654926,30218
1336.33,1.333195,653727,30353
1339.69,1.331448,652497,30418
1343.04,1.332460,649913,30227
1346.39,1.334668,647671,29970
1349.73,1.332304,645338,30025
1354.18,1.328785,641175,30074
1357.52,1.331298,638376,29770
1360.85,1.331578,635805,29631
1364.17,1.331497,633413,29525
1367.49,1.329799,631026,29529
1370.81,1.326703,628050,29600
1374.12,1.326612,625034,29464
1378.54,1.327973,620272,29148
1381.84,1.325213,616892,29174
1385.14,1.329362,613613,28743
1388.43,1.328866,611526,28678
1391.72,1.332881,610663,28374
1395.01,1.332753,610634,28381
1398.29,1.331526,611700,28511
1402.66,1.329657,614051,28744
1405.93,1.332054,616268,28689
1409.2,1.335512,617795,28532
1412.46,1.334673,618872,28637
1415.72,1.336307,619795,28572
1418.98,1.335159,620495,28680
1422.23,1.334499,621087,28751
1426.56,1.333072,621375,28859
1429.8,1.336125,621616,28668
1433.04,1.332832,622129,28910
1436.27,1.337200,621526,28593
1439.5,1.336213,621113,28639
1442.72,1.337217,620921,28564
1445.94,1.330018,620270,29011
1450.23,1.329659,618860,28969
1453.44,1.338023,617697,28363
1456.64,1.333128,616264,28618
1459.85,1.335877,614413,28352
1463.04,1.341163,612307,27913
1466.24,1.340839,610032,27830
1469.43,1.331526,607345,28308
1473.67,1.332519,603789,28078
1476.85,1.336882,601175,27677
1480.02,1.335397,597737,27613
1483.19,1.337942,594479,27302
1486.36,1.336009,591232,27274
1489.52,1.335403,587853,27156
1492.68,1.341112,583875,26620
1496.89,1.336065,578062,26663
1500.03,1.342142,574159,26115
1503.18,1.345180,570285,25758
1506.32,1.338972,565444,25907
1509.45,1.345596,560571,25295
1512.58,1.343448,555821,25205
1515.71,1.339492,550344,25185
1519.87,1.339177,543983,24912
1522.99,1.344757,538764,24358
1526.1,1.335650,533692,24640
1529.21,1.337788,527902,24253
1532.32,1.339305,521886,23893
1535.42,1.327486,515888,24270
1538.51,1.327927,509987,23968
1541.6,1.343451,503936,22852
1545.72,1.337756,494694,22729
1548.8,1.336053,488378,22527
1551.88,1.335410,481832,22258
1554.95,1.339924,474989,21715
1558.02,1.326806,467818,22043
1561.08,1.336783,460730,21216
1564.15,1.336553,454170,20925
1568.22,1.329789,444181,20786
1571.27,1.343544,436947,19810
1574.32,1.334296,429598,19896
1577.36,1.332986,422039,19605
1580.4,1.331184,414375,19329
1583.43,1.338319,406354,18646
1586.46,1.333300,398475,18497
1590.49,1.336155,388982,17938
1593.51,1.330148,380708,17801
1596.53,1.329670,372727,17447
1599.54,1.331150,365060,17030
1602.55,1.326342,357543,16865
1605.55,1.335376,349495,16146
1608.55,1.319805,341154,16336
1612.54,1.330963,330877,15442
1615.53,1.343088,322904,14655
1618.51,1.325780,315116,14883
1621.49,1.312920,307217,14946
1624.47,1.326719,299481,14114
1627.44,1.317410,292112,14065
1630.41,1.330986,284245,13265
1634.36,1.322398,274079,13046
1637.32,1.314709,266916,12932
1640.27,1.312200,259612,12651
1643.22,1.307221,251804,12412
1646.16,1.327500,244348,11495
1649.1,1.317947,236703,11383
1652.04,1.316710,228171,11004
1655.95,1.306606,215408,10633
1658.88,1.302382,204937,10215
1661.8,1.304038,193395,9603
1664.72,1.275067,179728,9540
1667.63,1.272831,163642,8731
1670.54,1.244635,146312,8330
1673.44,1.212322,128451,7878
1677.31,1.193247,105080,6734
1680.21,1.192371,88906,5709
1683.1,1.150321,75033,5308
1685.99,1.153965,63520,4456
1688.87,1.177419,53714,3570
1691.75,1.154455,45653,3199
1694.62,1.208055,39137,2424
1697.49,1.211799,33776,2074
1701.31,1.197496,28175,1788