File: ML/samples/unknown/Column 1_078824_20241121_172356.csv
Method:,Column 1,,
Host Date-Time:,21/11/24 @ 17:23:56,,
Header Version:,1,,
System Temp (C):,37.4,,
Detector Temp (C):,35.58,,
Humidity (%):,1.13,,
Lamp PD:,3797,,
Shift Vector Coefficients:,-10.5391,0.0761263,-0.000134223,,
Pixel to Wavelength Coefficients:,1775.68,-0.916766,-0.000235065,,
Serial Number:,5510004,,
Scan Config Name:,Column 1,,
Scan Config Type:,Slew,,
Section 1,,
Start wavelength (nm):,900,,
End wavelength (nm):,1700,,
Pattern Pixel Width (nm):,   7.03,,,,
Exposure (ms):,  0.635,,,,
Digital Resolution:,228,,
Num Repeats:,6,,
PGA Gain:,64,,
Total Measurement Time in sec:,  2.726,,
Wavelength (nm),Absorbance (AU),Reference Signal (unitless),Sample Signal (unitless)
901.51,1.312160,108485,5287
905.376,1.302414,121306,6046
909.237,1.287766,131909,6800
913.095,1.323862,143299,6798
916.948,1.296686,156982,7928
922.079,1.326622,179937,8482
925.923,1.324903,200504,9489
929.762,1.331236,222660,10385
933.597,1.328811,244426,11464
937.427,1.324266,263972,12511
941.254,1.322776,281845,13404
945.076,1.317817,297271,14300
950.165,1.301781,315605,15753
953.978,1.322843,328029,15598
957.786,1.320798,340470,16266
961.59,1.319304,352317,16890
965.389,1.306418,363056,17929
969.185,1.304045,373162,18529
972.976,1.307101,382632,18866
976.763,1.306866,391202,19299
981.806,1.311942,400190,19513
985.583,1.306008,406088,20073
989.355,1.306145,410162,20268
993.124,1.311191,412868,20166
996.888,1.306689,414263,20445
1000.65,1.310793,415476,20312
1004.4,1.311631,415479,20273
1009.41,1.308641,414358,20358
1013.15,1.316035,412923,19945
1016.89,1.310101,411526,20151
1020.63,1.302973,409066,20362
1024.36,1.316325,406777,19635
1028.09,1.302307,404427,20162
1031.82,1.312140,401911,19588
1036.78,1.314773,398410,19300
1040.49,1.312002,396204,19316
1044.2,1.302792,394236,19632
1047.91,1.310824,392042,19165
1051.61,1.303581,389823,19377
1055.31,1.313851,388234,18847
1059,1.314965,387599,18768
1063.92,1.305873,386688,19120
1067.61,1.305431,386598,19135
1071.29,1.313237,387377,18832
1074.96,1.309536,388536,19050
1078.63,1.315200,389855,18867
1082.3,1.312885,391215,19034
1085.96,1.315305,393215,19025
1090.84,1.311602,396270,19337
1094.49,1.324940,398760,18870
1098.14,1.320101,400987,19188
1101.79,1.309176,403477,19799
1105.43,1.318504,406116,19505
1109.06,1.308574,407701,20034
1112.7,1.322199,409859,19518
1117.53,1.316674,412494,19895
1121.15,1.326806,414909,19550
1124.77,1.321894,416559,19851
1128.38,1.308452,418532,20572
1131.99,1.317444,419956,20219
1135.6,1.316650,421946,20352
1139.2,1.311148,423881,20706
1143.99,1.316659,426786,20585
1147.58,1.322205,428617,20411
1151.17,1.320443,431169,20616
1154.75,1.320532,433579,20727
1158.33,1.320560,436264,20854
1161.91,1.320169,439132,21010
1165.48,1.315736,442389,21383
1169.04,1.317116,446101,21494
1173.79,1.312667,451929,21999
1177.34,1.319260,456026,21864
1180.9,1.312425,461306,22468
1184.44,1.316319,467657,22574
1187.99,1.313682,473969,23018
1191.52,1.312378,479856,23374
1195.06,1.316405,487372,23521
1199.76,1.317263,497347,23955
1203.29,1.322523,504311,23998
1206.81,1.322852,511507,24322
1210.33,1.320308,519078,24827
1213.84,1.322600,527163,25081
1217.35,1.324024,534208,25333
1220.85,1.323415,540472,25666
1225.51,1.321293,549929,26243
1229.01,1.319208,556888,26703
1232.5,1.324618,562180,26623
1235.98,1.323352,567975,26976
1239.46,1.317268,574815,27686
1242.94,1.328978,582782,27323
1246.41,1.319553,591476,28339
1251.03,1.317887,604016,29051
1254.5,1.327458,612289,28807
1257.96,1.326068,619125,29222
1261.41,1.327782,624551,29362
1264.86,1.321601,629900,30038
1268.31,1.325233,634345,29998
1271.75,1.321924,638574,30429
1276.33,1.322392,642499,30583
1279.76,1.324376,645905,30605
1283.19,1.324402,648307,30717
1286.61,1.331912,650446,30290
1290.03,1.325320,652132,30833
1293.44,1.327530,653907,30760
1296.85,1.322293,655963,31231
1301.39,1.330135,657349,30737
1304.8,1.329651,657558,30781
1308.19,1.326420,658515,31056
1311.58,1.329473,658804,30852
1314.97,1.320679,659011,31493
1318.36,1.327380,658272,30976
1321.73,1.333087,658022,30560
1326.23,1.331766,657870,30646
1329.6,1.327503,656482,30883
1332.97,1.329663,654926,30657
1336.33,1.330983,653727,30508
1339.69,1.329368,652497,30564
1343.04,1.320668,649913,31059
1346.39,1.326784,647671,30519
1349.73,1.327514,645338,30358
1354.18,1.326668,641175,30221
1357.52,1.328158,638376,29986
1360.85,1.320036,635805,30429
1364.17,1.327908,633413,29770
1367.49,1.326560,631026,29750
1370.81,1.328732,628050,29462
1374.12,1.329807,625034,29248
1378.54,1.326085,620272,29275
1381.84,1.322867,616892,29332
1385.14,1.322527,613613,29199
1388.43,1.326495,611526,28835
1391.72,1.328965,610663,28631
1395.01,1.328429,610634,28665
1398.29,1.334691,611700,28304
1402.66,1.323372,614051,29163
1405.93,1.328707,616268,28911
1409.2,1.331211,617795,28816
1412.46,1.330959,618872,28883
1415.72,1.330240,619795,28974
1418.98,1.334493,620495,28724
1422.23,1.329857,621087,29060
1426.56,1.329476,621375,29099
1429.8,1.330511,621616,29041
1433.04,1.333509,622129,28865
1436.27,1.334565,621526,28767
1439.5,1.333582,621113,28813
1442.72,1.338557,620921,28476
1445.94,1.332224,620270,28864
1450.23,1.329989,618860,28947
1453.44,1.334303,617697,28607
1456.64,1.332188,616264,28680
1459.85,1.337119,614413,28271
1463.04,1.333574,612307,28405
1466.24,1.334488,610032,28240
1469.43,1.330530,607345,28373
1473.67,1.333138,603789,28038
1476.85,1.332806,601175,27938
1480.02,1.332294,597737,27811
1483.19,1.330404,594479,27780
1486.36,1.332504,591232,27495
1489.52,1.333536,587853,27273
1492.68,1.337602,583875,26836
1496.89,1.335252,578062,26713
1500.03,1.341776,574159,26137
1503.18,1.336384,570285,26285
1506.32,1.332516,565444,26295
1509.45,1.335364,560571,25898
1512.58,1.341626,555821,25311
1515.71,1.333311,550344,25546
1519.87,1.333685,543983,25229
1522.99,1.333806,538764,24980
1526.1,1.336214,533692,24608
1529.21,1.325709,527902,24937
1532.32,1.332399,521886,24276
1535.42,1.335942,515888,23802
1538.51,1.337583,509987,23441
1541.6,1.329022,503936,23624
1545.72,1.329879,494694,23145
1548.8,1.331870,488378,22745
1551.88,1.328192,481832,22631
1554.95,1.330761,474989,22178
1558.02,1.331959,467818,21783
1561.08,1.332728,460730,21415
1564.15,1.331354,454170,21177
1568.22,1.332850,444181,20640
1571.27,1.324312,436947,20707
1574.32,1.334646,429598,19880
1577.36,1.336746,422039,19436
1580.4,1.333844,414375,19211
1583.43,1.325038,406354,19225
1586.46,1.339043,398475,18254
1590.49,1.331771,388982,18120
1593.51,1.333183,380708,17677
1596.53,1.322633,372727,17732
1599.54,1.327013,365060,17193
1602.55,1.333011,357543,16608
1605.55,1.328385,349495,16408
1608.55,1.322632,341154,16230
1612.54,1.320405,330877,15822
1615.53,1.320511,322904,15437
1618.51,1.330887,315116,14709
1621.49,1.319066,307217,14736
1624.47,1.330489,299481,13992
1627.44,1.336150,292112,13471
1630.41,1.330691,284245,13274
1634.36,1.321135,274079,13084
1637.32,1.319402,266916,12793
1640.27,1.313231,259612,12621
1643.22,1.320400,251804,12041
1646.16,1.325652,244348,11544
1649.1,1.296001,236703,11973
1652.04,1.308074,228171,11225
1655.95,1.293293,215408,10964
1658.88,1.291011,204937,10486
1661.8,1.280108,193395,10147
1664.72,1.290498,179728,9207
1667.63,1.256144,163642,9073
1670.54,1.231894,146312,8578
1673.44,1.212542,128451,7874
1677.31,1.185196,105080,6860
1680.21,1.174779,88906,5945
1683.1,1.153771,75033,5266
1685.99,1.173603,63520,4259
1688.87,1.165185,53714,3672
1691.75,1.132872,45653,3362
1694.62,1.166565,39137,2667
1697.49,1.189554,33776,2183
1701.31,1.139808,28175,2042