File: ML/samples/unknown/Column 1_078654_20241121_171544.csv
Method:,Column 1,,
Host Date-Time:,21/11/24 @ 17:15:44,,
Header Version:,1,,
System Temp (C):,34.44,,
Detector Temp (C):,35.36,,
Humidity (%):,1.47,,
Lamp PD:,3806,,
Shift Vector Coefficients:,-10.5391,0.0761263,-0.000134223,,
Pixel to Wavelength Coefficients:,1775.68,-0.916766,-0.000235065,,
Serial Number:,5510004,,
Scan Config Name:,Column 1,,
Scan Config Type:,Slew,,
Section 1,,
Start wavelength (nm):,900,,
End wavelength (nm):,1700,,
Pattern Pixel Width (nm):,   7.03,,,,
Exposure (ms):,  0.635,,,,
Digital Resolution:,228,,
Num Repeats:,6,,
PGA Gain:,64,,
Total Measurement Time in sec:,  2.686,,
Wavelength (nm),Absorbance (AU),Reference Signal (unitless),Sample Signal (unitless)
901.51,1.307585,108485,5343
905.376,1.327703,121306,5704
909.237,1.334233,131909,6110
913.095,1.323990,143299,6796
916.948,1.326618,156982,7400
922.079,1.324121,179937,8531
925.923,1.334435,200504,9283
929.762,1.333836,222660,10323
933.597,1.326883,244426,11515
937.427,1.323156,263972,12543
941.254,1.319516,281845,13505
945.076,1.324272,297271,14089
950.165,1.322850,315605,15007
953.978,1.314542,328029,15899
957.786,1.306873,340470,16796
961.59,1.316561,352317,16997
965.389,1.301720,363056,18124
969.185,1.296886,373162,18837
972.976,1.299865,382632,19183
976.763,1.302344,391202,19501
981.806,1.302803,400190,19928
985.583,1.306549,406088,20048
989.355,1.304199,410162,20359
993.124,1.295478,412868,20909
996.888,1.303409,414263,20600
1000.65,1.307534,415476,20465
1004.4,1.296516,415479,20991
1009.41,1.299584,414358,20787
1013.15,1.300193,412923,20686
1016.89,1.306068,411526,20339
1020.63,1.314997,409066,19806
1024.36,1.300365,406777,20370
1028.09,1.305506,404427,20014
1031.82,1.303991,401911,19959
1036.78,1.307034,398410,19647
1040.49,1.309826,396204,19413
1044.2,1.314609,394236,19105
1047.91,1.308338,392042,19275
1051.61,1.302999,389823,19403
1055.31,1.309381,388234,19042
1059,1.307054,387599,19113
1063.92,1.301893,386688,19296
1067.61,1.313934,386598,18764
1071.29,1.307010,387377,19104
1074.96,1.314742,388536,18823
1078.63,1.303258,389855,19393
1082.3,1.306071,391215,19335
1085.96,1.301997,393215,19617
1090.84,1.311647,396270,19335
1094.49,1.308744,398760,19587
1098.14,1.308863,400987,19691
1101.79,1.316141,403477,19484
1105.43,1.308511,406116,19959
1109.06,1.314841,407701,19747
1112.7,1.300394,409859,20523
1117.53,1.303156,412494,20524
1121.15,1.317227,414909,19986
1124.77,1.312908,416559,20266
1128.38,1.309424,418532,20526
1131.99,1.310984,419956,20522
1135.6,1.314585,421946,20449
1139.2,1.312072,423881,20662
1143.99,1.308343,426786,20983
1147.58,1.310844,428617,20952
1151.17,1.316709,431169,20794
1154.75,1.302836,433579,21589
1158.33,1.310067,436264,21364
1161.91,1.312323,439132,21393
1165.48,1.315147,442389,21412
1169.04,1.303746,446101,22166
1173.79,1.307311,451929,22272
1177.34,1.313557,456026,22153
1180.9,1.313896,461306,22392
1184.44,1.319214,467657,22424
1187.99,1.319380,473969,22718
1191.52,1.311450,479856,23424
1195.06,1.322298,487372,23204
1199.76,1.313042,497347,24189
1203.29,1.318166,504311,24240
1206.81,1.315101,511507,24760
1210.33,1.309750,519078,25438
1213.84,1.310948,527163,25763
1217.35,1.321835,534208,25461
1220.85,1.322992,540472,25691
1225.51,1.318752,549929,26397
1229.01,1.317990,556888,26778
1232.5,1.323315,562180,26703
1235.98,1.318947,567975,27251
1239.46,1.315499,574815,27799
1242.94,1.319218,582782,27944
1246.41,1.316285,591476,28553
1251.03,1.325153,604016,28569
1254.5,1.316870,612289,29518
1257.96,1.320501,619125,29599
1261.41,1.318562,624551,29992
1264.86,1.321167,629900,30068
1268.31,1.318496,634345,30467
1271.75,1.323511,638574,30318
1276.33,1.324813,642499,30413
1279.76,1.321576,645905,30803
1283.19,1.322582,648307,30846
1286.61,1.325861,650446,30715
1290.03,1.325263,652132,30837
1293.44,1.318448,653907,31410
1296.85,1.326921,655963,30900
1301.39,1.329669,657349,30770
1304.8,1.328046,657558,30895
1308.19,1.324063,658515,31225
1311.58,1.329051,658804,30882
1314.97,1.326775,659011,31054
1318.36,1.325645,658272,31100
1321.73,1.328408,658022,30891
1326.23,1.326975,657870,30986
1329.6,1.325385,656482,31034
1332.97,1.324145,654926,31049
1336.33,1.327396,653727,30761
1339.69,1.329923,652497,30525
1343.04,1.325165,649913,30739
1346.39,1.324343,647671,30691
1349.73,1.324066,645338,30600
1354.18,1.327617,641175,30155
1357.52,1.319937,638376,30559
1360.85,1.321294,635805,30341
1364.17,1.326554,633413,29863
1367.49,1.328198,631026,29638
1370.81,1.321800,628050,29936
1374.12,1.324113,625034,29634
1378.54,1.322613,620272,29510
1381.84,1.320461,616892,29495
1385.14,1.319414,613613,29409
1388.43,1.317271,611526,29454
1391.72,1.325460,610663,28863
1395.01,1.325665,610634,28848
1398.29,1.326694,611700,28830
1402.66,1.328089,614051,28848
1405.93,1.330664,616268,28781
1409.2,1.324852,617795,29241
1412.46,1.330162,618872,28936
1415.72,1.331140,619795,28914
1418.98,1.327311,620495,29203
1422.23,1.327205,621087,29238
1426.56,1.321212,621375,29658
1429.8,1.320430,621616,29723
1433.04,1.327295,622129,29281
1436.27,1.330882,621526,29012
1439.5,1.338814,621113,28468
1442.72,1.332349,620921,28886
1445.94,1.324189,620270,29403
1450.23,1.327744,618860,29097
1453.44,1.329217,617697,28944
1456.64,1.334054,616264,28557
1459.85,1.327022,614413,28936
1463.04,1.332155,612307,28498
1466.24,1.327940,610032,28669
1469.43,1.332602,607345,28238
1473.67,1.329191,603789,28294
1476.85,1.330991,601175,28055
1480.02,1.329306,597737,28003
1483.19,1.328859,594479,27879
1486.36,1.332330,591232,27506
1489.52,1.326946,587853,27690
1492.68,1.332614,583875,27146
1496.89,1.329069,578062,27096
1500.03,1.338367,574159,26343
1503.18,1.332846,570285,26500
1506.32,1.331214,565444,26374
1509.45,1.331857,560571,26108
1512.58,1.329594,555821,26022
1515.71,1.331682,550344,25642
1519.87,1.328637,543983,25524
1522.99,1.329912,538764,25205
1526.1,1.330203,533692,24951
1529.21,1.335858,527902,24361
1532.32,1.337328,521886,24002
1535.42,1.325807,515888,24364
1538.51,1.328471,509987,23938
1541.6,1.330735,503936,23531
1545.72,1.333100,494694,22974
1548.8,1.330231,488378,22831
1551.88,1.333968,481832,22332
1554.95,1.333649,474989,22031
1558.02,1.332797,467818,21741
1561.08,1.333622,460730,21371
1564.15,1.331272,454170,21181
1568.22,1.329810,444181,20785
1571.27,1.326393,436947,20608
1574.32,1.323901,429598,20378
1577.36,1.332366,422039,19633
1580.4,1.328630,414375,19443
1583.43,1.325129,406354,19221
1586.46,1.326636,398475,18783
1590.49,1.317833,388982,18711
1593.51,1.328856,380708,17854
1596.53,1.326570,372727,17572
1599.54,1.312530,365060,17776
1602.55,1.315207,357543,17303
1605.55,1.315863,349495,16888
1608.55,1.317657,341154,16417
1612.54,1.309375,330877,16229
1615.53,1.308032,322904,15887
1618.51,1.326569,315116,14856
1621.49,1.305230,307217,15213
1624.47,1.320002,299481,14334
1627.44,1.318368,292112,14034
1630.41,1.307503,284245,14002
1634.36,1.306995,274079,13517
1637.32,1.307878,266916,13137
1640.27,1.308236,259612,12767
1643.22,1.297841,251804,12683
1646.16,1.319823,244348,11700
1649.1,1.305165,236703,11723
1652.04,1.306375,228171,11269
1655.95,1.309968,215408,10551
1658.88,1.291466,204937,10475
1661.8,1.292700,193395,9857
1664.72,1.267799,179728,9701
1667.63,1.254997,163642,9097
1670.54,1.236884,146312,8480
1673.44,1.207715,128451,7962
1677.31,1.185069,105080,6862
1680.21,1.179554,88906,5880
1683.1,1.158415,75033,5210
1685.99,1.192463,63520,4078
1688.87,1.148479,53714,3816
1691.75,1.157726,45653,3175
1694.62,1.140648,39137,2831
1697.49,1.165937,33776,2305
1701.31,1.169286,28175,1908