File: ML/samples/unknown/Column 1_078507_20241121_170604.csv
Method:,Column 1,,
Host Date-Time:,21/11/24 @ 17:6:4,,
Header Version:,1,,
System Temp (C):,34.58,,
Detector Temp (C):,33.83,,
Humidity (%):,1.95,,
Lamp PD:,3800,,
Shift Vector Coefficients:,-10.5391,0.0761263,-0.000134223,,
Pixel to Wavelength Coefficients:,1775.68,-0.916766,-0.000235065,,
Serial Number:,5510004,,
Scan Config Name:,Column 1,,
Scan Config Type:,Slew,,
Section 1,,
Start wavelength (nm):,900,,
End wavelength (nm):,1700,,
Pattern Pixel Width (nm):,   7.03,,,,
Exposure (ms):,  0.635,,,,
Digital Resolution:,228,,
Num Repeats:,6,,
PGA Gain:,64,,
Total Measurement Time in sec:,  2.724,,
Wavelength (nm),Absorbance (AU),Reference Signal (unitless),Sample Signal (unitless)
901.51,1.335012,108485,5016
905.376,1.331219,121306,5658
909.237,1.306093,131909,6519
913.095,1.305291,143299,7095
916.948,1.332646,156982,7298
922.079,1.321937,179937,8574
925.923,1.343846,200504,9084
929.762,1.318299,222660,10699
933.597,1.328584,244426,11470
937.427,1.325831,263972,12466
941.254,1.321676,281845,13438
945.076,1.318911,297271,14264
950.165,1.323053,315605,15000
953.978,1.318411,328029,15758
957.786,1.313465,340470,16543
961.59,1.321805,352317,16793
965.389,1.300977,363056,18155
969.185,1.320186,373162,17853
972.976,1.304806,382632,18966
976.763,1.315113,391202,18936
981.806,1.314039,400190,19419
985.583,1.305424,406088,20100
989.355,1.309069,410162,20132
993.124,1.312486,412868,20106
996.888,1.309032,414263,20335
1000.65,1.309001,415476,20396
1004.4,1.306583,415479,20510
1009.41,1.306555,414358,20456
1013.15,1.313646,412923,20055
1016.89,1.307072,411526,20292
1020.63,1.310525,409066,20011
1024.36,1.311486,406777,19855
1028.09,1.306919,404427,19949
1031.82,1.312983,401911,19550
1036.78,1.311969,398410,19425
1040.49,1.309223,396204,19440
1044.2,1.306680,394236,19457
1047.91,1.313050,392042,19067
1051.61,1.305108,389823,19309
1055.31,1.301740,388234,19380
1059,1.310178,387599,18976
1063.92,1.300747,386688,19347
1067.61,1.318378,386598,18573
1071.29,1.304584,387377,19211
1074.96,1.315620,388536,18785
1078.63,1.315384,389855,18859
1082.3,1.305465,391215,19362
1085.96,1.312779,393215,19136
1090.84,1.313155,396270,19268
1094.49,1.317094,398760,19214
1098.14,1.322529,400987,19081
1101.79,1.313164,403477,19618
1105.43,1.319128,406116,19477
1109.06,1.309312,407701,20000
1112.7,1.312235,409859,19971
1117.53,1.325160,412494,19510
1121.15,1.311485,414909,20252
1124.77,1.310558,416559,20376
1128.38,1.318101,418532,20120
1131.99,1.312765,419956,20438
1135.6,1.314521,421946,20452
1139.2,1.317103,423881,20424
1143.99,1.321496,426786,20357
1147.58,1.318856,428617,20569
1151.17,1.319307,431169,20670
1154.75,1.316258,433579,20932
1158.33,1.321603,436264,20804
1161.91,1.313401,439132,21340
1165.48,1.316915,442389,21325
1169.04,1.324184,446101,21147
1173.79,1.324068,451929,21429
1177.34,1.326551,456026,21500
1180.9,1.316503,461306,22258
1184.44,1.312393,467657,22779
1187.99,1.317168,473969,22834
1191.52,1.317631,479856,23093
1195.06,1.316109,487372,23537
1199.76,1.318407,497347,23892
1203.29,1.323937,504311,23920
1206.81,1.323299,511507,24297
1210.33,1.321272,519078,24772
1213.84,1.331381,527163,24579
1217.35,1.324161,534208,25325
1220.85,1.326063,540472,25510
1225.51,1.326973,549929,25902
1229.01,1.318460,556888,26749
1232.5,1.329821,562180,26306
1235.98,1.320623,567975,27146
1239.46,1.321936,574815,27390
1242.94,1.320728,582782,27847
1246.41,1.322304,591476,28160
1251.03,1.326097,604016,28507
1254.5,1.329135,612289,28696
1257.96,1.320854,619125,29575
1261.41,1.327043,624551,29412
1264.86,1.328935,629900,29535
1268.31,1.326262,634345,29927
1271.75,1.335095,638574,29520
1276.33,1.328225,642499,30175
1279.76,1.330464,645905,30179
1283.19,1.330180,648307,30311
1286.61,1.331855,650446,30294
1290.03,1.324926,652132,30861
1293.44,1.331359,653907,30490
1296.85,1.329472,655963,30719
1301.39,1.334337,657349,30441
1304.8,1.331844,657558,30626
1308.19,1.332617,658515,30616
1311.58,1.328924,658804,30891
1314.97,1.333711,659011,30562
1318.36,1.329150,658272,30850
1321.73,1.330480,658022,30744
1326.23,1.331653,657870,30654
1329.6,1.334649,656482,30379
1332.97,1.335438,654926,30252
1336.33,1.336513,653727,30122
1339.69,1.335897,652497,30108
1343.04,1.328200,649913,30525
1346.39,1.328681,647671,30386
1349.73,1.328416,645338,30295
1354.18,1.328381,641175,30102
1357.52,1.333697,638376,29606
1360.85,1.331680,635805,29624
1364.17,1.330058,633413,29623
1367.49,1.329990,631026,29516
1370.81,1.325984,628050,29649
1374.12,1.332130,625034,29092
1378.54,1.327482,620272,29181
1381.84,1.326077,616892,29116
1385.14,1.324315,613613,29079
1388.43,1.327188,611526,28789
1391.72,1.325942,610663,28831
1395.01,1.328202,610634,28680
1398.29,1.329277,611700,28659
1402.66,1.328059,614051,28850
1405.93,1.330181,616268,28813
1409.2,1.332826,617795,28709
1412.46,1.322309,618872,29464
1415.72,1.327997,619795,29124
1418.98,1.336752,620495,28575
1422.23,1.334832,621087,28729
1426.56,1.338006,621375,28533
1429.8,1.332024,621616,28940
1433.04,1.335499,622129,28733
1436.27,1.333705,621526,28824
1439.5,1.331327,621113,28963
1442.72,1.335366,620921,28686
1445.94,1.334850,620270,28690
1450.23,1.329419,618860,28985
1453.44,1.338100,617697,28358
1456.64,1.332809,616264,28639
1459.85,1.340172,614413,28073
1463.04,1.335828,612307,28258
1466.24,1.334042,610032,28269
1469.43,1.334497,607345,28115
1473.67,1.336029,603789,27852
1476.85,1.338202,601175,27593
1480.02,1.338902,597737,27391
1483.19,1.338260,594479,27282
1486.36,1.336264,591232,27258
1489.52,1.336668,587853,27077
1492.68,1.338574,583875,26776
1496.89,1.337272,578062,26589
1500.03,1.340731,574159,26200
1503.18,1.338438,570285,26161
1506.32,1.342541,565444,25695
1509.45,1.332940,560571,26043
1512.58,1.336542,555821,25609
1515.71,1.336742,550344,25345
1519.87,1.333685,543983,25229
1522.99,1.335775,538764,24867
1526.1,1.337823,533692,24517
1529.21,1.335448,527902,24384
1532.32,1.338433,521886,23941
1535.42,1.340417,515888,23558
1538.51,1.335236,509987,23568
1541.6,1.335150,503936,23293
1545.72,1.332703,494694,22995
1548.8,1.338314,488378,22410
1551.88,1.342134,481832,21916
1554.95,1.335982,474989,21913
1558.02,1.338791,467818,21443
1561.08,1.332992,460730,21402
1564.15,1.330453,454170,21221
1568.22,1.336188,444181,20482
1571.27,1.327659,436947,20548
1574.32,1.331186,429598,20039
1577.36,1.332809,422039,19613
1580.4,1.333301,414375,19235
1583.43,1.339135,406354,18611
1586.46,1.334452,398475,18448
1590.49,1.338316,388982,17849
1593.51,1.329928,380708,17810
1596.53,1.332342,372727,17340
1599.54,1.325626,365060,17248
1602.55,1.325673,357543,16891
1605.55,1.329923,349495,16350
1608.55,1.327286,341154,16057
1612.54,1.333134,330877,15365
1615.53,1.336150,322904,14891
1618.51,1.325809,315116,14882
1621.49,1.327337,307217,14458
1624.47,1.321367,299481,14289
1627.44,1.309940,292112,14309
1630.41,1.314948,284245,13764
1634.36,1.319677,274079,13128
1637.32,1.313100,266916,12980
1640.27,1.317554,259612,12496
1643.22,1.332357,251804,11714
1646.16,1.325991,244348,11535
1649.1,1.302800,236703,11787
1652.04,1.317816,228171,10976
1655.95,1.320087,215408,10308
1658.88,1.294712,204937,10397
1661.8,1.297708,193395,9744
1664.72,1.270584,179728,9639
1667.63,1.265042,163642,8889
1670.54,1.239298,146312,8433
1673.44,1.227467,128451,7608
1677.31,1.215408,105080,6399
1680.21,1.187530,88906,5773
1683.1,1.187367,75033,4874
1685.99,1.155234,63520,4443
1688.87,1.219811,53714,3238
1691.75,1.138593,45653,3318
1694.62,1.193260,39137,2508
1697.49,1.158465,33776,2345
1701.31,1.127645,28175,2100