File: ML/samples/unknown/Column 1_078201_20241121_165026.csv
Method:,Column 1,,
Host Date-Time:,21/11/24 @ 16:50:26,,
Header Version:,1,,
System Temp (C):,33.85,,
Detector Temp (C):,30.66,,
Humidity (%):,3.03,,
Lamp PD:,3804,,
Shift Vector Coefficients:,-10.5391,0.0761263,-0.000134223,,
Pixel to Wavelength Coefficients:,1775.68,-0.916766,-0.000235065,,
Serial Number:,5510004,,
Scan Config Name:,Column 1,,
Scan Config Type:,Slew,,
Section 1,,
Start wavelength (nm):,900,,
End wavelength (nm):,1700,,
Pattern Pixel Width (nm):,   7.03,,,,
Exposure (ms):,  0.635,,,,
Digital Resolution:,228,,
Num Repeats:,6,,
PGA Gain:,64,,
Total Measurement Time in sec:,  2.708,,
Wavelength (nm),Absorbance (AU),Reference Signal (unitless),Sample Signal (unitless)
901.51,1.331133,108485,5061
905.376,1.323912,121306,5754
909.237,1.330130,131909,6168
913.095,1.341596,143299,6526
916.948,1.312643,156982,7642
922.079,1.329344,179937,8429
925.923,1.325406,200504,9478
929.762,1.309459,222660,10919
933.597,1.333266,244426,11347
937.427,1.317754,263972,12700
941.254,1.324139,281845,13362
945.076,1.319277,297271,14252
950.165,1.316929,315605,15213
953.978,1.313778,328029,15927
957.786,1.321332,340470,16246
961.59,1.336080,352317,16250
965.389,1.310726,363056,17752
969.185,1.318584,373162,17919
972.976,1.310986,382632,18698
976.763,1.306551,391202,19313
981.806,1.310387,400190,19583
985.583,1.311692,406088,19812
989.355,1.313121,410162,19945
993.124,1.307781,412868,20325
996.888,1.315530,414263,20033
1000.65,1.312915,415476,20213
1004.4,1.315915,415479,20074
1009.41,1.314763,414358,20073
1013.15,1.305218,412923,20448
1016.89,1.318478,411526,19766
1020.63,1.314164,409066,19844
1024.36,1.303575,406777,20220
1028.09,1.313654,404427,19642
1031.82,1.312162,401911,19587
1036.78,1.320139,398410,19063
1040.49,1.313782,396204,19237
1044.2,1.314905,394236,19092
1047.91,1.316871,392042,18900
1051.61,1.305625,389823,19286
1055.31,1.315121,388234,18792
1059,1.311990,387599,18897
1063.92,1.323890,386688,18343
1067.61,1.322867,386598,18382
1071.29,1.320141,387377,18535
1074.96,1.319848,388536,18603
1078.63,1.312904,389855,18967
1082.3,1.322249,391215,18628
1085.96,1.324674,393215,18619
1090.84,1.323003,396270,18836
1094.49,1.318974,398760,19131
1098.14,1.324743,400987,18984
1101.79,1.322201,403477,19214
1105.43,1.319887,406116,19443
1109.06,1.317687,407701,19618
1112.7,1.318256,409859,19696
1117.53,1.327974,412494,19384
1121.15,1.323046,414909,19720
1124.77,1.309791,416559,20412
1128.38,1.327042,418532,19710
1131.99,1.321241,419956,20043
1135.6,1.319390,421946,20224
1139.2,1.315448,423881,20502
1143.99,1.319177,426786,20466
1147.58,1.323185,428617,20365
1151.17,1.325358,431169,20384
1154.75,1.328354,433579,20357
1158.33,1.323423,436264,20717
1161.91,1.321681,439132,20937
1165.48,1.318445,442389,21250
1169.04,1.317662,446101,21467
1173.79,1.323764,451929,21444
1177.34,1.317120,456026,21972
1180.9,1.320029,461306,22078
1184.44,1.317957,467657,22489
1187.99,1.328752,473969,22233
1191.52,1.325928,479856,22656
1195.06,1.317496,487372,23462
1199.76,1.318916,497347,23864
1203.29,1.327877,504311,23704
1206.81,1.330708,511507,23886
1210.33,1.321289,519078,24771
1213.84,1.323779,527163,25013
1217.35,1.326379,534208,25196
1220.85,1.320582,540472,25834
1225.51,1.319691,549929,26340
1229.01,1.327367,556888,26206
1232.5,1.329375,562180,26333
1235.98,1.325450,567975,26846
1239.46,1.323923,574815,27265
1242.94,1.324188,582782,27626
1246.41,1.325649,591476,27944
1251.03,1.328449,604016,28353
1254.5,1.325368,612289,28946
1257.96,1.327453,619125,29129
1261.41,1.327250,624551,29398
1264.86,1.328053,629900,29595
1268.31,1.330345,634345,29647
1271.75,1.328901,638574,29944
1276.33,1.325928,642499,30335
1279.76,1.329128,645905,30272
1283.19,1.333258,648307,30097
1286.61,1.327518,650446,30598
1290.03,1.332936,652132,30297
1293.44,1.326134,653907,30859
1296.85,1.336571,655963,30221
1301.39,1.332302,657349,30584
1304.8,1.329948,657558,30760
1308.19,1.330918,658515,30736
1311.58,1.335212,658804,30447
1314.97,1.336763,659011,30348
1318.36,1.332996,658272,30578
1321.73,1.333016,658022,30565
1326.23,1.327732,657870,30932
1329.6,1.340102,656482,30000
1332.97,1.329818,654926,30646
1336.33,1.334155,653727,30286
1339.69,1.335349,652497,30146
1343.04,1.335691,649913,30003
1346.39,1.333192,647671,30072
1349.73,1.337323,645338,29680
1354.18,1.337995,641175,29443
1357.52,1.329260,638376,29910
1360.85,1.330041,635805,29736
1364.17,1.328653,633413,29719
1367.49,1.334382,631026,29219
1370.81,1.324113,628050,29777
1374.12,1.331086,625034,29162
1378.54,1.330529,620272,28977
1381.84,1.329597,616892,28881
1385.14,1.329106,613613,28760
1388.43,1.333204,611526,28393
1391.72,1.332697,610663,28386
1395.01,1.324808,610634,28905
1398.29,1.332548,611700,28444
1402.66,1.330762,614051,28671
1405.93,1.329037,616268,28889
1409.2,1.328162,617795,29019
1412.46,1.331034,618872,28878
1415.72,1.330180,619795,28978
1418.98,1.335235,620495,28675
1422.23,1.331069,621087,28979
1426.56,1.341184,621375,28325
1429.8,1.342827,621616,28229
1433.04,1.335893,622129,28707
1436.27,1.341965,621526,28281
1439.5,1.338737,621113,28473
1442.72,1.343836,620921,28132
1445.94,1.340212,620270,28338
1450.23,1.338305,618860,28398
1453.44,1.334394,617697,28601
1456.64,1.337996,616264,28299
1459.85,1.338735,614413,28166
1463.04,1.333819,612307,28389
1466.24,1.339173,610032,27937
1469.43,1.332479,607345,28246
1473.67,1.336216,603789,27840
1476.85,1.335707,601175,27752
1480.02,1.344953,597737,27012
1483.19,1.337195,594479,27349
1486.36,1.335389,591232,27313
1489.52,1.347517,587853,26409
1492.68,1.342845,583875,26514
1496.89,1.341309,578062,26343
1500.03,1.336377,574159,26464
1503.18,1.341637,570285,25969
1506.32,1.341359,565444,25765
1509.45,1.336271,560571,25844
1512.58,1.340700,555821,25365
1515.71,1.339354,550344,25193
1519.87,1.341361,543983,24787
1522.99,1.348410,538764,24154
1526.1,1.346392,533692,24038
1529.21,1.332024,527902,24577
1532.32,1.347525,521886,23445
1535.42,1.336892,515888,23750
1538.51,1.340464,509987,23286
1541.6,1.333141,503936,23401
1545.72,1.333119,494694,22973
1548.8,1.341485,488378,22247
1551.88,1.336308,481832,22212
1554.95,1.335447,474989,21940
1558.02,1.335603,467818,21601
1561.08,1.333947,460730,21355
1564.15,1.342109,454170,20659
1568.22,1.331191,444181,20719
1571.27,1.335723,436947,20170
1574.32,1.335367,429598,19847
1577.36,1.343025,422039,19157
1580.4,1.332760,414375,19259
1583.43,1.332696,406354,18889
1586.46,1.336812,398475,18348
1590.49,1.336955,388982,17905
1593.51,1.334315,380708,17631
1596.53,1.333495,372727,17294
1599.54,1.340585,365060,16664
1602.55,1.337876,357543,16423
1605.55,1.328915,349495,16388
1608.55,1.333195,341154,15840
1612.54,1.324182,330877,15685
1615.53,1.332751,322904,15008
1618.51,1.337102,315116,14500
1621.49,1.322468,307217,14621
1624.47,1.334637,299481,13859
1627.44,1.332394,292112,13588
1630.41,1.329678,284245,13305
1634.36,1.324367,274079,12987
1637.32,1.313133,266916,12979
1640.27,1.328285,259612,12191
1643.22,1.332246,251804,11717
1646.16,1.319786,244348,11701
1649.1,1.331589,236703,11031
1652.04,1.316513,228171,11009
1655.95,1.324747,215408,10198
1658.88,1.312055,204937,9990
1661.8,1.300660,193395,9678
1664.72,1.283572,179728,9355
1667.63,1.293615,163642,8323
1670.54,1.289120,146312,7519
1673.44,1.273364,128451,6845
1677.31,1.246128,105080,5962
1680.21,1.259001,88906,4897
1683.1,1.241481,75033,4303
1685.99,1.243004,63520,3630
1688.87,1.284795,53714,2788
1691.75,1.249367,45653,2571
1694.62,1.286806,39137,2022
1697.49,1.239912,33776,1944
1701.31,1.288496,28175,1450