File: ML/samples/unknown/Column 1_078126_20241121_164645.csv
Method:,Column 1,,
Host Date-Time:,21/11/24 @ 16:46:45,,
Header Version:,1,,
System Temp (C):,32.9,,
Detector Temp (C):,28.4,,
Humidity (%):,3.71,,
Lamp PD:,3806,,
Shift Vector Coefficients:,-10.5391,0.0761263,-0.000134223,,
Pixel to Wavelength Coefficients:,1775.68,-0.916766,-0.000235065,,
Serial Number:,5510004,,
Scan Config Name:,Column 1,,
Scan Config Type:,Slew,,
Section 1,,
Start wavelength (nm):,900,,
End wavelength (nm):,1700,,
Pattern Pixel Width (nm):,   7.03,,,,
Exposure (ms):,  0.635,,,,
Digital Resolution:,228,,
Num Repeats:,6,,
PGA Gain:,64,,
Total Measurement Time in sec:,  2.721,,
Wavelength (nm),Absorbance (AU),Reference Signal (unitless),Sample Signal (unitless)
901.51,1.319868,108485,5194
905.376,1.317098,121306,5845
909.237,1.333310,131909,6123
913.095,1.327454,143299,6742
916.948,1.315952,156982,7584
922.079,1.334788,179937,8324
925.923,1.330894,200504,9359
929.762,1.317083,222660,10729
933.597,1.309509,244426,11985
937.427,1.319742,263972,12642
941.254,1.315132,281845,13642
945.076,1.316240,297271,14352
950.165,1.319018,315605,15140
953.978,1.315691,328029,15857
957.786,1.316468,340470,16429
961.59,1.328162,352317,16549
965.389,1.313081,363056,17656
969.185,1.312829,373162,18158
972.976,1.308993,382632,18784
976.763,1.311641,391202,19088
981.806,1.319237,400190,19188
985.583,1.307568,406088,20001
989.355,1.315918,410162,19817
993.124,1.320552,412868,19736
996.888,1.307072,414263,20427
1000.65,1.307364,415476,20473
1004.4,1.312832,415479,20217
1009.41,1.306491,414358,20459
1013.15,1.311465,412923,20156
1016.89,1.315173,411526,19917
1020.63,1.304768,409066,20278
1024.36,1.319188,406777,19506
1028.09,1.317831,404427,19454
1031.82,1.310767,401911,19650
1036.78,1.320048,398410,19067
1040.49,1.315501,396204,19161
1044.2,1.312387,394236,19203
1047.91,1.308992,392042,19246
1051.61,1.319235,389823,18691
1055.31,1.312058,388234,18925
1059,1.311875,387599,18902
1063.92,1.319415,386688,18533
1067.61,1.317117,386598,18627
1071.29,1.302149,387377,19319
1074.96,1.314927,388536,18815
1078.63,1.314556,389855,18895
1082.3,1.313570,391215,19004
1085.96,1.315762,393215,19005
1090.84,1.319169,396270,19003
1094.49,1.312798,398760,19405
1098.14,1.320916,400987,19152
1101.79,1.317234,403477,19435
1105.43,1.325915,406116,19175
1109.06,1.316361,407701,19678
1112.7,1.315947,409859,19801
1117.53,1.316194,412494,19917
1121.15,1.317966,414909,19952
1124.77,1.326027,416559,19663
1128.38,1.317583,418532,20144
1131.99,1.315751,419956,20298
1135.6,1.313715,421946,20490
1139.2,1.311085,423881,20709
1143.99,1.317504,426786,20545
1147.58,1.320231,428617,20504
1151.17,1.327515,431169,20283
1154.75,1.317900,433579,20853
1158.33,1.318068,436264,20974
1161.91,1.321307,439132,20955
1165.48,1.319530,442389,21197
1169.04,1.325315,446101,21092
1173.79,1.316255,451929,21818
1177.34,1.314401,456026,22110
1180.9,1.317089,461306,22228
1184.44,1.331451,467657,21801
1187.99,1.322777,473969,22541
1191.52,1.318365,479856,23054
1195.06,1.321849,487372,23228
1199.76,1.328466,497347,23345
1203.29,1.317557,504311,24274
1206.81,1.328297,511507,24019
1210.33,1.327398,519078,24425
1213.84,1.326426,527163,24861
1217.35,1.330066,534208,24983
1220.85,1.331355,540472,25201
1225.51,1.338596,549929,25218
1229.01,1.325202,556888,26337
1232.5,1.325991,562180,26539
1235.98,1.323255,567975,26982
1239.46,1.321968,574815,27388
1242.94,1.325795,582782,27524
1246.41,1.328846,591476,27739
1251.03,1.325138,604016,28570
1254.5,1.325443,612289,28941
1257.96,1.325994,619125,29227
1261.41,1.329917,624551,29218
1264.86,1.331338,629900,29372
1268.31,1.329277,634345,29720
1271.75,1.331068,638574,29795
1276.33,1.323815,642499,30483
1279.76,1.323398,645905,30674
1283.19,1.326571,648307,30564
1286.61,1.335367,650446,30050
1290.03,1.329367,652132,30547
1293.44,1.327671,653907,30750
1296.85,1.328794,655963,30767
1301.39,1.331947,657349,30609
1304.8,1.340610,657558,30014
1308.19,1.335992,658515,30379
1311.58,1.330248,658804,30797
1314.97,1.329849,659011,30835
1318.36,1.332017,658272,30647
1321.73,1.335053,658022,30422
1326.23,1.329491,657870,30807
1329.6,1.330693,656482,30657
1332.97,1.340158,654926,29925
1336.33,1.339580,653727,29910
1339.69,1.330521,652497,30483
1343.04,1.333337,649913,30166
1346.39,1.336337,647671,29855
1349.73,1.328531,645338,30287
1354.18,1.328554,641175,30090
1357.52,1.328462,638376,29965
1360.85,1.327464,635805,29913
1364.17,1.329750,633413,29644
1367.49,1.327291,631026,29700
1370.81,1.327598,628050,29539
1374.12,1.335201,625034,28887
1378.54,1.328257,620272,29129
1381.84,1.335075,616892,28519
1385.14,1.329136,613613,28758
1388.43,1.326932,611526,28806
1391.72,1.329253,610663,28612
1395.01,1.328368,610634,28669
1398.29,1.327236,611700,28794
1402.66,1.328556,614051,28817
1405.93,1.333282,616268,28608
1409.2,1.331346,617795,28807
1412.46,1.332374,618872,28789
1415.72,1.331185,619795,28911
1418.98,1.338076,620495,28488
1422.23,1.338506,621087,28487
1426.56,1.334958,621375,28734
1429.8,1.333346,621616,28852
1433.04,1.337651,622129,28591
1436.27,1.333389,621526,28845
1439.5,1.339654,621113,28413
1442.72,1.333011,620921,28842
1445.94,1.334638,620270,28704
1450.23,1.337419,618860,28456
1453.44,1.340727,617697,28187
1456.64,1.339179,616264,28222
1459.85,1.339924,614413,28089
1463.04,1.333636,612307,28401
1466.24,1.335689,610032,28162
1469.43,1.340642,607345,27720
1473.67,1.337044,603789,27787
1476.85,1.337777,601175,27620
1480.02,1.343220,597737,27120
1483.19,1.340063,594479,27169
1486.36,1.340073,591232,27020
1489.52,1.330821,587853,27444
1492.68,1.340460,583875,26660
1496.89,1.339762,578062,26437
1500.03,1.337511,574159,26395
1503.18,1.345399,570285,25745
1506.32,1.340114,565444,25839
1509.45,1.348144,560571,25147
1512.58,1.345469,555821,25088
1515.71,1.338132,550344,25264
1519.87,1.342379,543983,24729
1522.99,1.337718,538764,24756
1526.1,1.340506,533692,24366
1529.21,1.336322,527902,24335
1532.32,1.337672,521886,23983
1535.42,1.343432,515888,23395
1538.51,1.335808,509987,23537
1541.6,1.331585,503936,23485
1545.72,1.341094,494694,22555
1548.8,1.334936,488378,22585
1551.88,1.332473,481832,22409
1554.95,1.336815,474989,21871
1558.02,1.339359,467818,21415
1561.08,1.334720,460730,21317
1564.15,1.341689,454170,20679
1568.22,1.336824,444181,20452
1571.27,1.340616,436947,19944
1574.32,1.335083,429598,19860
1577.36,1.335251,422039,19503
1580.4,1.344879,414375,18729
1583.43,1.336947,406354,18705
1586.46,1.345129,398475,18000
1590.49,1.326246,388982,18352
1593.51,1.338150,380708,17476
1596.53,1.330343,372727,17420
1599.54,1.332324,365060,16984
1602.55,1.331288,357543,16674
1605.55,1.327962,349495,16424
1608.55,1.329918,341154,15960
1612.54,1.313705,330877,16068
1615.53,1.320398,322904,15441
1618.51,1.334862,315116,14575
1621.49,1.326287,307217,14493
1624.47,1.329033,299481,14039
1627.44,1.341600,292112,13303
1630.41,1.323681,284245,13490
1634.36,1.322898,274079,13031
1637.32,1.321512,266916,12731
1640.27,1.322412,259612,12357
1643.22,1.314632,251804,12202
1646.16,1.320826,244348,11673
1649.1,1.320856,236703,11307
1652.04,1.325078,228171,10794
1655.95,1.315269,215408,10423
1658.88,1.306354,204937,10122
1661.8,1.297797,193395,9742
1664.72,1.294002,179728,9133
1667.63,1.300823,163642,8186
1670.54,1.282357,146312,7637
1673.44,1.284612,128451,6670
1677.31,1.270010,105080,5643
1680.21,1.254150,88906,4952
1683.1,1.289228,75033,3855
1685.99,1.329132,63520,2977
1688.87,1.250512,53714,3017
1691.75,1.273149,45653,2434
1694.62,1.255128,39137,2175
1697.49,1.274786,33776,1794
1701.31,1.200910,28175,1774