File: ML/samples/unknown/Column 1_078022_20241121_164140.csv
Method:,Column 1,,
Host Date-Time:,21/11/24 @ 16:41:40,,
Header Version:,1,,
System Temp (C):,29.8,,
Detector Temp (C):,24.97,,
Humidity (%):,7.11,,
Lamp PD:,3813,,
Shift Vector Coefficients:,-10.5391,0.0761263,-0.000134223,,
Pixel to Wavelength Coefficients:,1775.68,-0.916766,-0.000235065,,
Serial Number:,5510004,,
Scan Config Name:,Column 1,,
Scan Config Type:,Slew,,
Section 1,,
Start wavelength (nm):,900,,
End wavelength (nm):,1700,,
Pattern Pixel Width (nm):,   7.03,,,,
Exposure (ms):,  0.635,,,,
Digital Resolution:,228,,
Num Repeats:,6,,
PGA Gain:,64,,
Total Measurement Time in sec:,  2.705,,
Wavelength (nm),Absorbance (AU),Reference Signal (unitless),Sample Signal (unitless)
901.51,1.305476,108485,5369
905.376,1.311121,121306,5926
909.237,1.298957,131909,6627
913.095,1.323224,143299,6808
916.948,1.311961,156982,7654
922.079,1.281946,179937,9401
925.923,1.304693,200504,9941
929.762,1.296027,222660,11262
933.597,1.314686,244426,11843
937.427,1.304784,263972,13085
941.254,1.306434,281845,13918
945.076,1.307819,297271,14633
950.165,1.317272,315605,15201
953.978,1.298060,328029,16514
957.786,1.305015,340470,16868
961.59,1.320437,352317,16846
965.389,1.308676,363056,17836
969.185,1.307646,373162,18376
972.976,1.310545,382632,18717
976.763,1.310505,391202,19138
981.806,1.307381,400190,19719
985.583,1.311319,406088,19829
989.355,1.311383,410162,20025
993.124,1.314586,412868,20009
996.888,1.307199,414263,20421
1000.65,1.304489,415476,20609
1004.4,1.308770,415479,20407
1009.41,1.311809,414358,20210
1013.15,1.319204,412923,19800
1016.89,1.314237,411526,19960
1020.63,1.318320,409066,19655
1024.36,1.313218,406777,19776
1028.09,1.315116,404427,19576
1031.82,1.306304,401911,19853
1036.78,1.317482,398410,19180
1040.49,1.305353,396204,19614
1044.2,1.313882,394236,19137
1047.91,1.315380,392042,18965
1051.61,1.304523,389823,19335
1055.31,1.312839,388234,18891
1059,1.318450,387599,18618
1063.92,1.313203,386688,18800
1067.61,1.305250,386598,19143
1071.29,1.309220,387377,19007
1074.96,1.314074,388536,18852
1078.63,1.314258,389855,18908
1082.3,1.318882,391215,18773
1085.96,1.314963,393215,19040
1090.84,1.312659,396270,19290
1094.49,1.311703,398760,19454
1098.14,1.317011,400987,19325
1101.79,1.314228,403477,19570
1105.43,1.319217,406116,19473
1109.06,1.311489,407701,19900
1112.7,1.312213,409859,19972
1117.53,1.322409,412494,19634
1121.15,1.320981,414909,19814
1124.77,1.324571,416559,19729
1128.38,1.319983,418532,20033
1131.99,1.311577,419956,20494
1135.6,1.320982,421946,20150
1139.2,1.330031,423881,19825
1143.99,1.323721,426786,20253
1147.58,1.317949,428617,20612
1151.17,1.322894,431169,20500
1154.75,1.320134,433579,20746
1158.33,1.319458,436264,20907
1161.91,1.326457,439132,20708
1165.48,1.310487,442389,21643
1169.04,1.312054,446101,21746
1173.79,1.311465,451929,22060
1177.34,1.320055,456026,21824
1180.9,1.316269,461306,22270
1184.44,1.318576,467657,22457
1187.99,1.320241,473969,22673
1191.52,1.328658,479856,22514
1195.06,1.320728,487372,23288
1199.76,1.326998,497347,23424
1203.29,1.324828,504311,23871
1206.81,1.323818,511507,24268
1210.33,1.327861,519078,24399
1213.84,1.319632,527163,25253
1217.35,1.323852,534208,25343
1220.85,1.325756,540472,25528
1225.51,1.326286,549929,25943
1229.01,1.317390,556888,26815
1232.5,1.323478,562180,26693
1235.98,1.323851,567975,26945
1239.46,1.323811,574815,27272
1242.94,1.324267,582782,27621
1246.41,1.328893,591476,27736
1251.03,1.332095,604016,28116
1254.5,1.324094,612289,29031
1257.96,1.322192,619125,29484
1261.41,1.331839,624551,29089
1264.86,1.322933,629900,29946
1268.31,1.331886,634345,29542
1271.75,1.326948,638574,30079
1276.33,1.326989,642499,30261
1279.76,1.333975,645905,29936
1283.19,1.327025,648307,30532
1286.61,1.324971,650446,30778
1290.03,1.327395,652132,30686
1293.44,1.329553,653907,30617
1296.85,1.328484,655963,30789
1301.39,1.332714,657349,30555
1304.8,1.330047,657558,30753
1308.19,1.327232,658515,30998
1311.58,1.333035,658804,30600
1314.97,1.330088,659011,30818
1318.36,1.330010,658272,30789
1321.73,1.334325,658022,30473
1326.23,1.330747,657870,30718
1329.6,1.340217,656482,29992
1332.97,1.327275,654926,30826
1336.33,1.330186,653727,30564
1339.69,1.333308,652497,30288
1343.04,1.333726,649913,30139
1346.39,1.331909,647671,30161
1349.73,1.332898,645338,29984
1354.18,1.331015,641175,29920
1357.52,1.328346,638376,29973
1360.85,1.334401,635805,29439
1364.17,1.332277,633413,29472
1367.49,1.335304,631026,29157
1370.81,1.324931,628050,29721
1374.12,1.331057,625034,29164
1378.54,1.326620,620272,29239
1381.84,1.327123,616892,29046
1385.14,1.331468,613613,28604
1388.43,1.327853,611526,28745
1391.72,1.328753,610663,28645
1395.01,1.325079,610634,28887
1398.29,1.329763,611700,28627
1402.66,1.330171,614051,28710
1405.93,1.329293,616268,28872
1409.2,1.323962,617795,29301
1412.46,1.328963,618872,29016
1415.72,1.331861,619795,28866
1418.98,1.330955,620495,28959
1422.23,1.331519,621087,28949
1426.56,1.332110,621375,28923
1429.8,1.336746,621616,28627
1433.04,1.338259,622129,28551
1436.27,1.331196,621526,28991
1439.5,1.330383,621113,29026
1442.72,1.327341,620921,29221
1445.94,1.333928,620270,28751
1450.23,1.336900,618860,28490
1453.44,1.336480,617697,28464
1456.64,1.337336,616264,28342
1459.85,1.339461,614413,28119
1463.04,1.338155,612307,28107
1466.24,1.330477,610032,28502
1469.43,1.343503,607345,27538
1473.67,1.338500,603789,27694
1476.85,1.330016,601175,28118
1480.02,1.335664,597737,27596
1483.19,1.333039,594479,27612
1486.36,1.333595,591232,27426
1489.52,1.344485,587853,26594
1492.68,1.341602,583875,26590
1496.89,1.332998,578062,26852
1500.03,1.338202,574159,26353
1503.18,1.334126,570285,26422
1506.32,1.335184,565444,26134
1509.45,1.338883,560571,25689
1512.58,1.335391,555821,25677
1515.71,1.337342,550344,25310
1519.87,1.333221,543983,25256
1522.99,1.340958,538764,24572
1526.1,1.345544,533692,24085
1529.21,1.340554,527902,24099
1532.32,1.336280,521886,24060
1535.42,1.341894,515888,23478
1538.51,1.337176,509987,23463
1541.6,1.336158,503936,23239
1545.72,1.341190,494694,22550
1548.8,1.345485,488378,22043
1551.88,1.336034,481832,22226
1554.95,1.338008,474989,21811
1558.02,1.337921,467818,21486
1561.08,1.336885,460730,21211
1564.15,1.341122,454170,20706
1568.22,1.338953,444181,20352
1571.27,1.332869,436947,20303
1574.32,1.332902,429598,19960
1577.36,1.335652,422039,19485
1580.4,1.330376,414375,19365
1583.43,1.345103,406354,18357
1586.46,1.341955,398475,18132
1590.49,1.342374,388982,17683
1593.51,1.338573,380708,17459
1596.53,1.326965,372727,17556
1599.54,1.332964,365060,16959
1602.55,1.333822,357543,16577
1605.55,1.340626,349495,15952
1608.55,1.330816,341154,15927
1612.54,1.319857,330877,15842
1615.53,1.332490,322904,15017
1618.51,1.330120,315116,14735
1621.49,1.322706,307217,14613
1624.47,1.333386,299481,13899
1627.44,1.325482,292112,13806
1630.41,1.323102,284245,13508
1634.36,1.331515,274079,12775
1637.32,1.325074,266916,12627
1640.27,1.329248,259612,12164
1643.22,1.311369,251804,12294
1646.16,1.323251,244348,11608
1649.1,1.315322,236703,11452
1652.04,1.330870,228171,10651
1655.95,1.315853,215408,10409
1658.88,1.328671,204937,9615
1661.8,1.330613,193395,9033
1664.72,1.348173,179728,8062
1667.63,1.334111,163642,7582
1670.54,1.313166,146312,7114
1673.44,1.362337,128451,5577
1677.31,1.333635,105080,4874
1680.21,1.391785,88906,3607
1683.1,1.380124,75033,3127
1685.99,1.320895,63520,3034
1688.87,1.310462,53714,2628
1691.75,1.395124,45653,1838
1694.62,1.384415,39137,1615
1697.49,1.267107,33776,1826
1701.31,1.425789,28175,1057