File: ML/samples/unknown/Column 1_078325_20241121_165631.csv
Method:,Column 1,,
Host Date-Time:,21/11/24 @ 16:56:31,,
Header Version:,1,,
System Temp (C):,34.65,,
Detector Temp (C):,32.91,,
Humidity (%):,2.16,,
Lamp PD:,3802,,
Shift Vector Coefficients:,-10.5391,0.0761263,-0.000134223,,
Pixel to Wavelength Coefficients:,1775.68,-0.916766,-0.000235065,,
Serial Number:,5510004,,
Scan Config Name:,Column 1,,
Scan Config Type:,Slew,,
Section 1,,
Start wavelength (nm):,900,,
End wavelength (nm):,1700,,
Pattern Pixel Width (nm):,   7.03,,,,
Exposure (ms):,  0.635,,,,
Digital Resolution:,228,,
Num Repeats:,6,,
PGA Gain:,64,,
Total Measurement Time in sec:,  2.726,,
Wavelength (nm),Absorbance (AU),Reference Signal (unitless),Sample Signal (unitless)
901.51,1.315956,108485,5241
905.376,1.318288,121306,5829
909.237,1.324881,131909,6243
913.095,1.303397,143299,7126
916.948,1.326149,156982,7408
922.079,1.305145,179937,8912
925.923,1.342414,200504,9114
929.762,1.325296,222660,10528
933.597,1.330671,244426,11415
937.427,1.315061,263972,12779
941.254,1.329568,281845,13196
945.076,1.327645,297271,13980
950.165,1.322561,315605,15017
953.978,1.313043,328029,15954
957.786,1.299616,340470,17079
961.59,1.309616,352317,17271
965.389,1.311191,363056,17733
969.185,1.311039,373162,18233
972.976,1.303799,382632,19010
976.763,1.317205,391202,18845
981.806,1.308926,400190,19649
985.583,1.301360,406088,20289
989.355,1.302156,410162,20455
993.124,1.307781,412868,20325
996.888,1.308093,414263,20379
1000.65,1.304299,415476,20618
1004.4,1.308983,415479,20397
1009.41,1.309644,414358,20311
1013.15,1.312349,412923,20115
1016.89,1.309734,411526,20168
1020.63,1.315370,409066,19789
1024.36,1.310198,406777,19914
1028.09,1.309539,404427,19829
1031.82,1.310061,401911,19682
1036.78,1.309561,398410,19533
1040.49,1.308508,396204,19472
1044.2,1.304743,394236,19544
1047.91,1.310982,392042,19158
1051.61,1.314842,389823,18881
1055.31,1.302413,388234,19350
1059,1.314202,387599,18801
1063.92,1.315542,386688,18699
1067.61,1.314027,386598,18760
1071.29,1.313237,387377,18832
1074.96,1.303761,388536,19305
1078.63,1.313156,389855,18956
1082.3,1.313296,391215,19016
1085.96,1.313256,393215,19115
1090.84,1.319009,396270,19010
1094.49,1.319837,398760,19093
1098.14,1.318970,400987,19238
1101.79,1.316542,403477,19466
1105.43,1.309470,406116,19915
1109.06,1.313238,407701,19820
1112.7,1.312757,409859,19947
1117.53,1.311811,412494,20119
1121.15,1.312387,414909,20210
1124.77,1.315423,416559,20149
1128.38,1.322614,418532,19912
1131.99,1.314853,419956,20340
1135.6,1.313143,421946,20517
1139.2,1.313440,423881,20597
1143.99,1.313380,426786,20741
1147.58,1.316666,428617,20673
1151.17,1.310633,431169,21087
1154.75,1.321854,433579,20664
1158.33,1.318607,436264,20948
1161.91,1.318663,439132,21083
1165.48,1.318588,442389,21243
1169.04,1.313835,446101,21657
1173.79,1.316235,451929,21819
1177.34,1.320414,456026,21806
1180.9,1.318419,461306,22160
1184.44,1.324730,467657,22141
1187.99,1.315554,473969,22919
1191.52,1.322605,479856,22830
1195.06,1.320523,487372,23299
1199.76,1.321820,497347,23705
1203.29,1.314864,504311,24425
1206.81,1.318535,511507,24565
1210.33,1.324262,519078,24602
1213.84,1.320613,527163,25196
1217.35,1.320626,534208,25532
1220.85,1.327051,540472,25452
1225.51,1.323666,549929,26100
1229.01,1.323589,556888,26435
1232.5,1.324488,562180,26631
1235.98,1.322001,567975,27060
1239.46,1.324401,574815,27235
1242.94,1.317806,582782,28035
1246.41,1.327877,591476,27801
1251.03,1.328756,604016,28333
1254.5,1.328545,612289,28735
1257.96,1.323047,619125,29426
1261.41,1.324511,624551,29584
1264.86,1.329508,629900,29496
1268.31,1.328707,634345,29759
1271.75,1.331053,638574,29796
1276.33,1.332535,642499,29877
1279.76,1.331429,645905,30112
1283.19,1.323879,648307,30754
1286.61,1.328755,650446,30511
1290.03,1.329609,652132,30530
1293.44,1.328378,653907,30700
1296.85,1.333834,655963,30412
1301.39,1.332913,657349,30541
1304.8,1.335446,657558,30373
1308.19,1.338128,658515,30230
1311.58,1.330897,658804,30751
1314.97,1.332533,659011,30645
1318.36,1.329629,658272,30816
1321.73,1.335982,658022,30357
1326.23,1.336411,657870,30320
1329.6,1.328531,656482,30810
1332.97,1.330059,654926,30629
1336.33,1.332237,653727,30420
1339.69,1.330948,652497,30453
1343.04,1.329839,649913,30410
1346.39,1.328210,647671,30419
1349.73,1.330745,645338,30133
1354.18,1.328352,641175,30104
1357.52,1.330758,638376,29807
1360.85,1.329137,635805,29798
1364.17,1.327150,633413,29822
1367.49,1.329402,631026,29556
1370.81,1.329573,628050,29405
1374.12,1.333236,625034,29018
1378.54,1.333371,620272,28788
1381.84,1.330124,616892,28846
1385.14,1.329000,613613,28767
1388.43,1.334092,611526,28335
1391.72,1.327073,610663,28756
1395.01,1.330921,610634,28501
1398.29,1.328853,611700,28687
1402.66,1.331702,614051,28609
1405.93,1.331842,616268,28703
1409.2,1.336060,617795,28496
1412.46,1.328649,618872,29037
1415.72,1.330045,619795,28987
1418.98,1.335235,620495,28675
1422.23,1.332570,621087,28879
1426.56,1.331630,621375,28955
1429.8,1.333151,621616,28865
1433.04,1.330331,622129,29077
1436.27,1.336987,621526,28607
1439.5,1.338478,621113,28490
1442.72,1.336989,620921,28579
1445.94,1.336336,620270,28592
1450.23,1.330665,618860,28902
1453.44,1.336434,617697,28467
1456.64,1.334846,616264,28505
1459.85,1.338828,614413,28160
1463.04,1.342456,612307,27830
1466.24,1.337853,610032,28022
1469.43,1.336231,607345,28003
1473.67,1.332272,603789,28094
1476.85,1.331424,601175,28027
1480.02,1.332825,597737,27777
1483.19,1.338292,594479,27280
1486.36,1.338500,591232,27118
1489.52,1.341150,587853,26799
1492.68,1.336067,583875,26931
1496.89,1.335626,578062,26690
1500.03,1.344560,574159,25970
1503.18,1.335476,570285,26340
1506.32,1.335683,565444,26104
1509.45,1.340849,560571,25573
1512.58,1.336169,555821,25631
1515.71,1.339285,550344,25197
1519.87,1.333737,543983,25226
1522.99,1.334067,538764,24965
1526.1,1.337133,533692,24556
1529.21,1.332466,527902,24552
1532.32,1.337853,521886,23973
1535.42,1.333722,515888,23924
1538.51,1.336843,509987,23481
1541.6,1.334423,503936,23332
1545.72,1.337451,494694,22745
1548.8,1.335205,488378,22571
1551.88,1.341224,481832,21962
1554.95,1.335368,474989,21944
1558.02,1.342595,467818,21256
1561.08,1.334822,460730,21312
1564.15,1.329043,454170,21290
1568.22,1.326563,444181,20941
1571.27,1.323243,436947,20758
1574.32,1.328335,429598,20171
1577.36,1.328293,422039,19818
1580.4,1.333234,414375,19238
1583.43,1.327894,406354,19099
1586.46,1.338924,398475,18259
1590.49,1.327787,388982,18287
1593.51,1.334956,380708,17605
1596.53,1.324499,372727,17656
1599.54,1.334323,365060,16906
1602.55,1.327451,357543,16822
1605.55,1.327196,349495,16453
1608.55,1.319645,341154,16342
1612.54,1.319254,330877,15864
1615.53,1.312041,322904,15741
1618.51,1.319551,315116,15098
1621.49,1.315865,307217,14845
1624.47,1.320184,299481,14328
1627.44,1.324696,292112,13831
1630.41,1.319101,284245,13633
1634.36,1.317466,274079,13195
1637.32,1.318250,266916,12827
1640.27,1.315335,259612,12560
1643.22,1.302592,251804,12545
1646.16,1.303576,244348,12146
1649.1,1.311772,236703,11546
1652.04,1.306954,228171,11254
1655.95,1.302986,215408,10722
1658.88,1.294337,204937,10406
1661.8,1.288142,193395,9961
1664.72,1.269324,179728,9667
1667.63,1.267737,163642,8834
1670.54,1.238320,146312,8452
1673.44,1.242391,128451,7351
1677.31,1.207539,105080,6516
1680.21,1.189414,88906,5748
1683.1,1.166577,75033,5113
1685.99,1.232601,63520,3718
1688.87,1.211047,53714,3304
1691.75,1.143860,45653,3278
1694.62,1.109000,39137,3045
1697.49,1.194959,33776,2156
1701.31,1.218904,28175,1702