File: ML/samples/unknown/Column 1_078125_20241121_164641.csv
Method:,Column 1,,
Host Date-Time:,21/11/24 @ 16:46:41,,
Header Version:,1,,
System Temp (C):,32.89,,
Detector Temp (C):,28.34,,
Humidity (%):,3.76,,
Lamp PD:,3806,,
Shift Vector Coefficients:,-10.5391,0.0761263,-0.000134223,,
Pixel to Wavelength Coefficients:,1775.68,-0.916766,-0.000235065,,
Serial Number:,5510004,,
Scan Config Name:,Column 1,,
Scan Config Type:,Slew,,
Section 1,,
Start wavelength (nm):,900,,
End wavelength (nm):,1700,,
Pattern Pixel Width (nm):,   7.03,,,,
Exposure (ms):,  0.635,,,,
Digital Resolution:,228,,
Num Repeats:,6,,
PGA Gain:,64,,
Total Measurement Time in sec:,  2.730,,
Wavelength (nm),Absorbance (AU),Reference Signal (unitless),Sample Signal (unitless)
901.51,1.296668,108485,5479
905.376,1.306238,121306,5993
909.237,1.295043,131909,6687
913.095,1.297706,143299,7220
916.948,1.314636,156982,7607
922.079,1.330273,179937,8411
925.923,1.313297,200504,9746
929.762,1.315023,222660,10780
933.597,1.293746,244426,12428
937.427,1.316218,263972,12745
941.254,1.308498,281845,13852
945.076,1.313375,297271,14447
950.165,1.312951,315605,15353
953.978,1.304925,328029,16255
957.786,1.311840,340470,16605
961.59,1.309943,352317,17258
965.389,1.310555,363056,17759
969.185,1.311707,373162,18205
972.976,1.310708,382632,18710
976.763,1.310981,391202,19117
981.806,1.302715,400190,19932
985.583,1.300162,406088,20345
989.355,1.311231,410162,20032
993.124,1.301480,412868,20622
996.888,1.303304,414263,20605
1000.65,1.309789,415476,20359
1004.4,1.299360,415479,20854
1009.41,1.305685,414358,20497
1013.15,1.309830,412923,20232
1016.89,1.306773,411526,20306
1020.63,1.306593,409066,20193
1024.36,1.305405,406777,20135
1028.09,1.308533,404427,19875
1031.82,1.312029,401911,19593
1036.78,1.304499,398410,19762
1040.49,1.309424,396204,19431
1044.2,1.310244,394236,19298
1047.91,1.311958,392042,19115
1051.61,1.304725,389823,19326
1055.31,1.302300,388234,19355
1059,1.307372,387599,19099
1063.92,1.302141,386688,19285
1067.61,1.309307,386598,18965
1071.29,1.319860,387377,18547
1074.96,1.314581,388536,18830
1078.63,1.304492,389855,19338
1082.3,1.313868,391215,18991
1085.96,1.305599,393215,19455
1090.84,1.311019,396270,19363
1094.49,1.312574,398760,19415
1098.14,1.315978,400987,19371
1101.79,1.314739,403477,19547
1105.43,1.314162,406116,19701
1109.06,1.309833,407701,19976
1112.7,1.313476,409859,19914
1117.53,1.318709,412494,19802
1121.15,1.316597,414909,20015
1124.77,1.319560,416559,19958
1128.38,1.317303,418532,20157
1131.99,1.318670,419956,20162
1135.6,1.315776,421946,20393
1139.2,1.315130,423881,20517
1143.99,1.319538,426786,20449
1147.58,1.315428,428617,20732
1151.17,1.319959,431169,20639
1154.75,1.325357,433579,20498
1158.33,1.313577,436264,21192
1161.91,1.322761,439132,20885
1165.48,1.321028,442389,21124
1169.04,1.308553,446101,21922
1173.79,1.311859,451929,22040
1177.34,1.314656,456026,22097
1180.9,1.314090,461306,22382
1184.44,1.313366,467657,22728
1187.99,1.320682,473969,22650
1191.52,1.312136,479856,23387
1195.06,1.323835,487372,23122
1199.76,1.320667,497347,23768
1203.29,1.311869,504311,24594
1206.81,1.321889,511507,24376
1210.33,1.319627,519078,24866
1213.84,1.318155,527163,25339
1217.35,1.323578,534208,25359
1220.85,1.321827,540472,25760
1225.51,1.324899,549929,26026
1229.01,1.321818,556888,26543
1232.5,1.315338,562180,27198
1235.98,1.323432,567975,26971
1239.46,1.319832,574815,27523
1242.94,1.321821,582782,27777
1246.41,1.321673,591476,28201
1251.03,1.327424,604016,28420
1254.5,1.324558,612289,29000
1257.96,1.325296,619125,29274
1261.41,1.321833,624551,29767
1264.86,1.329435,629900,29501
1268.31,1.321729,634345,30241
1271.75,1.328090,638574,30000
1276.33,1.324242,642499,30453
1279.76,1.329386,645905,30254
1283.19,1.328165,648307,30452
1286.61,1.329838,650446,30435
1290.03,1.329509,652132,30537
1293.44,1.327304,653907,30776
1296.85,1.329798,655963,30696
1301.39,1.329485,657349,30783
1304.8,1.338532,657558,30158
1308.19,1.334337,658515,30495
1311.58,1.325982,658804,31101
1314.97,1.335163,659011,30460
1318.36,1.336046,658272,30364
1321.73,1.329986,658022,30779
1326.23,1.337558,657870,30240
1329.6,1.331913,656482,30571
1332.97,1.328658,654926,30728
1336.33,1.330940,653727,30511
1339.69,1.327539,652497,30693
1343.04,1.324051,649913,30818
1346.39,1.331779,647671,30170
1349.73,1.324194,645338,30591
1354.18,1.330000,641175,29990
1357.52,1.333873,638376,29594
1360.85,1.326826,635805,29957
1364.17,1.331615,633413,29517
1367.49,1.326692,631026,29741
1370.81,1.331379,628050,29283
1374.12,1.324069,625034,29637
1378.54,1.330664,620272,28968
1381.84,1.328306,616892,28967
1385.14,1.326576,613613,28928
1388.43,1.327445,611526,28772
1391.72,1.325821,610663,28839
1395.01,1.326932,610634,28764
1398.29,1.328006,611700,28743
1402.66,1.322004,614051,29255
1405.93,1.334651,616268,28518
1409.2,1.337465,617795,28404
1412.46,1.332752,618872,28764
1415.72,1.329416,619795,29029
1418.98,1.333783,620495,28771
1422.23,1.328663,621087,29140
1426.56,1.334218,621375,28783
1429.8,1.334416,621616,28781
1433.04,1.333900,622129,28839
1436.27,1.330537,621526,29035
1439.5,1.332393,621113,28892
1442.72,1.328159,620921,29166
1445.94,1.334986,620270,28681
1450.23,1.329224,618860,28998
1453.44,1.337121,617697,28422
1456.64,1.336601,616264,28390
1459.85,1.336613,614413,28304
1463.04,1.330664,612307,28596
1466.24,1.338133,610032,28004
1469.43,1.338080,607345,27884
1473.67,1.334674,603789,27939
1476.85,1.334925,601175,27802
1480.02,1.332981,597737,27767
1483.19,1.334756,594479,27503
1486.36,1.334896,591232,27344
1489.52,1.337680,587853,27014
1492.68,1.338088,583875,26806
1496.89,1.335512,578062,26697
1500.03,1.341212,574159,26171
1503.18,1.342876,570285,25895
1506.32,1.337450,565444,25998
1509.45,1.337129,560571,25793
1512.58,1.335086,555821,25695
1515.71,1.339406,550344,25190
1519.87,1.336414,543983,25071
1522.99,1.330722,538764,25158
1526.1,1.336462,533692,24594
1529.21,1.332184,527902,24568
1532.32,1.334856,521886,24139
1535.42,1.339680,515888,23598
1538.51,1.337880,509987,23425
1541.6,1.336457,503936,23223
1545.72,1.330800,494694,23096
1548.8,1.333113,488378,22680
1551.88,1.336797,481832,22187
1554.95,1.335566,474989,21934
1558.02,1.341514,467818,21309
1561.08,1.339761,460730,21071
1564.15,1.327658,454170,21358
1568.22,1.329935,444181,20779
1571.27,1.335034,436947,20202
1574.32,1.332684,429598,19970
1577.36,1.326740,422039,19889
1580.4,1.334409,414375,19186
1583.43,1.323302,406354,19302
1586.46,1.327006,398475,18767
1590.49,1.331244,388982,18142
1593.51,1.332349,380708,17711
1596.53,1.329844,372727,17440
1599.54,1.330767,365060,17045
1602.55,1.326496,357543,16859
1605.55,1.332775,349495,16243
1608.55,1.320869,341154,16296
1612.54,1.331948,330877,15407
1615.53,1.318042,322904,15525
1618.51,1.324702,315116,14920
1621.49,1.331017,307217,14336
1624.47,1.322006,299481,14268
1627.44,1.310791,292112,14281
1630.41,1.323874,284245,13484
1634.36,1.308379,274079,13474
1637.32,1.318690,266916,12814
1640.27,1.313575,259612,12611
1643.22,1.298183,251804,12673
1646.16,1.307094,244348,12048
1649.1,1.321471,236703,11291
1652.04,1.305336,228171,11296
1655.95,1.306483,215408,10636
1658.88,1.305925,204937,10132
1661.8,1.294599,193395,9814
1664.72,1.297152,179728,9067
1667.63,1.279902,163642,8590
1670.54,1.281902,146312,7645
1673.44,1.288930,128451,6604
1677.31,1.264732,105080,5712
1680.21,1.295429,88906,4503
1683.1,1.209390,75033,4633
1685.99,1.287964,63520,3273
1688.87,1.240832,53714,3085
1691.75,1.280708,45653,2392
1694.62,1.217107,39137,2374
1697.49,1.284826,33776,1753
1701.31,1.245744,28175,1600