File: ML/samples/unknown/Column 1_078236_20241121_165210.csv
Method:,Column 1,,
Host Date-Time:,21/11/24 @ 16:52:10,,
Header Version:,1,,
System Temp (C):,34.18,,
Detector Temp (C):,31.48,,
Humidity (%):,2.89,,
Lamp PD:,3803,,
Shift Vector Coefficients:,-10.5391,0.0761263,-0.000134223,,
Pixel to Wavelength Coefficients:,1775.68,-0.916766,-0.000235065,,
Serial Number:,5510004,,
Scan Config Name:,Column 1,,
Scan Config Type:,Slew,,
Section 1,,
Start wavelength (nm):,900,,
End wavelength (nm):,1700,,
Pattern Pixel Width (nm):,   7.03,,,,
Exposure (ms):,  0.635,,,,
Digital Resolution:,228,,
Num Repeats:,6,,
PGA Gain:,64,,
Total Measurement Time in sec:,  2.728,,
Wavelength (nm),Absorbance (AU),Reference Signal (unitless),Sample Signal (unitless)
901.51,1.326100,108485,5120
905.376,1.320454,121306,5800
909.237,1.324951,131909,6242
913.095,1.314571,143299,6945
916.948,1.325680,156982,7416
922.079,1.317904,179937,8654
925.923,1.312095,200504,9773
929.762,1.327447,222660,10476
933.597,1.313733,244426,11869
937.427,1.318644,263972,12674
941.254,1.320868,281845,13463
945.076,1.308532,297271,14609
950.165,1.319133,315605,15136
953.978,1.314187,328029,15912
957.786,1.305221,340470,16860
961.59,1.301372,352317,17602
965.389,1.306418,363056,17929
969.185,1.302384,373162,18600
972.976,1.318294,382632,18386
976.763,1.312096,391202,19068
981.806,1.321597,400190,19084
985.583,1.300397,406088,20334
989.355,1.307755,410162,20193
993.124,1.317373,412868,19881
996.888,1.300824,414263,20723
1000.65,1.308278,415476,20430
1004.4,1.299735,415479,20836
1009.41,1.312670,414358,20170
1013.15,1.308566,412923,20291
1016.89,1.306431,411526,20322
1020.63,1.309701,409066,20049
1024.36,1.313525,406777,19762
1028.09,1.296869,404427,20416
1031.82,1.305451,401911,19892
1036.78,1.314301,398410,19321
1040.49,1.301802,396204,19775
1044.2,1.310469,394236,19288
1047.91,1.302208,392042,19549
1051.61,1.309880,389823,19098
1055.31,1.310180,388234,19007
1059,1.319267,387599,18583
1063.92,1.313226,386688,18799
1067.61,1.312040,386598,18846
1071.29,1.315990,387377,18713
1074.96,1.313061,388536,18896
1078.63,1.310735,389855,19062
1082.3,1.311883,391215,19078
1085.96,1.320010,393215,18820
1090.84,1.312839,396270,19282
1094.49,1.315447,398760,19287
1098.14,1.315552,400987,19390
1101.79,1.318308,403477,19387
1105.43,1.325055,406116,19213
1109.06,1.322025,407701,19423
1112.7,1.312496,409859,19959
1117.53,1.319675,412494,19758
1121.15,1.322606,414909,19740
1124.77,1.315014,416559,20168
1128.38,1.321633,418532,19957
1131.99,1.317637,419956,20210
1135.6,1.314457,421946,20455
1139.2,1.315681,423881,20491
1143.99,1.314723,426786,20677
1147.58,1.308694,428617,21056
1151.17,1.318950,431169,20687
1154.75,1.321875,433579,20663
1158.33,1.314152,436264,21164
1161.91,1.318848,439132,21074
1165.48,1.310046,442389,21665
1169.04,1.315382,446101,21580
1173.79,1.316176,451929,21822
1177.34,1.316567,456026,22000
1180.9,1.317343,461306,22215
1184.44,1.318363,467657,22468
1187.99,1.317054,473969,22840
1191.52,1.318063,479856,23070
1195.06,1.319332,487372,23363
1199.76,1.322186,497347,23685
1203.29,1.327840,504311,23706
1206.81,1.320928,511507,24430
1210.33,1.316876,519078,25024
1213.84,1.321044,527163,25171
1217.35,1.324847,534208,25285
1220.85,1.321238,540472,25795
1225.51,1.326303,549929,25942
1229.01,1.325333,556888,26329
1232.5,1.319091,562180,26964
1235.98,1.328713,567975,26645
1239.46,1.321667,574815,27407
1242.94,1.323105,582782,27695
1246.41,1.327564,591476,27821
1251.03,1.327684,604016,28403
1254.5,1.328077,612289,28766
1257.96,1.332914,619125,28765
1261.41,1.326571,624551,29444
1264.86,1.324793,629900,29818
1268.31,1.327047,634345,29873
1271.75,1.337722,638574,29342
1276.33,1.325356,642499,30375
1279.76,1.326239,645905,30474
1283.19,1.329150,648307,30383
1286.61,1.325974,650446,30707
1290.03,1.330549,652132,30464
1293.44,1.326120,653907,30860
1296.85,1.331541,655963,30573
1301.39,1.332756,657349,30552
1304.8,1.327498,657558,30934
1308.19,1.327442,658515,30983
1311.58,1.330177,658804,30802
1314.97,1.329863,659011,30834
1318.36,1.329390,658272,30833
1321.73,1.333869,658022,30505
1326.23,1.324139,657870,31189
1329.6,1.331189,656482,30622
1332.97,1.335194,654926,30269
1336.33,1.328131,653727,30709
1339.69,1.333595,652497,30268
1343.04,1.328570,649913,30499
1346.39,1.330055,647671,30290
1349.73,1.331250,645338,30098
1354.18,1.329826,641175,30002
1357.52,1.335962,638376,29452
1360.85,1.334106,635805,29459
1364.17,1.326597,633413,29860
1367.49,1.325685,631026,29810
1370.81,1.336946,628050,28910
1374.12,1.327571,625034,29399
1378.54,1.331234,620272,28930
1381.84,1.331420,616892,28760
1385.14,1.331073,613613,28630
1388.43,1.325562,611526,28897
1391.72,1.322446,610663,29064
1395.01,1.325982,610634,28827
1398.29,1.324036,611700,29007
1402.66,1.329975,614051,28723
1405.93,1.323510,616268,29259
1409.2,1.327938,617795,29034
1412.46,1.325297,618872,29262
1415.72,1.331290,619795,28904
1418.98,1.333074,620495,28818
1422.23,1.330201,621087,29037
1426.56,1.330148,621375,29054
1429.8,1.334281,621616,28790
1433.04,1.332307,622129,28945
1436.27,1.329999,621526,29071
1439.5,1.334216,621113,28771
1442.72,1.330204,620921,29029
1445.94,1.334003,620270,28746
1450.23,1.331793,618860,28827
1453.44,1.342069,617697,28100
1456.64,1.341447,616264,28075
1459.85,1.331018,614413,28671
1463.04,1.342394,612307,27834
1466.24,1.333367,610032,28313
1469.43,1.331189,607345,28330
1473.67,1.333107,603789,28040
1476.85,1.330820,601175,28066
1480.02,1.336483,597737,27544
1483.19,1.342050,594479,27045
1486.36,1.328526,591232,27748
1489.52,1.342514,587853,26715
1492.68,1.332966,583875,27124
1496.89,1.332497,578062,26883
1500.03,1.338367,574159,26343
1503.18,1.338703,570285,26145
1506.32,1.335732,565444,26101
1509.45,1.338900,560571,25688
1512.58,1.337068,555821,25578
1515.71,1.333107,550344,25558
1519.87,1.345870,543983,24531
1522.99,1.335025,538764,24910
1526.1,1.340186,533692,24384
1529.21,1.344810,527902,23864
1532.32,1.332685,521886,24260
1535.42,1.334867,515888,23861
1538.51,1.337620,509987,23439
1541.6,1.341668,503936,22946
1545.72,1.332911,494694,22984
1548.8,1.336130,488378,22523
1551.88,1.330868,481832,22492
1554.95,1.330937,474989,22169
1558.02,1.343004,467818,21236
1561.08,1.333683,460730,21368
1564.15,1.334544,454170,21022
1568.22,1.335361,444181,20521
1571.27,1.337946,436947,20067
1574.32,1.337341,429598,19757
1577.36,1.330644,422039,19711
1580.4,1.338800,414375,18993
1583.43,1.322089,406354,19356
1586.46,1.331519,398475,18573
1590.49,1.336180,388982,17937
1593.51,1.328054,380708,17887
1596.53,1.319874,372727,17845
1599.54,1.327518,365060,17173
1602.55,1.334058,357543,16568
1605.55,1.332614,349495,16249
1608.55,1.323650,341154,16192
1612.54,1.332456,330877,15389
1615.53,1.324467,322904,15297
1618.51,1.313580,315116,15307
1621.49,1.318359,307217,14760
1624.47,1.319033,299481,14366
1627.44,1.315899,292112,14114
1630.41,1.324067,284245,13478
1634.36,1.295831,274079,13869
1637.32,1.321001,266916,12746
1640.27,1.324067,259612,12310
1643.22,1.304709,251804,12484
1646.16,1.313302,244348,11877
1649.1,1.317032,236703,11407
1652.04,1.304376,228171,11321
1655.95,1.298313,215408,10838
1658.88,1.303446,204937,10190
1661.8,1.326975,193395,9109
1664.72,1.291111,179728,9194
1667.63,1.270598,163642,8776
1670.54,1.257707,146312,8083
1673.44,1.243574,128451,7331
1677.31,1.261550,105080,5754
1680.21,1.237883,88906,5141
1683.1,1.175155,75033,5013
1685.99,1.229227,63520,3747
1688.87,1.178760,53714,3559
1691.75,1.275475,45653,2421
1694.62,1.163805,39137,2684
1697.49,1.193552,33776,2163
1701.31,1.132218,28175,2078