File: ML/samples/unknown/Column 1_078159_20241121_164822.csv
Method:,Column 1,,
Host Date-Time:,21/11/24 @ 16:48:22,,
Header Version:,1,,
System Temp (C):,33.32,,
Detector Temp (C):,29.49,,
Humidity (%):,3.32,,
Lamp PD:,3805,,
Shift Vector Coefficients:,-10.5391,0.0761263,-0.000134223,,
Pixel to Wavelength Coefficients:,1775.68,-0.916766,-0.000235065,,
Serial Number:,5510004,,
Scan Config Name:,Column 1,,
Scan Config Type:,Slew,,
Section 1,,
Start wavelength (nm):,900,,
End wavelength (nm):,1700,,
Pattern Pixel Width (nm):,   7.03,,,,
Exposure (ms):,  0.635,,,,
Digital Resolution:,228,,
Num Repeats:,6,,
PGA Gain:,64,,
Total Measurement Time in sec:,  2.705,,
Wavelength (nm),Absorbance (AU),Reference Signal (unitless),Sample Signal (unitless)
901.51,1.342523,108485,4930
905.376,1.311561,121306,5920
909.237,1.296409,131909,6666
913.095,1.319856,143299,6861
916.948,1.329090,156982,7358
922.079,1.297753,179937,9065
925.923,1.299611,200504,10058
929.762,1.317974,222660,10707
933.597,1.328584,244426,11470
937.427,1.312520,263972,12854
941.254,1.311613,281845,13753
945.076,1.311785,297271,14500
950.165,1.313347,315605,15339
953.978,1.325272,328029,15511
957.786,1.316706,340470,16420
961.59,1.309641,352317,17270
965.389,1.318601,363056,17433
969.185,1.308925,373162,18322
972.976,1.316009,382632,18483
976.763,1.311027,391202,19115
981.806,1.306260,400190,19770
985.583,1.314794,406088,19671
989.355,1.312512,410162,19973
993.124,1.312788,412868,20092
996.888,1.310401,414263,20271
1000.65,1.317994,415476,19978
1004.4,1.306541,415479,20512
1009.41,1.314677,414358,20077
1013.15,1.310475,412923,20202
1016.89,1.315086,411526,19921
1020.63,1.313290,409066,19884
1024.36,1.312911,406777,19790
1028.09,1.311317,404427,19748
1031.82,1.315501,401911,19437
1036.78,1.309383,398410,19541
1040.49,1.308464,396204,19474
1044.2,1.313837,394236,19139
1047.91,1.312276,392042,19101
1051.61,1.327255,389823,18349
1055.31,1.303289,388234,19311
1059,1.320367,387599,18536
1063.92,1.314637,386688,18738
1067.61,1.309994,386598,18935
1071.29,1.313653,387377,18814
1074.96,1.319475,388536,18619
1078.63,1.311578,389855,19025
1082.3,1.318489,391215,18790
1085.96,1.320888,393215,18782
1090.84,1.321392,396270,18906
1094.49,1.318384,398760,19157
1098.14,1.319445,400987,19217
1101.79,1.323038,403477,19177
1105.43,1.317348,406116,19557
1109.06,1.324515,407701,19312
1112.7,1.314240,409859,19879
1117.53,1.306086,412494,20386
1121.15,1.317662,414909,19966
1124.77,1.311432,416559,20335
1128.38,1.329340,418532,19606
1131.99,1.318907,419956,20151
1135.6,1.317718,421946,20302
1139.2,1.317848,423881,20389
1143.99,1.314261,426786,20699
1147.58,1.312693,428617,20863
1151.17,1.325188,431169,20392
1154.75,1.324214,433579,20552
1158.33,1.318918,436264,20933
1161.91,1.325159,439132,20770
1165.48,1.317078,442389,21317
1169.04,1.317642,446101,21468
1173.79,1.314884,451929,21887
1177.34,1.317931,456026,21931
1180.9,1.319047,461306,22128
1184.44,1.315665,467657,22608
1187.99,1.315005,473969,22948
1191.52,1.322567,479856,22832
1195.06,1.322073,487372,23216
1199.76,1.327221,497347,23412
1203.29,1.320573,504311,24106
1206.81,1.313106,511507,24874
1210.33,1.319557,519078,24870
1213.84,1.320183,527163,25221
1217.35,1.319504,534208,25598
1220.85,1.321524,540472,25778
1225.51,1.324399,549929,26056
1229.01,1.321409,556888,26568
1232.5,1.318078,562180,27027
1235.98,1.324561,567975,26901
1239.46,1.326559,574815,27100
1242.94,1.325668,582782,27532
1246.41,1.326317,591476,27901
1251.03,1.323272,604016,28693
1254.5,1.323034,612289,29102
1257.96,1.325905,619125,29233
1261.41,1.331063,624551,29141
1264.86,1.324473,629900,29840
1268.31,1.325827,634345,29957
1271.75,1.330136,638574,29859
1276.33,1.323886,642499,30478
1279.76,1.330694,645905,30163
1283.19,1.331616,648307,30211
1286.61,1.336669,650446,29960
1290.03,1.324307,652132,30905
1293.44,1.334877,653907,30244
1296.85,1.331811,655963,30554
1301.39,1.339648,657349,30071
1304.8,1.327175,657558,30957
1308.19,1.331272,658515,30711
1311.58,1.333333,658804,30579
1314.97,1.331373,659011,30727
1318.36,1.334832,658272,30449
1321.73,1.331074,658022,30702
1326.23,1.330083,657870,30765
1329.6,1.333251,656482,30477
1332.97,1.334606,654926,30310
1336.33,1.335289,653727,30207
1339.69,1.330877,652497,30458
1343.04,1.330911,649913,30335
1346.39,1.334378,647671,29990
1349.73,1.329766,645338,30201
1354.18,1.329060,641175,30055
1357.52,1.337158,638376,29371
1360.85,1.334224,635805,29451
1364.17,1.328638,633413,29720
1367.49,1.333639,631026,29269
1370.81,1.330475,628050,29344
1374.12,1.332713,625034,29053
1378.54,1.330634,620272,28970
1381.84,1.334603,616892,28550
1385.14,1.325751,613613,28983
1388.43,1.329245,611526,28653
1391.72,1.327421,610663,28733
1395.01,1.321038,610634,29157
1398.29,1.325731,611700,28894
1402.66,1.332264,614051,28572
1405.93,1.330362,616268,28801
1409.2,1.332978,617795,28699
1412.46,1.332389,618872,28788
1415.72,1.332871,619795,28799
1418.98,1.330550,620495,28986
1422.23,1.326641,621087,29276
1426.56,1.335321,621375,28710
1429.8,1.334401,621616,28782
1433.04,1.331258,622129,29015
1436.27,1.333148,621526,28861
1439.5,1.332664,621113,28874
1442.72,1.334746,620921,28727
1445.94,1.335274,620270,28662
1450.23,1.339331,618860,28331
1453.44,1.338422,617697,28337
1456.64,1.334252,616264,28544
1459.85,1.335616,614413,28369
1463.04,1.338882,612307,28060
1466.24,1.334796,610032,28220
1469.43,1.341536,607345,27663
1473.67,1.341268,603789,27518
1476.85,1.338013,601175,27605
1480.02,1.338966,597737,27387
1483.19,1.333968,594479,27553
1486.36,1.339542,591232,27053
1489.52,1.334780,587853,27195
1492.68,1.339792,583875,26701
1496.89,1.341210,578062,26349
1500.03,1.343158,574159,26054
1503.18,1.334356,570285,26408
1506.32,1.343794,565444,25621
1509.45,1.344105,560571,25382
1512.58,1.339418,555821,25440
1515.71,1.341116,550344,25091
1519.87,1.338236,543983,24966
1522.99,1.337981,538764,24741
1526.1,1.338160,533692,24498
1529.21,1.337842,527902,24250
1532.32,1.340506,521886,23827
1535.42,1.338247,515888,23676
1538.51,1.333563,509987,23659
1541.6,1.340836,503936,22990
1545.72,1.342927,494694,22460
1548.8,1.341817,488378,22230
1551.88,1.330539,481832,22509
1554.95,1.333334,474989,22047
1558.02,1.339176,467818,21424
1561.08,1.343051,460730,20912
1564.15,1.335972,454170,20953
1568.22,1.332114,444181,20675
1571.27,1.335529,436947,20179
1574.32,1.339390,429598,19664
1577.36,1.342595,422039,19176
1580.4,1.335202,414375,19151
1583.43,1.336761,406354,18713
1586.46,1.330771,398475,18605
1590.49,1.324569,388982,18423
1593.51,1.329684,380708,17820
1596.53,1.322364,372727,17743
1599.54,1.319177,365060,17506
1602.55,1.338220,357543,16410
1605.55,1.331014,349495,16309
1608.55,1.323194,341154,16209
1612.54,1.330654,330877,15453
1615.53,1.339164,322904,14788
1618.51,1.322785,315116,14986
1621.49,1.323301,307217,14593
1624.47,1.325061,299481,14168
1627.44,1.330480,292112,13648
1630.41,1.320985,284245,13574
1634.36,1.331005,274079,12790
1637.32,1.313368,266916,12972
1640.27,1.313128,259612,12624
1643.22,1.304709,251804,12484
1646.16,1.314694,244348,11839
1649.1,1.319438,236703,11344
1652.04,1.321871,228171,10874
1655.95,1.307056,215408,10622
1658.88,1.316073,204937,9898
1661.8,1.309088,193395,9492
1664.72,1.284408,179728,9337
1667.63,1.303911,163642,8128
1670.54,1.285611,146312,7580
1673.44,1.287617,128451,6624
1677.31,1.267325,105080,5678
1680.21,1.231677,88906,5215
1683.1,1.229634,75033,4422
1685.99,1.302125,63520,3168
1688.87,1.233573,53714,3137
1691.75,1.243328,45653,2607
1694.62,1.207160,39137,2429
1697.49,1.194356,33776,2159
1701.31,1.336924,28175,1297