File: ML/samples/unknown/Column 1_078469_20241121_170412.csv
Method:,Column 1,,
Host Date-Time:,21/11/24 @ 17:4:12,,
Header Version:,1,,
System Temp (C):,34.54,,
Detector Temp (C):,33.7,,
Humidity (%):,1.86,,
Lamp PD:,3802,,
Shift Vector Coefficients:,-10.5391,0.0761263,-0.000134223,,
Pixel to Wavelength Coefficients:,1775.68,-0.916766,-0.000235065,,
Serial Number:,5510004,,
Scan Config Name:,Column 1,,
Scan Config Type:,Slew,,
Section 1,,
Start wavelength (nm):,900,,
End wavelength (nm):,1700,,
Pattern Pixel Width (nm):,   7.03,,,,
Exposure (ms):,  0.635,,,,
Digital Resolution:,228,,
Num Repeats:,6,,
PGA Gain:,64,,
Total Measurement Time in sec:,  2.729,,
Wavelength (nm),Absorbance (AU),Reference Signal (unitless),Sample Signal (unitless)
901.51,1.319868,108485,5194
905.376,1.306166,121306,5994
909.237,1.301455,131909,6589
913.095,1.324821,143299,6783
916.948,1.319574,156982,7521
922.079,1.339985,179937,8225
925.923,1.306312,200504,9904
929.762,1.327820,222660,10467
933.597,1.323016,244426,11618
937.427,1.334060,263972,12232
941.254,1.322323,281845,13418
945.076,1.317908,297271,14297
950.165,1.313403,315605,15337
953.978,1.319515,328029,15718
957.786,1.314621,340470,16499
961.59,1.328845,352317,16523
965.389,1.313081,363056,17656
969.185,1.308688,373162,18332
972.976,1.314929,382632,18529
976.763,1.310800,391202,19125
981.806,1.309966,400190,19602
985.583,1.314396,406088,19689
989.355,1.308142,410162,20175
993.124,1.316195,412868,19935
996.888,1.313217,414263,20140
1000.65,1.303374,415476,20662
1004.4,1.316067,415479,20067
1009.41,1.311638,414358,20218
1013.15,1.312068,412923,20128
1016.89,1.309089,411526,20198
1020.63,1.309354,409066,20065
1024.36,1.314846,406777,19702
1028.09,1.308730,404427,19866
1031.82,1.310414,401911,19666
1036.78,1.312394,398410,19406
1040.49,1.313849,396204,19234
1044.2,1.306212,394236,19478
1047.91,1.308383,392042,19273
1051.61,1.303581,389823,19377
1055.31,1.312471,388234,18907
1059,1.314294,387599,18797
1063.92,1.317988,386688,18594
1067.61,1.311143,386598,18885
1071.29,1.318901,387377,18588
1074.96,1.313475,388536,18878
1078.63,1.313821,389855,18927
1082.3,1.318235,391215,18801
1085.96,1.311397,393215,19197
1090.84,1.316185,396270,19134
1094.49,1.321182,398760,19034
1098.14,1.314389,400987,19442
1101.79,1.313607,403477,19598
1105.43,1.315708,406116,19631
1109.06,1.315193,407701,19731
1112.7,1.318565,409859,19682
1117.53,1.314713,412494,19985
1121.15,1.310307,414909,20307
1124.77,1.315639,416559,20139
1128.38,1.323728,418532,19861
1131.99,1.317938,419956,20196
1135.6,1.323121,421946,20051
1139.2,1.324329,423881,20087
1143.99,1.319963,426786,20429
1147.58,1.320888,428617,20473
1151.17,1.318572,431169,20705
1154.75,1.316382,433579,20926
1158.33,1.317447,436264,21004
1161.91,1.314726,439132,21275
1165.48,1.330044,442389,20690
1169.04,1.321400,446101,21283
1173.79,1.315837,451929,21839
1177.34,1.325381,456026,21558
1180.9,1.319145,461306,22123
1184.44,1.316088,467657,22586
1187.99,1.314532,473969,22973
1191.52,1.317649,479856,23092
1195.06,1.317996,487372,23435
1199.76,1.322039,497347,23693
1203.29,1.317164,504311,24296
1206.81,1.323460,511507,24288
1210.33,1.327469,519078,24421
1213.84,1.319873,527163,25239
1217.35,1.321801,534208,25463
1220.85,1.340463,540472,24678
1225.51,1.323466,549929,26112
1229.01,1.319924,556888,26659
1232.5,1.329474,562180,26327
1235.98,1.325887,567975,26819
1239.46,1.320606,574815,27474
1242.94,1.323591,582782,27664
1246.41,1.328674,591476,27750
1251.03,1.324880,604016,28587
1254.5,1.327941,612289,28775
1257.96,1.334018,619125,28692
1261.41,1.334265,624551,28927
1264.86,1.328582,629900,29559
1268.31,1.327207,634345,29862
1271.75,1.324486,638574,30250
1276.33,1.328672,642499,30144
1279.76,1.330262,645905,30193
1283.19,1.328479,648307,30430
1286.61,1.329268,650446,30475
1290.03,1.331448,652132,30401
1293.44,1.323846,653907,31022
1296.85,1.328978,655963,30754
1301.39,1.323892,657349,31182
1304.8,1.332383,657558,30588
1308.19,1.329465,658515,30839
1311.58,1.333617,658804,30559
1314.97,1.333228,659011,30596
1318.36,1.336061,658272,30363
1321.73,1.332775,658022,30582
1326.23,1.331582,657870,30659
1329.6,1.329434,656482,30746
1332.97,1.328729,654926,30723
1336.33,1.329576,653727,30607
1339.69,1.332177,652497,30367
1343.04,1.330911,649913,30335
1346.39,1.329124,647671,30355
1349.73,1.336315,645338,29749
1354.18,1.327401,641175,30170
1357.52,1.329783,638376,29874
1360.85,1.327943,635805,29880
1364.17,1.324175,633413,30027
1367.49,1.325292,631026,29837
1370.81,1.323326,628050,29831
1374.12,1.323162,625034,29699
1378.54,1.328272,620272,29128
1381.84,1.323060,616892,29319
1385.14,1.330861,613613,28644
1388.43,1.328548,611526,28699
1391.72,1.328571,610663,28657
1395.01,1.329172,610634,28616
1398.29,1.332395,611700,28454
1402.66,1.333878,614051,28466
1405.93,1.332221,616268,28678
1409.2,1.334144,617795,28622
1412.46,1.330868,618872,28889
1415.72,1.328952,619795,29060
1418.98,1.332788,620495,28837
1422.23,1.339269,621087,28437
1426.56,1.332065,621375,28926
1429.8,1.334401,621616,28782
1433.04,1.331872,622129,28974
1436.27,1.338538,621526,28505
1439.5,1.333778,621113,28800
1442.72,1.338603,620921,28473
1445.94,1.335380,620270,28655
1450.23,1.332140,618860,28804
1453.44,1.334607,617697,28587
1456.64,1.337950,616264,28302
1459.85,1.339584,614413,28111
1463.04,1.335352,612307,28289
1466.24,1.336075,610032,28137
1469.43,1.334652,607345,28105
1473.67,1.329083,603789,28301
1476.85,1.335003,601175,27797
1480.02,1.327294,597737,28133
1483.19,1.338038,594479,27296
1486.36,1.339013,591232,27086
1489.52,1.340616,587853,26832
1492.68,1.361708,583875,25387
1496.89,1.340453,578062,26395
1500.03,1.332586,574159,26696
1503.18,1.333798,570285,26442
1506.32,1.339963,565444,25848
1509.45,1.339577,560571,25648
1512.58,1.340649,555821,25368
1515.71,1.337205,550344,25318
1519.87,1.332843,543983,25278
1522.99,1.338139,538764,24732
1526.1,1.343565,533692,24195
1529.21,1.338774,527902,24198
1532.32,1.337165,521886,24011
1535.42,1.331820,515888,24029
1538.51,1.340073,509987,23307
1541.6,1.334852,503936,23309
1545.72,1.335355,494694,22855
1548.8,1.342442,488378,22198
1551.88,1.334435,481832,22308
1554.95,1.341748,474989,21624
1558.02,1.332658,467818,21748
1561.08,1.331392,460730,21481
1564.15,1.337176,454170,20895
1568.22,1.342187,444181,20201
1571.27,1.337773,436947,20075
1574.32,1.343986,429598,19457
1577.36,1.341780,422039,19212
1580.4,1.326358,414375,19545
1583.43,1.331318,406354,18949
1586.46,1.334028,398475,18466
1590.49,1.342324,388982,17685
1593.51,1.333257,380708,17674
1596.53,1.339285,372727,17065
1599.54,1.333220,365060,16949
1602.55,1.321146,357543,17068
1605.55,1.335995,349495,16123
1608.55,1.310885,341154,16675
1612.54,1.328132,330877,15543
1615.53,1.327058,322904,15206
1618.51,1.325022,315116,14909
1621.49,1.330321,307217,14359
1624.47,1.335704,299481,13825
1627.44,1.323849,292112,13858
1630.41,1.319006,284245,13636
1634.36,1.320207,274079,13112
1637.32,1.325556,266916,12613
1640.27,1.326472,259612,12242
1643.22,1.323622,251804,11952
1646.16,1.321683,244348,11650
1649.1,1.303538,236703,11767
1652.04,1.296092,228171,11539
1655.95,1.314603,215408,10439
1658.88,1.297478,204937,10331
1661.8,1.306169,193395,9556
1664.72,1.274340,179728,9556
1667.63,1.284169,163642,8506
1670.54,1.239607,146312,8427
1673.44,1.230963,128451,7547
1677.31,1.191509,105080,6761
1680.21,1.195731,88906,5665
1683.1,1.207706,75033,4651
1685.99,1.174317,63520,4252
1688.87,1.156172,53714,3749
1691.75,1.164480,45653,3126
1694.62,1.153097,39137,2751
1697.49,1.270450,33776,1812
1701.31,1.122301,28175,2126