File: ML/samples/unknown/Column 1_078699_20241121_171755.csv
Method:,Column 1,,
Host Date-Time:,21/11/24 @ 17:17:55,,
Header Version:,1,,
System Temp (C):,35.29,,
Detector Temp (C):,34.4,,
Humidity (%):,1.66,,
Lamp PD:,3800,,
Shift Vector Coefficients:,-10.5391,0.0761263,-0.000134223,,
Pixel to Wavelength Coefficients:,1775.68,-0.916766,-0.000235065,,
Serial Number:,5510004,,
Scan Config Name:,Column 1,,
Scan Config Type:,Slew,,
Section 1,,
Start wavelength (nm):,900,,
End wavelength (nm):,1700,,
Pattern Pixel Width (nm):,   7.03,,,,
Exposure (ms):,  0.635,,,,
Digital Resolution:,228,,
Num Repeats:,6,,
PGA Gain:,64,,
Total Measurement Time in sec:,  2.724,,
Wavelength (nm),Absorbance (AU),Reference Signal (unitless),Sample Signal (unitless)
901.51,1.308480,108485,5332
905.376,1.323686,121306,5757
909.237,1.312875,131909,6418
913.095,1.334206,143299,6638
916.948,1.312188,156982,7650
922.079,1.337930,179937,8264
925.923,1.317191,200504,9659
929.762,1.311772,222660,10861
933.597,1.321225,244426,11666
937.427,1.314993,263972,12781
941.254,1.308153,281845,13863
945.076,1.306131,297271,14690
950.165,1.307274,315605,15555
953.978,1.302846,328029,16333
957.786,1.305144,340470,16863
961.59,1.313227,352317,17128
965.389,1.312074,363056,17697
969.185,1.296747,373162,18843
972.976,1.314554,382632,18545
976.763,1.304778,391202,19392
981.806,1.301845,400190,19972
985.583,1.300355,406088,20336
989.355,1.303304,410162,20401
993.124,1.305904,412868,20413
996.888,1.303282,414263,20606
1000.65,1.306284,415476,20524
1004.4,1.288176,415479,21398
1009.41,1.302014,414358,20671
1013.15,1.306771,412923,20375
1016.89,1.295896,411526,20821
1020.63,1.307820,409066,20136
1024.36,1.300557,406777,20361
1028.09,1.302738,404427,20142
1031.82,1.302167,401911,20043
1036.78,1.301106,398410,19917
1040.49,1.304335,396204,19660
1044.2,1.301775,394236,19678
1047.91,1.305912,392042,19383
1051.61,1.307702,389823,19194
1055.31,1.306585,388234,19165
1059,1.307440,387599,19096
1063.92,1.300725,386688,19348
1067.61,1.300938,386598,19334
1071.29,1.307169,387377,19097
1074.96,1.308330,388536,19103
1078.63,1.317832,389855,18753
1082.3,1.301247,391215,19551
1085.96,1.309455,393215,19283
1090.84,1.304231,396270,19668
1094.49,1.312641,398760,19412
1098.14,1.316203,400987,19361
1101.79,1.311264,403477,19704
1105.43,1.311349,406116,19829
1109.06,1.313896,407701,19790
1112.7,1.310975,409859,20029
1117.53,1.314171,412494,20010
1121.15,1.310093,414909,20317
1124.77,1.314519,416559,20191
1128.38,1.317950,418532,20127
1131.99,1.313574,419956,20400
1135.6,1.309643,421946,20683
1139.2,1.312513,423881,20641
1143.99,1.296964,426786,21540
1147.58,1.314905,428617,20757
1151.17,1.319643,431169,20654
1154.75,1.313095,433579,21085
1158.33,1.313618,436264,21190
1161.91,1.314195,439132,21301
1165.48,1.305559,442389,21890
1169.04,1.312234,446101,21737
1173.79,1.310678,451929,22100
1177.34,1.315266,456026,22066
1180.9,1.314401,461306,22366
1184.44,1.312812,467657,22757
1187.99,1.316275,473969,22881
1191.52,1.308438,479856,23587
1195.06,1.306511,487372,24063
1199.76,1.312647,497347,24211
1203.29,1.315504,504311,24389
1206.81,1.313123,511507,24873
1210.33,1.316720,519078,25033
1213.84,1.321856,527163,25124
1217.35,1.317186,534208,25735
1220.85,1.312372,540472,26327
1225.51,1.311104,549929,26866
1229.01,1.317487,556888,26809
1232.5,1.320640,562180,26868
1235.98,1.319649,567975,27207
1239.46,1.316876,574815,27711
1242.94,1.317109,582782,28080
1246.41,1.318099,591476,28434
1251.03,1.314522,604016,29277
1254.5,1.323990,612289,29038
1257.96,1.318642,619125,29726
1261.41,1.322139,624551,29746
1264.86,1.321470,629900,30047
1268.31,1.318311,634345,30480
1271.75,1.319036,638574,30632
1276.33,1.324456,642499,30438
1279.76,1.329745,645905,30229
1283.19,1.319272,648307,31082
1286.61,1.320088,650446,31126
1290.03,1.321519,652132,31104
1293.44,1.326359,653907,30843
1296.85,1.324958,655963,31040
1301.39,1.321005,657349,31390
1304.8,1.326979,657558,30971
1308.19,1.325666,658515,31110
1311.58,1.327591,658804,30986
1314.97,1.325937,659011,31114
1318.36,1.327156,658272,30992
1321.73,1.322280,658022,31330
1326.23,1.323096,657870,31264
1329.6,1.327208,656482,30904
1332.97,1.328757,654926,30721
1336.33,1.328060,653727,30714
1339.69,1.326564,652497,30762
1343.04,1.322672,649913,30916
1346.39,1.319349,647671,31046
1349.73,1.325046,645338,30531
1354.18,1.324703,641175,30358
1357.52,1.324538,638376,30237
1360.85,1.329312,635805,29786
1364.17,1.324421,633413,30010
1367.49,1.330166,631026,29504
1370.81,1.322992,628050,29854
1374.12,1.329347,625034,29279
1378.54,1.318220,620272,29810
1381.84,1.327617,616892,29013
1385.14,1.323360,613613,29143
1388.43,1.316873,611526,29481
1391.72,1.324153,610663,28950
1395.01,1.329871,610634,28570
1398.29,1.324170,611700,28998
1402.66,1.326586,614051,28948
1405.93,1.323555,616268,29256
1409.2,1.324392,617795,29272
1412.46,1.324644,618872,29306
1415.72,1.325247,619795,29309
1418.98,1.332246,620495,28873
1422.23,1.325160,621087,29376
1426.56,1.333554,621375,28827
1429.8,1.332414,621616,28914
1433.04,1.328483,622129,29201
1436.27,1.328017,621526,29204
1439.5,1.323938,621113,29460
1442.72,1.328815,620921,29122
1445.94,1.329734,620270,29030
1450.23,1.329075,618860,29008
1453.44,1.329037,617697,28956
1456.64,1.331325,616264,28737
1459.85,1.329490,614413,28772
1463.04,1.329375,612307,28681
1466.24,1.335442,610032,28178
1469.43,1.333371,607345,28188
1473.67,1.325173,603789,28557
1476.85,1.330171,601175,28108
1480.02,1.334438,597737,27674
1483.19,1.336481,594479,27394
1486.36,1.328198,591232,27769
1489.52,1.332995,587853,27307
1492.68,1.333094,583875,27116
1496.89,1.325844,578062,27298
1500.03,1.338268,574159,26349
1503.18,1.330183,570285,26663
1506.32,1.331790,565444,26339
1509.45,1.333240,560571,26025
1512.58,1.328128,555821,26110
1515.71,1.334350,550344,25485
1519.87,1.336206,543983,25083
1522.99,1.330274,538764,25184
1526.1,1.330203,533692,24951
1529.21,1.331795,527902,24590
1532.32,1.320923,521886,24926
1535.42,1.334703,515888,23870
1538.51,1.331548,509987,23769
1541.6,1.337731,503936,23155
1545.72,1.332779,494694,22991
1548.8,1.332902,488378,22691
1551.88,1.336210,481832,22217
1554.95,1.330194,474989,22207
1558.02,1.332458,467818,21758
1561.08,1.326767,460730,21711
1564.15,1.325670,454170,21456
1568.22,1.320630,444181,21229
1571.27,1.325319,436947,20659
1574.32,1.328658,429598,20156
1577.36,1.338761,422039,19346
1580.4,1.331634,414375,19309
1583.43,1.327530,406354,19115
1586.46,1.328026,398475,18723
1590.49,1.322570,388982,18508
1593.51,1.323105,380708,18092
1596.53,1.311869,372727,18177
1599.54,1.325273,365060,17262
1602.55,1.332541,357543,16626
1605.55,1.313887,349495,16965
1608.55,1.319566,341154,16345
1612.54,1.318515,330877,15891
1615.53,1.312897,322904,15710
1618.51,1.320617,315116,15061
1621.49,1.318359,307217,14760
1624.47,1.327859,299481,14077
1627.44,1.328385,292112,13714
1630.41,1.322331,284245,13532
1634.36,1.312037,274079,13361
1637.32,1.305472,266916,13210
1640.27,1.318737,259612,12462
1643.22,1.317094,251804,12133
1646.16,1.307599,244348,12034
1649.1,1.306724,236703,11681
1652.04,1.308190,228171,11222
1655.95,1.291672,215408,11005
1658.88,1.294545,204937,10401
1661.8,1.275721,193395,10250
1664.72,1.273477,179728,9575
1667.63,1.255522,163642,9086
1670.54,1.240639,146312,8407
1673.44,1.217925,128451,7777
1677.31,1.178599,105080,6965
1680.21,1.175657,88906,5933
1683.1,1.170673,75033,5065
1685.99,1.148157,63520,4516
1688.87,1.141816,53714,3875
1691.75,1.136895,45653,3331
1694.62,1.171807,39137,2635
1697.49,1.174692,33776,2259
1701.31,1.168376,28175,1912