File: ML/samples/unknown/Column 1_078876_20241121_172627.csv
Method:,Column 1,,
Host Date-Time:,21/11/24 @ 17:26:27,,
Header Version:,1,,
System Temp (C):,37.59,,
Detector Temp (C):,36.12,,
Humidity (%):,0.98,,
Lamp PD:,3796,,
Shift Vector Coefficients:,-10.5391,0.0761263,-0.000134223,,
Pixel to Wavelength Coefficients:,1775.68,-0.916766,-0.000235065,,
Serial Number:,5510004,,
Scan Config Name:,Column 1,,
Scan Config Type:,Slew,,
Section 1,,
Start wavelength (nm):,900,,
End wavelength (nm):,1700,,
Pattern Pixel Width (nm):,   7.03,,,,
Exposure (ms):,  0.635,,,,
Digital Resolution:,228,,
Num Repeats:,6,,
PGA Gain:,64,,
Total Measurement Time in sec:,  2.725,,
Wavelength (nm),Absorbance (AU),Reference Signal (unitless),Sample Signal (unitless)
901.51,1.316619,108485,5233
905.376,1.299693,121306,6084
909.237,1.311591,131909,6437
913.095,1.279564,143299,7528
916.948,1.330509,156982,7334
922.079,1.319261,179937,8627
925.923,1.320440,200504,9587
929.762,1.323198,222660,10579
933.597,1.323091,244426,11616
937.427,1.311406,263972,12887
941.254,1.316408,281845,13602
945.076,1.304361,297271,14750
950.165,1.312470,315605,15370
953.978,1.308036,328029,16139
957.786,1.309050,340470,16712
961.59,1.306334,352317,17402
965.389,1.297143,363056,18316
969.185,1.304796,373162,18497
972.976,1.302750,382632,19056
976.763,1.299658,391202,19622
981.806,1.303653,400190,19889
985.583,1.315081,406088,19658
989.355,1.308594,410162,20154
993.124,1.305522,412868,20431
996.888,1.303789,414263,20582
1000.65,1.302576,415476,20700
1004.4,1.302621,415479,20698
1009.41,1.311036,414358,20246
1013.15,1.306601,412923,20383
1016.89,1.298385,411526,20702
1020.63,1.298982,409066,20550
1024.36,1.298812,406777,20443
1028.09,1.307202,404427,19936
1031.82,1.306851,401911,19828
1036.78,1.298975,398410,20015
1040.49,1.310274,396204,19393
1044.2,1.295487,394236,19965
1047.91,1.299330,392042,19679
1051.61,1.305918,389823,19273
1055.31,1.311324,388234,18957
1059,1.313463,387599,18833
1063.92,1.308516,386688,19004
1067.61,1.302694,386598,19256
1071.29,1.300713,387377,19383
1074.96,1.308830,388536,19081
1078.63,1.309370,389855,19122
1082.3,1.315311,391215,18928
1085.96,1.315968,393215,18996
1090.84,1.313403,396270,19257
1094.49,1.306422,398760,19692
1098.14,1.308157,400987,19723
1101.79,1.318196,403477,19392
1105.43,1.311393,406116,19827
1109.06,1.307189,407701,20098
1112.7,1.311735,409859,19994
1117.53,1.313563,412494,20038
1121.15,1.315644,414909,20059
1124.77,1.310089,416559,20398
1128.38,1.317906,418532,20129
1131.99,1.308641,419956,20633
1135.6,1.318103,421946,20284
1139.2,1.309996,423881,20761
1143.99,1.313339,426786,20743
1147.58,1.313818,428617,20809
1151.17,1.311953,431169,21023
1154.75,1.305985,433579,21433
1158.33,1.320539,436264,20855
1161.91,1.310318,439132,21492
1165.48,1.308865,442389,21724
1169.04,1.315000,446101,21599
1173.79,1.311603,451929,22053
1177.34,1.305747,456026,22555
1180.9,1.311112,461306,22536
1184.44,1.313519,467657,22720
1187.99,1.313965,473969,23003
1191.52,1.316222,479856,23168
1195.06,1.320244,487372,23314
1199.76,1.321435,497347,23726
1203.29,1.313426,504311,24506
1206.81,1.318464,511507,24569
1210.33,1.316720,519078,25033
1213.84,1.319856,527163,25240
1217.35,1.316562,534208,25772
1220.85,1.321929,540472,25754
1225.51,1.317930,549929,26447
1229.01,1.319680,556888,26674
1232.5,1.326367,562180,26516
1235.98,1.318612,567975,27272
1239.46,1.318635,574815,27599
1242.94,1.317604,582782,28048
1246.41,1.320673,591476,28266
1251.03,1.315651,604016,29201
1254.5,1.323362,612289,29080
1257.96,1.318423,619125,29741
1261.41,1.322256,624551,29738
1264.86,1.316284,629900,30408
1268.31,1.320783,634345,30307
1271.75,1.328061,638574,30002
1276.33,1.318871,642499,30832
1279.76,1.321336,645905,30820
1283.19,1.321064,648307,30954
1286.61,1.323323,650446,30895
1290.03,1.329993,652132,30503
1293.44,1.323650,653907,31036
1296.85,1.331385,655963,30584
1301.39,1.324073,657349,31169
1304.8,1.325509,657558,31076
1308.19,1.322896,658515,31309
1311.58,1.328980,658804,30887
1314.97,1.327503,659011,31002
1318.36,1.327955,658272,30935
1321.73,1.326179,658022,31050
1326.23,1.329688,657870,30793
1329.6,1.337489,656482,30181
1332.97,1.326599,654926,30874
1336.33,1.321395,653727,31189
1339.69,1.324325,652497,30921
1343.04,1.323206,649913,30878
1346.39,1.325974,647671,30576
1349.73,1.323258,645338,30657
1354.18,1.325749,641175,30285
1357.52,1.319071,638376,30620
1360.85,1.327232,635805,29929
1364.17,1.320001,633413,30317
1367.49,1.323795,631026,29940
1370.81,1.324303,628050,29764
1374.12,1.330134,625034,29226
1378.54,1.324604,620272,29375
1381.84,1.320034,616892,29524
1385.14,1.323137,613613,29158
1388.43,1.323000,611526,29068
1391.72,1.325505,610663,28860
1395.01,1.323922,610634,28964
1398.29,1.317807,611700,29426
1402.66,1.329748,614051,28738
1405.93,1.329865,616268,28834
1409.2,1.326310,617795,29143
1412.46,1.325742,618872,29232
1415.72,1.326791,619795,29205
1418.98,1.320348,620495,29675
1422.23,1.325766,621087,29335
1426.56,1.333283,621375,28845
1429.8,1.330182,621616,29063
1433.04,1.327057,622129,29297
1436.27,1.329492,621526,29105
1439.5,1.331042,621113,28982
1442.72,1.329263,620921,29092
1445.94,1.326529,620270,29245
1450.23,1.325081,618860,29276
1453.44,1.329878,617697,28900
1456.64,1.329591,616264,28852
1459.85,1.326977,614413,28939
1463.04,1.326854,612307,28848
1466.24,1.330157,610032,28523
1469.43,1.333017,607345,28211
1473.67,1.330051,603789,28238
1476.85,1.330650,601175,28077
1480.02,1.329880,597737,27966
1483.19,1.334551,594479,27516
1486.36,1.330047,591232,27651
1489.52,1.333823,587853,27255
1492.68,1.329331,583875,27352
1496.89,1.329807,578062,27050
1500.03,1.336393,574159,26463
1503.18,1.328298,570285,26779
1506.32,1.331461,565444,26359
1509.45,1.332606,560571,26063
1512.58,1.334158,555821,25750
1515.71,1.337462,550344,25303
1519.87,1.331299,543983,25368
1522.99,1.334659,538764,24931
1526.1,1.335174,533692,24667
1529.21,1.331230,527902,24622
1532.32,1.334191,521886,24176
1535.42,1.327289,515888,24281
1538.51,1.328471,509987,23938
1541.6,1.329592,503936,23593
1545.72,1.334615,494694,22894
1548.8,1.329205,488378,22885
1551.88,1.325704,481832,22761
1554.95,1.333847,474989,22021
1558.02,1.332238,467818,21769
1561.08,1.320136,460730,22045
1564.15,1.329778,454170,21254
1568.22,1.331904,444181,20685
1571.27,1.319017,436947,20961
1574.32,1.320843,429598,20522
1577.36,1.327330,422039,19862
1580.4,1.331207,414375,19328
1583.43,1.328782,406354,19060
1586.46,1.329722,398475,18650
1590.49,1.316465,388982,18770
1593.51,1.319448,380708,18245
1596.53,1.335030,372727,17233
1599.54,1.313411,365060,17740
1602.55,1.326187,357543,16871
1605.55,1.314220,349495,16952
1608.55,1.321403,341154,16276
1612.54,1.324459,330877,15675
1615.53,1.319667,322904,15467
1618.51,1.313807,315116,15299
1621.49,1.314813,307217,14881
1624.47,1.314044,299481,14532
1627.44,1.307338,292112,14395
1630.41,1.319484,284245,13621
1634.36,1.322831,274079,13033
1637.32,1.315146,266916,12919
1640.27,1.303230,259612,12915
1643.22,1.305614,251804,12458
1646.16,1.304650,244348,12116
1649.1,1.304129,236703,11751
1652.04,1.292270,228171,11641
1655.95,1.294364,215408,10937
1658.88,1.305711,204937,10137
1661.8,1.275213,193395,10262
1664.72,1.261709,179728,9838
1667.63,1.239475,163642,9428
1670.54,1.219664,146312,8823
1673.44,1.197101,128451,8159
1677.31,1.171916,105080,7073
1680.21,1.115147,88906,6820
1683.1,1.116340,75033,5740
1685.99,1.132850,63520,4678
1688.87,1.137356,53714,3915
1691.75,1.115277,45653,3501
1694.62,1.122324,39137,2953
1697.49,1.149121,33776,2396
1701.31,1.116014,28175,2157