File: ML/samples/unknown/Column 1_078032_20241121_164209.csv
Method:,Column 1,,
Host Date-Time:,21/11/24 @ 16:42:9,,
Header Version:,1,,
System Temp (C):,30.25,,
Detector Temp (C):,25.14,,
Humidity (%):,6.09,,
Lamp PD:,3812,,
Shift Vector Coefficients:,-10.5391,0.0761263,-0.000134223,,
Pixel to Wavelength Coefficients:,1775.68,-0.916766,-0.000235065,,
Serial Number:,5510004,,
Scan Config Name:,Column 1,,
Scan Config Type:,Slew,,
Section 1,,
Start wavelength (nm):,900,,
End wavelength (nm):,1700,,
Pattern Pixel Width (nm):,   7.03,,,,
Exposure (ms):,  0.635,,,,
Digital Resolution:,228,,
Num Repeats:,6,,
PGA Gain:,64,,
Total Measurement Time in sec:,  2.725,,
Wavelength (nm),Absorbance (AU),Reference Signal (unitless),Sample Signal (unitless)
901.51,1.306286,108485,5359
905.376,1.303781,121306,6027
909.237,1.310715,131909,6450
913.095,1.324437,143299,6789
916.948,1.305094,156982,7776
922.079,1.309111,179937,8831
925.923,1.325681,200504,9472
929.762,1.307634,222660,10965
933.597,1.314759,244426,11841
937.427,1.320464,263972,12621
941.254,1.314115,281845,13674
945.076,1.309276,297271,14584
950.165,1.314197,315605,15309
953.978,1.316349,328029,15833
957.786,1.313543,340470,16540
961.59,1.312391,352317,17161
965.389,1.305208,363056,17979
969.185,1.309850,373162,18283
972.976,1.311242,382632,18687
976.763,1.309915,391202,19164
981.806,1.312945,400190,19468
985.583,1.307351,406088,20011
989.355,1.302453,410162,20441
993.124,1.313502,412868,20059
996.888,1.308968,414263,20338
1000.65,1.298379,415476,20901
1004.4,1.308855,415479,20403
1009.41,1.308491,414358,20365
1013.15,1.309873,412923,20230
1016.89,1.302919,411526,20487
1020.63,1.306915,409066,20178
1024.36,1.320057,406777,19467
1028.09,1.307071,404427,19942
1031.82,1.307421,401911,19802
1036.78,1.322240,398410,18971
1040.49,1.309022,396204,19449
1044.2,1.305099,394236,19528
1047.91,1.309783,392042,19211
1051.61,1.306256,389823,19258
1055.31,1.310066,388234,19012
1059,1.317052,387599,18678
1063.92,1.311589,386688,18870
1067.61,1.314166,386598,18754
1071.29,1.311075,387377,18926
1074.96,1.316453,388536,18749
1078.63,1.313592,389855,18937
1082.3,1.319507,391215,18746
1085.96,1.316654,393215,18966
1090.84,1.312389,396270,19302
1094.49,1.312619,398760,19413
1098.14,1.312228,400987,19539
1101.79,1.312169,403477,19663
1105.43,1.318193,406116,19519
1109.06,1.312428,407701,19857
1112.7,1.311909,409859,19986
1117.53,1.326967,412494,19429
1121.15,1.326584,414909,19560
1124.77,1.319712,416559,19951
1128.38,1.320200,418532,20023
1131.99,1.316629,419956,20257
1135.6,1.315584,421946,20402
1139.2,1.320240,423881,20277
1143.99,1.317187,426786,20560
1147.58,1.319236,428617,20551
1151.17,1.311994,431169,21021
1154.75,1.319966,433579,20754
1158.33,1.318856,436264,20936
1161.91,1.326268,439132,20717
1165.48,1.316834,442389,21329
1169.04,1.321931,446101,21257
1173.79,1.322935,451929,21485
1177.34,1.326067,456026,21524
1180.9,1.321764,461306,21990
1184.44,1.313978,467657,22696
1187.99,1.312157,473969,23099
1191.52,1.319893,479856,22973
1195.06,1.320878,487372,23280
1199.76,1.323343,497347,23622
1203.29,1.325447,504311,23837
1206.81,1.325737,511507,24161
1210.33,1.324651,519078,24580
1213.84,1.324370,527163,24979
1217.35,1.320745,534208,25525
1220.85,1.328076,540472,25392
1225.51,1.324849,549929,26029
1229.01,1.325977,556888,26290
1232.5,1.325108,562180,26593
1235.98,1.328942,567975,26631
1239.46,1.326767,574815,27087
1242.94,1.328438,582782,27357
1246.41,1.322752,591476,28131
1251.03,1.326951,604016,28451
1254.5,1.320371,612289,29281
1257.96,1.324481,619125,29329
1261.41,1.322169,624551,29744
1264.86,1.327320,629900,29645
1268.31,1.325813,634345,29958
1271.75,1.324787,638574,30229
1276.33,1.325528,642499,30363
1279.76,1.328912,645905,30287
1283.19,1.332191,648307,30171
1286.61,1.328044,650446,30561
1290.03,1.330948,652132,30436
1293.44,1.329029,653907,30654
1296.85,1.330690,655963,30633
1301.39,1.332075,657349,30600
1304.8,1.327638,657558,30924
1308.19,1.335378,658515,30422
1311.58,1.328868,658804,30895
1314.97,1.331613,659011,30710
1318.36,1.333864,658272,30517
1321.73,1.332931,658022,30571
1326.23,1.331143,657870,30690
1329.6,1.337273,656482,30196
1332.97,1.334076,654926,30347
1336.33,1.331253,653727,30489
1339.69,1.332907,652497,30316
1343.04,1.330353,649913,30374
1346.39,1.331635,647671,30180
1349.73,1.327800,645338,30338
1354.18,1.332323,641175,29830
1357.52,1.322189,638376,30401
1360.85,1.326159,635805,30003
1364.17,1.329135,633413,29686
1367.49,1.324696,631026,29878
1370.81,1.327319,628050,29558
1374.12,1.330387,625034,29209
1378.54,1.328824,620272,29091
1381.84,1.326137,616892,29112
1385.14,1.329589,613613,28728
1388.43,1.328730,611526,28687
1391.72,1.329132,610663,28620
1395.01,1.326328,610634,28804
1398.29,1.328702,611700,28697
1402.66,1.329159,614051,28777
1405.93,1.326354,616268,29068
1409.2,1.329436,617795,28934
1412.46,1.329847,618872,28957
1415.72,1.335685,619795,28613
1418.98,1.330730,620495,28974
1422.23,1.330021,621087,29049
1426.56,1.331360,621375,28973
1429.8,1.332684,621616,28896
1433.04,1.333825,622129,28844
1436.27,1.329865,621526,29080
1439.5,1.335047,621113,28716
1442.72,1.334882,620921,28718
1445.94,1.338529,620270,28448
1450.23,1.337678,618860,28439
1453.44,1.332500,617697,28726
1456.64,1.339025,616264,28232
1459.85,1.337211,614413,28265
1463.04,1.334202,612307,28364
1466.24,1.335936,610032,28146
1469.43,1.333541,607345,28177
1473.67,1.328746,603789,28323
1476.85,1.337746,601175,27622
1480.02,1.341574,597737,27223
1483.19,1.334299,594479,27532
1486.36,1.342911,591232,26844
1489.52,1.333807,587853,27256
1492.68,1.342959,583875,26507
1496.89,1.337076,578062,26601
1500.03,1.343475,574159,26035
1503.18,1.338404,570285,26163
1506.32,1.340787,565444,25799
1509.45,1.333323,560571,26020
1512.58,1.334782,555821,25713
1515.71,1.339527,550344,25183
1519.87,1.344562,543983,24605
1522.99,1.338280,538764,24724
1526.1,1.338018,533692,24506
1529.21,1.340050,527902,24127
1532.32,1.337310,521886,24003
1535.42,1.335632,515888,23819
1538.51,1.339607,509987,23332
1541.6,1.343508,503936,22849
1545.72,1.330819,494694,23095
1548.8,1.340276,488378,22309
1551.88,1.342015,481832,21922
1554.95,1.334577,474989,21984
1558.02,1.331362,467818,21813
1561.08,1.329616,460730,21569
1564.15,1.328513,454170,21316
1568.22,1.332304,444181,20666
1571.27,1.341576,436947,19900
1574.32,1.337143,429598,19766
1577.36,1.334828,422039,19522
1580.4,1.342151,414375,18847
1583.43,1.334423,406354,18814
1586.46,1.332549,398475,18529
1590.49,1.334464,388982,18008
1593.51,1.335894,380708,17567
1596.53,1.328800,372727,17482
1599.54,1.330665,365060,17049
1602.55,1.334898,357543,16536
1605.55,1.341634,349495,15915
1608.55,1.317710,341154,16415
1612.54,1.335941,330877,15266
1615.53,1.322880,322904,15353
1618.51,1.327359,315116,14829
1621.49,1.321311,307217,14660
1624.47,1.326412,299481,14124
1627.44,1.318554,292112,14028
1630.41,1.321689,284245,13552
1634.36,1.321434,274079,13075
1637.32,1.328320,266916,12533
1640.27,1.315266,259612,12562
1643.22,1.318672,251804,12089
1646.16,1.315244,244348,11824
1649.1,1.317108,236703,11405
1652.04,1.321073,228171,10894
1655.95,1.331355,215408,10044
1658.88,1.324714,204937,9703
1661.8,1.306669,193395,9545
1664.72,1.312360,179728,8755
1667.63,1.327460,163642,7699
1670.54,1.333346,146312,6791
1673.44,1.363350,128451,5564
1677.31,1.306688,105080,5186
1680.21,1.349157,88906,3979
1683.1,1.326863,75033,3535
1685.99,1.297625,63520,3201
1688.87,1.348611,53714,2407
1691.75,1.367435,45653,1959
1694.62,1.260351,39137,2149
1697.49,1.401828,33776,1339
1701.31,1.331269,28175,1314