File: ML/samples/unknown/Column 1_078231_20241121_165155.csv
Method:,Column 1,,
Host Date-Time:,21/11/24 @ 16:51:55,,
Header Version:,1,,
System Temp (C):,34.11,,
Detector Temp (C):,31.4,,
Humidity (%):,3.28,,
Lamp PD:,3803,,
Shift Vector Coefficients:,-10.5391,0.0761263,-0.000134223,,
Pixel to Wavelength Coefficients:,1775.68,-0.916766,-0.000235065,,
Serial Number:,5510004,,
Scan Config Name:,Column 1,,
Scan Config Type:,Slew,,
Section 1,,
Start wavelength (nm):,900,,
End wavelength (nm):,1700,,
Pattern Pixel Width (nm):,   7.03,,,,
Exposure (ms):,  0.635,,,,
Digital Resolution:,228,,
Num Repeats:,6,,
PGA Gain:,64,,
Total Measurement Time in sec:,  2.721,,
Wavelength (nm),Absorbance (AU),Reference Signal (unitless),Sample Signal (unitless)
901.51,1.307910,108485,5339
905.376,1.308928,121306,5956
909.237,1.314774,131909,6390
913.095,1.317331,143299,6901
916.948,1.321600,156982,7486
922.079,1.318205,179937,8648
925.923,1.314010,200504,9730
929.762,1.321722,222660,10615
933.597,1.321859,244426,11649
937.427,1.314314,263972,12801
941.254,1.316184,281845,13609
945.076,1.317422,297271,14313
950.165,1.311651,315605,15399
953.978,1.325021,328029,15520
957.786,1.322537,340470,16201
961.59,1.315082,352317,17055
965.389,1.309798,363056,17790
969.185,1.312829,373162,18158
972.976,1.310986,382632,18698
976.763,1.319956,391202,18726
981.806,1.306831,400190,19744
985.583,1.309287,406088,19922
989.355,1.310278,410162,20076
993.124,1.310223,412868,20211
996.888,1.312161,414263,20189
1000.65,1.308660,415476,20412
1004.4,1.308940,415479,20399
1009.41,1.307575,414358,20408
1013.15,1.311422,412923,20158
1016.89,1.308573,411526,20222
1020.63,1.305819,409066,20229
1024.36,1.312713,406777,19799
1028.09,1.303342,404427,20114
1031.82,1.311719,401911,19607
1036.78,1.306283,398410,19681
1040.49,1.311552,396204,19336
1044.2,1.310717,394236,19277
1047.91,1.308857,392042,19252
1051.61,1.315211,389823,18865
1055.31,1.314936,388234,18800
1059,1.316518,387599,18701
1063.92,1.301309,386688,19322
1067.61,1.310178,386598,18927
1071.29,1.312063,387377,18883
1074.96,1.311227,388536,18976
1078.63,1.312721,389855,18975
1082.3,1.306139,391215,19332
1085.96,1.320380,393215,18804
1090.84,1.309027,396270,19452
1094.49,1.307393,398760,19648
1098.14,1.317911,400987,19285
1101.79,1.311176,403477,19708
1105.43,1.320602,406116,19411
1109.06,1.310290,407701,19955
1112.7,1.314065,409859,19887
1117.53,1.309959,412494,20205
1121.15,1.312860,414909,20188
1124.77,1.313573,416559,20235
1128.38,1.319831,418532,20040
1131.99,1.324394,419956,19898
1135.6,1.320099,421946,20191
1139.2,1.311483,423881,20690
1143.99,1.320921,426786,20384
1147.58,1.328053,428617,20138
1151.17,1.326211,431169,20344
1154.75,1.317921,433579,20852
1158.33,1.322941,436264,20740
1161.91,1.318560,439132,21088
1165.48,1.315594,442389,21390
1169.04,1.316813,446101,21509
1173.79,1.308307,451929,22221
1177.34,1.316350,456026,22011
1180.9,1.322871,461306,21934
1184.44,1.315646,467657,22609
1187.99,1.321853,473969,22589
1191.52,1.321541,479856,22886
1195.06,1.326152,487372,22999
1199.76,1.318916,497347,23864
1203.29,1.321222,504311,24070
1206.81,1.329075,511507,23976
1210.33,1.316304,519078,25057
1213.84,1.316428,527163,25440
1217.35,1.320201,534208,25557
1220.85,1.318151,540472,25979
1225.51,1.323982,549929,26081
1229.01,1.319029,556888,26714
1232.5,1.323543,562180,26689
1235.98,1.327607,567975,26713
1239.46,1.323365,574815,27300
1242.94,1.325337,582782,27553
1246.41,1.323849,591476,28060
1251.03,1.321626,604016,28802
1254.5,1.317797,612289,29455
1257.96,1.324081,619125,29356
1261.41,1.328997,624551,29280
1264.86,1.327203,629900,29653
1268.31,1.327483,634345,29843
1271.75,1.330369,638574,29843
1276.33,1.328168,642499,30179
1279.76,1.329558,645905,30242
1283.19,1.327196,648307,30520
1286.61,1.326724,650446,30654
1290.03,1.335437,652132,30123
1293.44,1.333558,653907,30336
1296.85,1.325294,655963,31016
1301.39,1.328161,657349,30877
1304.8,1.331971,657558,30617
1308.19,1.330523,658515,30764
1311.58,1.326205,658804,31085
1314.97,1.334137,659011,30532
1318.36,1.333323,658272,30555
1321.73,1.335110,658022,30418
1326.23,1.331582,657870,30659
1329.6,1.331487,656482,30601
1332.97,1.338160,654926,30063
1336.33,1.331196,653727,30493
1339.69,1.327426,652497,30701
1343.04,1.335112,649913,30043
1346.39,1.333351,647671,30061
1349.73,1.338041,645338,29631
1354.18,1.332076,641175,29847
1357.52,1.329536,638376,29891
1360.85,1.332575,635805,29563
1364.17,1.330131,633413,29618
1367.49,1.324987,631026,29858
1370.81,1.333997,628050,29107
1374.12,1.325199,625034,29560
1378.54,1.328555,620272,29109
1381.84,1.327183,616892,29042
1385.14,1.326276,613613,28948
1388.43,1.321389,611526,29176
1391.72,1.328722,610663,28647
1395.01,1.335424,610634,28207
1398.29,1.329839,611700,28622
1402.66,1.331535,614051,28620
1405.93,1.333738,616268,28578
1409.2,1.334175,617795,28620
1412.46,1.335280,618872,28597
1415.72,1.332208,619795,28843
1418.98,1.328980,620495,29091
1422.23,1.330470,621087,29019
1426.56,1.330911,621375,29003
1429.8,1.333753,621616,28825
1433.04,1.330301,622129,29079
1436.27,1.333630,621526,28829
1439.5,1.337397,621113,28561
1442.72,1.330908,620921,28982
1445.94,1.335471,620270,28649
1450.23,1.330710,618860,28899
1453.44,1.339342,617697,28277
1456.64,1.333826,616264,28572
1459.85,1.331215,614413,28658
1463.04,1.338711,612307,28071
1466.24,1.341511,610032,27787
1469.43,1.341520,607345,27664
1473.67,1.334037,603789,27980
1476.85,1.333957,601175,27864
1480.02,1.335035,597737,27636
1483.19,1.334251,594479,27535
1486.36,1.333405,591232,27438
1489.52,1.338597,587853,26957
1492.68,1.338380,583875,26788
1496.89,1.338876,578062,26491
1500.03,1.334837,574159,26558
1503.18,1.339302,570285,26109
1506.32,1.332021,565444,26325
1509.45,1.338258,560571,25726
1512.58,1.335424,555821,25675
1515.71,1.336622,550344,25352
1519.87,1.341396,543983,24785
1522.99,1.334833,538764,24921
1526.1,1.343942,533692,24174
1529.21,1.345429,527902,23830
1532.32,1.333384,521886,24221
1535.42,1.339993,515888,23581
1538.51,1.337768,509987,23431
1541.6,1.342635,503936,22895
1545.72,1.329279,494694,23177
1548.8,1.330574,488378,22813
1551.88,1.337816,481832,22135
1554.95,1.335249,474989,21950
1558.02,1.333577,467818,21702
1561.08,1.322883,460730,21906
1564.15,1.332504,454170,21121
1568.22,1.333777,444181,20596
1571.27,1.327026,436947,20578
1574.32,1.331837,429598,20009
1577.36,1.345731,422039,19038
1580.4,1.335179,414375,19152
1583.43,1.333593,406354,18850
1586.46,1.338853,398475,18262
1590.49,1.333356,388982,18054
1593.51,1.321524,380708,18158
1596.53,1.331766,372727,17363
1599.54,1.323240,365060,17343
1602.55,1.325596,357543,16894
1605.55,1.325037,349495,16535
1608.55,1.323865,341154,16184
1612.54,1.315302,330877,16009
1615.53,1.331479,322904,15052
1618.51,1.336324,315116,14526
1621.49,1.323628,307217,14582
1624.47,1.326658,299481,14116
1627.44,1.322753,292112,13893
1630.41,1.318338,284245,13657
1634.36,1.318125,274079,13175
1637.32,1.331170,266916,12451
1640.27,1.321499,259612,12383
1643.22,1.313459,251804,12235
1646.16,1.310968,244348,11941
1649.1,1.311810,236703,11545
1652.04,1.304568,228171,11316
1655.95,1.302662,215408,10730
1658.88,1.303404,204937,10191
1661.8,1.302548,193395,9636
1664.72,1.287068,179728,9280
1667.63,1.292000,163642,8354
1670.54,1.265241,146312,7944
1673.44,1.229699,128451,7569
1677.31,1.244238,105080,5988
1680.21,1.220902,88906,5346
1683.1,1.219250,75033,4529
1685.99,1.223699,63520,3795
1688.87,1.249506,53714,3024
1691.75,1.253099,45653,2549
1694.62,1.232942,39137,2289
1697.49,1.201863,33776,2122
1701.31,1.205339,28175,1756