File: ML/samples/unknown/Column 1_078224_20241121_165134.csv
Method:,Column 1,,
Host Date-Time:,21/11/24 @ 16:51:34,,
Header Version:,1,,
System Temp (C):,34.1,,
Detector Temp (C):,31.32,,
Humidity (%):,3.47,,
Lamp PD:,3803,,
Shift Vector Coefficients:,-10.5391,0.0761263,-0.000134223,,
Pixel to Wavelength Coefficients:,1775.68,-0.916766,-0.000235065,,
Serial Number:,5510004,,
Scan Config Name:,Column 1,,
Scan Config Type:,Slew,,
Section 1,,
Start wavelength (nm):,900,,
End wavelength (nm):,1700,,
Pattern Pixel Width (nm):,   7.03,,,,
Exposure (ms):,  0.635,,,,
Digital Resolution:,228,,
Num Repeats:,6,,
PGA Gain:,64,,
Total Measurement Time in sec:,  2.724,,
Wavelength (nm),Absorbance (AU),Reference Signal (unitless),Sample Signal (unitless)
901.51,1.276231,108485,5743
905.376,1.338651,121306,5562
909.237,1.311389,131909,6440
913.095,1.311455,143299,6995
916.948,1.323985,156982,7445
922.079,1.321886,179937,8575
925.923,1.312495,200504,9764
929.762,1.305579,222660,11017
933.597,1.320891,244426,11675
937.427,1.320877,263972,12609
941.254,1.318071,281845,13550
945.076,1.321078,297271,14193
950.165,1.313460,315605,15335
953.978,1.314843,328029,15888
957.786,1.306666,340470,16804
961.59,1.306334,352317,17402
965.389,1.316588,363056,17514
969.185,1.309779,373162,18286
972.976,1.306319,382632,18900
976.763,1.305070,391202,19379
981.806,1.304549,400190,19848
985.583,1.309374,406088,19918
989.355,1.306123,410162,20269
993.124,1.300366,412868,20675
996.888,1.304781,414263,20535
1000.65,1.304047,415476,20630
1004.4,1.304555,415479,20606
1009.41,1.312691,414358,20169
1013.15,1.310367,412923,20207
1016.89,1.314759,411526,19936
1020.63,1.303272,409066,20348
1024.36,1.313504,406777,19763
1028.09,1.312661,404427,19687
1031.82,1.313494,401911,19527
1036.78,1.311634,398410,19440
1040.49,1.305286,396204,19617
1044.2,1.317346,394236,18985
1047.91,1.300479,392042,19627
1051.61,1.318052,389823,18742
1055.31,1.310797,388234,18980
1059,1.301791,387599,19346
1063.92,1.312764,386688,18819
1067.61,1.315000,386598,18718
1071.29,1.308011,387377,19060
1074.96,1.319615,388536,18613
1078.63,1.305706,389855,19284
1082.3,1.316529,391215,18875
1085.96,1.319480,393215,18843
1090.84,1.315868,396270,19148
1094.49,1.312574,398760,19415
1098.14,1.313943,400987,19462
1101.79,1.319924,403477,19315
1105.43,1.318571,406116,19502
1109.06,1.316162,407701,19687
1112.7,1.314743,409859,19856
1117.53,1.326654,412494,19443
1121.15,1.324126,414909,19671
1124.77,1.313724,416559,20228
1128.38,1.307883,418532,20599
1131.99,1.328561,419956,19708
1135.6,1.321305,421946,20135
1139.2,1.325238,423881,20045
1143.99,1.329745,426786,19974
1147.58,1.317633,428617,20627
1151.17,1.317818,431169,20741
1154.75,1.331781,433579,20197
1158.33,1.324871,436264,20648
1161.91,1.314236,439132,21299
1165.48,1.315634,442389,21388
1169.04,1.315744,446101,21562
1173.79,1.324900,451929,21388
1177.34,1.314971,456026,22081
1180.9,1.318106,461306,22176
1184.44,1.318982,467657,22436
1187.99,1.318215,473969,22779
1191.52,1.321864,479856,22869
1195.06,1.321158,487372,23265
1199.76,1.320466,497347,23779
1203.29,1.320177,504311,24128
1206.81,1.322103,511507,24364
1210.33,1.321359,519078,24767
1213.84,1.320527,527163,25201
1217.35,1.320932,534208,25514
1220.85,1.321103,540472,25803
1225.51,1.326219,549929,25947
1229.01,1.330461,556888,26020
1232.5,1.319720,562180,26925
1235.98,1.332824,567975,26394
1239.46,1.327907,574815,27016
1242.94,1.323293,582782,27683
1246.41,1.328690,591476,27749
1251.03,1.330584,604016,28214
1254.5,1.325443,612289,28941
1257.96,1.323860,619125,29371
1261.41,1.329977,624551,29214
1264.86,1.321991,629900,30011
1268.31,1.324756,634345,30031
1271.75,1.325319,638574,30192
1276.33,1.328945,642499,30125
1279.76,1.331011,645905,30141
1283.19,1.328208,648307,30449
1286.61,1.329881,650446,30432
1290.03,1.330663,652132,30456
1293.44,1.331444,653907,30484
1296.85,1.328964,655963,30755
1301.39,1.322418,657349,31288
1304.8,1.331164,657558,30674
1308.19,1.335192,658515,30435
1311.58,1.334314,658804,30510
1314.97,1.330018,659011,30823
1318.36,1.334490,658272,30473
1321.73,1.325885,658022,31071
1326.23,1.332305,657870,30608
1329.6,1.329731,656482,30725
1332.97,1.331636,654926,30518
1336.33,1.328626,653727,30674
1339.69,1.330136,652497,30510
1343.04,1.332159,649913,30248
1346.39,1.337022,647671,29808
1349.73,1.326971,645338,30396
1354.18,1.325563,641175,30298
1357.52,1.324351,638376,30250
1360.85,1.331622,635805,29628
1364.17,1.327733,633413,29782
1367.49,1.332173,631026,29368
1370.81,1.328732,628050,29462
1374.12,1.332907,625034,29040
1378.54,1.327988,620272,29147
1381.84,1.326809,616892,29067
1385.14,1.327568,613613,28862
1388.43,1.321449,611526,29172
1391.72,1.326545,610663,28791
1395.01,1.327793,610634,28707
1398.29,1.323064,611700,29072
1402.66,1.327728,614051,28872
1405.93,1.338152,616268,28289
1409.2,1.328626,617795,28988
1412.46,1.324896,618872,29289
1415.72,1.332343,619795,28834
1418.98,1.334297,620495,28737
1422.23,1.336726,621087,28604
1426.56,1.329446,621375,29101
1429.8,1.338540,621616,28509
1433.04,1.334021,622129,28831
1436.27,1.333404,621526,28844
1439.5,1.335380,621113,28694
1442.72,1.333071,620921,28838
1445.94,1.335380,620270,28655
1450.23,1.334908,618860,28621
1453.44,1.331760,617697,28775
1456.64,1.334039,616264,28558
1459.85,1.331533,614413,28637
1463.04,1.343003,612307,27795
1466.24,1.339017,610032,27947
1469.43,1.327708,607345,28558
1473.67,1.334985,603789,27919
1476.85,1.336537,601175,27699
1480.02,1.335963,597737,27577
1483.19,1.332536,594479,27644
1486.36,1.341990,591232,26901
1489.52,1.336187,587853,27107
1492.68,1.336245,583875,26920
1496.89,1.333678,578062,26810
1500.03,1.330833,574159,26804
1503.18,1.331913,570285,26557
1506.32,1.331395,565444,26363
1509.45,1.335499,560571,25890
1512.58,1.339964,555821,25408
1515.71,1.339130,550344,25206
1519.87,1.332688,543983,25287
1522.99,1.335217,538764,24899
1526.1,1.336886,533692,24570
1529.21,1.328768,527902,24762
1532.32,1.329954,521886,24413
1535.42,1.341155,515888,23518
1538.51,1.328743,509987,23923
1541.6,1.337187,503936,23184
1545.72,1.334881,494694,22880
1548.8,1.340081,488378,22319
1551.88,1.338582,481832,22096
1554.95,1.336339,474989,21895
1558.02,1.335241,467818,21619
1561.08,1.337480,460730,21182
1564.15,1.327719,454170,21355
1568.22,1.331778,444181,20691
1571.27,1.334261,436947,20238
1574.32,1.336134,429598,19812
1577.36,1.335073,422039,19511
1580.4,1.339418,414375,18966
1583.43,1.328121,406354,19089
1586.46,1.334311,398475,18454
1590.49,1.335744,388982,17955
1593.51,1.331834,380708,17732
1596.53,1.330193,372727,17426
1599.54,1.327923,365060,17157
1602.55,1.326986,357543,16840
1605.55,1.336912,349495,16089
1608.55,1.321670,341154,16266
1612.54,1.332569,330877,15385
1615.53,1.317622,322904,15540
1618.51,1.335757,315116,14545
1621.49,1.318300,307217,14762
1624.47,1.343917,299481,13566
1627.44,1.321411,292112,13936
1630.41,1.316529,284245,13714
1634.36,1.303476,274079,13627
1637.32,1.317032,266916,12863
1640.27,1.329213,259612,12165
1643.22,1.320004,251804,12052
1646.16,1.303182,244348,12157
1649.1,1.311396,236703,11556
1652.04,1.321711,228171,10878
1655.95,1.310998,215408,10526
1658.88,1.291923,204937,10464
1661.8,1.300839,193395,9674
1664.72,1.305861,179728,8887
1667.63,1.268672,163642,8815
1670.54,1.256849,146312,8099
1673.44,1.283246,128451,6691
1677.31,1.216291,105080,6386
1680.21,1.220091,88906,5356
1683.1,1.212589,75033,4599
1685.99,1.203683,63520,3974
1688.87,1.158262,53714,3731
1691.75,1.192602,45653,2930
1694.62,1.233891,39137,2284
1697.49,1.230848,33776,1985
1701.31,1.270599,28175,1511