File: ML/samples/unknown/Column 1_078425_20241121_170202.csv
Method:,Column 1,,
Host Date-Time:,21/11/24 @ 17:2:2,,
Header Version:,1,,
System Temp (C):,34.83,,
Detector Temp (C):,33.72,,
Humidity (%):,2.74,,
Lamp PD:,3802,,
Shift Vector Coefficients:,-10.5391,0.0761263,-0.000134223,,
Pixel to Wavelength Coefficients:,1775.68,-0.916766,-0.000235065,,
Serial Number:,5510004,,
Scan Config Name:,Column 1,,
Scan Config Type:,Slew,,
Section 1,,
Start wavelength (nm):,900,,
End wavelength (nm):,1700,,
Pattern Pixel Width (nm):,   7.03,,,,
Exposure (ms):,  0.635,,,,
Digital Resolution:,228,,
Num Repeats:,6,,
PGA Gain:,64,,
Total Measurement Time in sec:,  2.726,,
Wavelength (nm),Absorbance (AU),Reference Signal (unitless),Sample Signal (unitless)
901.51,1.296272,108485,5484
905.376,1.325652,121306,5731
909.237,1.296214,131909,6669
913.095,1.316451,143299,6915
916.948,1.313781,156982,7622
922.079,1.319210,179937,8628
925.923,1.330754,200504,9362
929.762,1.320211,222660,10652
933.597,1.313880,244426,11865
937.427,1.307882,263972,12992
941.254,1.307809,281845,13874
945.076,1.308354,297271,14615
950.165,1.315390,315605,15267
953.978,1.306210,328029,16207
957.786,1.306511,340470,16810
961.59,1.313328,352317,17124
965.389,1.310408,363056,17765
969.185,1.296056,373162,18873
972.976,1.312825,382632,18619
976.763,1.305294,391202,19369
981.806,1.301453,400190,19990
985.583,1.300654,406088,20322
989.355,1.297489,410162,20676
993.124,1.307332,412868,20346
996.888,1.304993,414263,20525
1000.65,1.309534,415476,20371
1004.4,1.299797,415479,20833
1009.41,1.307363,414358,20418
1013.15,1.306154,412923,20404
1016.89,1.304214,411526,20426
1020.63,1.310590,409066,20008
1024.36,1.301176,406777,20332
1028.09,1.312639,404427,19688
1031.82,1.308365,401911,19759
1036.78,1.301630,398410,19893
1040.49,1.294961,396204,20089
1044.2,1.301334,394236,19698
1047.91,1.307325,392042,19320
1051.61,1.299921,389823,19541
1055.31,1.302794,388234,19333
1059,1.302780,387599,19302
1063.92,1.312234,386688,18842
1067.61,1.310476,386598,18914
1071.29,1.308148,387377,19054
1074.96,1.316824,388536,18733
1078.63,1.317300,389855,18776
1082.3,1.312521,391215,19050
1085.96,1.310877,393215,19220
1090.84,1.311220,396270,19354
1094.49,1.313672,398760,19366
1098.14,1.312650,400987,19520
1101.79,1.309988,403477,19762
1105.43,1.305800,406116,20084
1109.06,1.313370,407701,19814
1112.7,1.318124,409859,19702
1117.53,1.315018,412494,19971
1121.15,1.309175,414909,20360
1124.77,1.317605,416559,20048
1128.38,1.313122,418532,20352
1131.99,1.317938,419956,20196
1135.6,1.310631,421946,20636
1139.2,1.314369,423881,20553
1143.99,1.316596,426786,20588
1147.58,1.319511,428617,20538
1151.17,1.311416,431169,21049
1154.75,1.305459,433579,21459
1158.33,1.316188,436264,21065
1161.91,1.313625,439132,21329
1165.48,1.314256,442389,21456
1169.04,1.316369,446101,21531
1173.79,1.314864,451929,21888
1177.34,1.313675,456026,22147
1180.9,1.317969,461306,22183
1184.44,1.314189,467657,22685
1187.99,1.318139,473969,22783
1191.52,1.310450,479856,23478
1195.06,1.311247,487372,23802
1199.76,1.320996,497347,23750
1203.29,1.318148,504311,24241
1206.81,1.321462,511507,24400
1210.33,1.319749,519078,24859
1213.84,1.325937,527163,24889
1217.35,1.321426,534208,25485
1220.85,1.318469,540472,25960
1225.51,1.320318,549929,26302
1229.01,1.320935,556888,26597
1232.5,1.327318,562180,26458
1235.98,1.326600,567975,26775
1239.46,1.317299,574815,27684
1242.94,1.325180,582782,27563
1246.41,1.316970,591476,28508
1251.03,1.326615,604016,28473
1254.5,1.322750,612289,29121
1257.96,1.324466,619125,29330
1261.41,1.319186,624551,29949
1264.86,1.329052,629900,29527
1268.31,1.322319,634345,30200
1271.75,1.324773,638574,30230
1276.33,1.323018,642499,30539
1279.76,1.327438,645905,30390
1283.19,1.324883,648307,30683
1286.61,1.323197,650446,30904
1290.03,1.323998,652132,30927
1293.44,1.325642,653907,30894
1296.85,1.331484,655963,30577
1301.39,1.327234,657349,30943
1304.8,1.333136,657558,30535
1308.19,1.329395,658515,30844
1311.58,1.329797,658804,30829
1314.97,1.329004,659011,30895
1318.36,1.329235,658272,30844
1321.73,1.329366,658022,30823
1326.23,1.325198,657870,31113
1329.6,1.331814,656482,30578
1332.97,1.327557,654926,30806
1336.33,1.330513,653727,30541
1339.69,1.327157,652497,30720
1343.04,1.324954,649913,30754
1346.39,1.330055,647671,30290
1349.73,1.324108,645338,30597
1354.18,1.323932,641175,30412
1357.52,1.323763,638376,30291
1360.85,1.326637,635805,29970
1364.17,1.325218,633413,29955
1367.49,1.327920,631026,29657
1370.81,1.324084,628050,29779
1374.12,1.329066,625034,29298
1378.54,1.324043,620272,29413
1381.84,1.323801,616892,29269
1385.14,1.327764,613613,28849
1388.43,1.318304,611526,29384
1391.72,1.325641,610663,28851
1395.01,1.323054,610634,29022
1398.29,1.326965,611700,28812
1402.66,1.328721,614051,28806
1405.93,1.329925,616268,28830
1409.2,1.329556,617795,28926
1412.46,1.333568,618872,28710
1415.72,1.326627,619795,29216
1418.98,1.326375,620495,29266
1422.23,1.328052,621087,29181
1426.56,1.336548,621375,28629
1429.8,1.329838,621616,29086
1433.04,1.326954,622129,29304
1436.27,1.328791,621526,29152
1439.5,1.326155,621113,29310
1442.72,1.331853,620921,28919
1445.94,1.330048,620270,29009
1450.23,1.334089,618860,28675
1453.44,1.332682,617697,28714
1456.64,1.330495,616264,28792
1459.85,1.335295,614413,28390
1463.04,1.330118,612307,28632
1466.24,1.330081,610032,28528
1469.43,1.334204,607345,28134
1473.67,1.338374,603789,27702
1476.85,1.337055,601175,27666
1480.02,1.332434,597737,27802
1483.19,1.328377,594479,27910
1486.36,1.329796,591232,27667
1489.52,1.331265,587853,27416
1492.68,1.332294,583875,27166
1496.89,1.329470,578062,27071
1500.03,1.330800,574159,26806
1503.18,1.335427,570285,26343
1506.32,1.333608,565444,26229
1509.45,1.333440,560571,26013
1512.58,1.333551,555821,25786
1515.71,1.341272,550344,25082
1519.87,1.338793,543983,24934
1522.99,1.332227,538764,25071
1526.1,1.332209,533692,24836
1529.21,1.330754,527902,24649
1532.32,1.334676,521886,24149
1535.42,1.339147,515888,23627
1538.51,1.349110,509987,22827
1541.6,1.338012,503936,23140
1545.72,1.330631,494694,23105
1548.8,1.330555,488378,22814
1551.88,1.326449,481832,22722
1554.95,1.331741,474989,22128
1558.02,1.331780,467818,21792
1561.08,1.332080,460730,21447
1564.15,1.337987,454170,20856
1568.22,1.325031,444181,21015
1571.27,1.321364,436947,20848
1574.32,1.334843,429598,19871
1577.36,1.332764,422039,19615
1580.4,1.324296,414375,19638
1583.43,1.325332,406354,19212
1586.46,1.326497,398475,18789
1590.49,1.313468,388982,18900
1593.51,1.322410,380708,18121
1596.53,1.324376,372727,17661
1599.54,1.326912,365060,17197
1602.55,1.325364,357543,16903
1605.55,1.325562,349495,16515
1608.55,1.320710,341154,16302
1612.54,1.315438,330877,16004
1615.53,1.316506,322904,15580
1618.51,1.330179,315116,14733
1621.49,1.320690,307217,14681
1624.47,1.316682,299481,14444
1627.44,1.307670,292112,14384
1630.41,1.320346,284245,13594
1634.36,1.302298,274079,13664
1637.32,1.308938,266916,13105
1640.27,1.306877,259612,12807
1643.22,1.304118,251804,12501
1646.16,1.313558,244348,11870
1649.1,1.308699,236703,11628
1652.04,1.306683,228171,11261
1655.95,1.297192,215408,10866
1658.88,1.295339,204937,10382
1661.8,1.277717,193395,10203
1664.72,1.263168,179728,9805
1667.63,1.249824,163642,9206
1670.54,1.239298,146312,8433
1673.44,1.212873,128451,7868
1677.31,1.206208,105080,6536
1680.21,1.182741,88906,5837
1683.1,1.184613,75033,4905
1685.99,1.184758,63520,4151
1688.87,1.110056,53714,4169
1691.75,1.080143,45653,3796
1694.62,1.117207,39137,2988
1697.49,1.184413,33776,2209
1701.31,1.182692,28175,1850