File: ML/samples/unknown/Column 1_078291_20241121_165451.csv
Method:,Column 1,,
Host Date-Time:,21/11/24 @ 16:54:51,,
Header Version:,1,,
System Temp (C):,34.45,,
Detector Temp (C):,32.53,,
Humidity (%):,2.2,,
Lamp PD:,3803,,
Shift Vector Coefficients:,-10.5391,0.0761263,-0.000134223,,
Pixel to Wavelength Coefficients:,1775.68,-0.916766,-0.000235065,,
Serial Number:,5510004,,
Scan Config Name:,Column 1,,
Scan Config Type:,Slew,,
Section 1,,
Start wavelength (nm):,900,,
End wavelength (nm):,1700,,
Pattern Pixel Width (nm):,   7.03,,,,
Exposure (ms):,  0.635,,,,
Digital Resolution:,228,,
Num Repeats:,6,,
PGA Gain:,64,,
Total Measurement Time in sec:,  2.735,,
Wavelength (nm),Absorbance (AU),Reference Signal (unitless),Sample Signal (unitless)
901.51,1.311340,108485,5297
905.376,1.318437,121306,5827
909.237,1.297779,131909,6645
913.095,1.297345,143299,7226
916.948,1.314009,156982,7618
922.079,1.321937,179937,8574
925.923,1.332148,200504,9332
929.762,1.320823,222660,10637
933.597,1.305577,244426,12094
937.427,1.315333,263972,12771
941.254,1.323717,281845,13375
945.076,1.302363,297271,14818
950.165,1.305685,315605,15612
953.978,1.316184,328029,15839
957.786,1.302423,340470,16969
961.59,1.315617,352317,17034
965.389,1.303472,363056,18051
969.185,1.298549,373162,18765
972.976,1.308924,382632,18787
976.763,1.300832,391202,19569
981.806,1.301171,400190,20003
985.583,1.305381,406088,20102
989.355,1.306659,410162,20244
993.124,1.303697,412868,20517
996.888,1.309352,414263,20320
1000.65,1.312357,415476,20239
1004.4,1.309643,415479,20366
1009.41,1.304691,414358,20544
1013.15,1.314839,412923,20000
1016.89,1.311439,411526,20089
1020.63,1.309116,409066,20076
1024.36,1.302460,406777,20272
1028.09,1.307507,404427,19922
1031.82,1.303969,401911,19960
1036.78,1.308296,398410,19590
1040.49,1.306017,396204,19584
1044.2,1.312025,394236,19219
1047.91,1.308812,392042,19254
1051.61,1.314061,389823,18915
1055.31,1.310249,388234,19004
1059,1.302893,387599,19297
1063.92,1.306600,386688,19088
1067.61,1.315581,386598,18693
1071.29,1.307146,387377,19098
1074.96,1.310015,388536,19029
1078.63,1.306788,389855,19236
1082.3,1.312908,391215,19033
1085.96,1.305733,393215,19449
1090.84,1.307734,396270,19510
1094.49,1.312462,398760,19420
1098.14,1.312739,400987,19516
1101.79,1.309483,403477,19785
1105.43,1.316372,406116,19601
1109.06,1.321400,407701,19451
1112.7,1.316738,409859,19765
1117.53,1.314583,412494,19991
1121.15,1.316185,414909,20034
1124.77,1.318733,416559,19996
1128.38,1.314190,418532,20302
1131.99,1.323196,419956,19953
1135.6,1.315052,421946,20427
1139.2,1.321141,423881,20235
1143.99,1.319029,426786,20473
1147.58,1.322163,428617,20413
1151.17,1.318048,431169,20730
1154.75,1.315511,433579,20968
1158.33,1.320581,436264,20853
1161.91,1.321515,439132,20945
1165.48,1.319796,442389,21184
1169.04,1.314477,446101,21625
1173.79,1.315341,451929,21864
1177.34,1.319220,456026,21866
1180.9,1.314537,461306,22359
1184.44,1.313290,467657,22732
1187.99,1.315895,473969,22901
1191.52,1.319534,479856,22992
1195.06,1.327457,487372,22930
1199.76,1.323380,497347,23620
1203.29,1.323266,504311,23957
1206.81,1.323943,511507,24261
1210.33,1.317102,519078,25011
1213.84,1.317094,527163,25401
1217.35,1.322620,534208,25415
1220.85,1.319289,540472,25911
1225.51,1.322519,549929,26169
1229.01,1.320331,556888,26634
1232.5,1.320204,562180,26895
1235.98,1.326827,567975,26761
1239.46,1.324656,574815,27219
1242.94,1.320650,582782,27852
1246.41,1.320519,591476,28276
1251.03,1.326676,604016,28469
1254.5,1.324888,612289,28978
1257.96,1.334199,619125,28680
1261.41,1.328389,624551,29321
1264.86,1.326983,629900,29668
1268.31,1.324163,634345,30072
1271.75,1.321710,638574,30444
1276.33,1.326186,642499,30317
1279.76,1.324376,645905,30605
1283.19,1.328108,648307,30456
1286.61,1.326342,650446,30681
1290.03,1.330107,652132,30495
1293.44,1.325698,653907,30890
1296.85,1.331612,655963,30568
1301.39,1.325972,657349,31033
1304.8,1.329651,657558,30781
1308.19,1.331201,658515,30716
1311.58,1.333134,658804,30593
1314.97,1.336319,659011,30379
1318.36,1.334120,658272,30499
1321.73,1.330014,658022,30777
1326.23,1.332121,657870,30621
1329.6,1.329505,656482,30741
1332.97,1.330471,654926,30600
1336.33,1.320964,653727,31220
1339.69,1.329240,652497,30573
1343.04,1.327219,649913,30594
1346.39,1.331837,647671,30166
1349.73,1.330529,645338,30148
1354.18,1.331872,641175,29861
1357.52,1.329129,638376,29919
1360.85,1.332487,635805,29569
1364.17,1.321120,633413,30239
1367.49,1.327861,631026,29661
1370.81,1.335327,628050,29018
1374.12,1.329600,625034,29262
1378.54,1.330379,620272,28987
1381.84,1.329071,616892,28916
1385.14,1.333156,613613,28493
1388.43,1.326977,611526,28803
1391.72,1.323284,610663,29008
1395.01,1.330784,610634,28510
1398.29,1.328082,611700,28738
1402.66,1.324535,614051,29085
1405.93,1.329609,616268,28851
1409.2,1.329916,617795,28902
1412.46,1.327663,618872,29103
1415.72,1.328878,619795,29065
1418.98,1.333572,620495,28785
1422.23,1.332270,621087,28899
1426.56,1.331106,621375,28990
1429.8,1.334597,621616,28769
1433.04,1.338092,622129,28562
1436.27,1.337063,621526,28602
1439.5,1.333160,621113,28841
1442.72,1.337263,620921,28561
1445.94,1.335032,620270,28678
1450.23,1.332909,618860,28753
1453.44,1.338590,617697,28326
1456.64,1.331144,616264,28749
1459.85,1.332581,614413,28568
1463.04,1.334416,612307,28350
1466.24,1.330127,610032,28525
1469.43,1.331956,607345,28280
1473.67,1.333975,603789,27984
1476.85,1.332355,601175,27967
1480.02,1.340809,597737,27271
1483.19,1.339169,594479,27225
1486.36,1.337636,591232,27172
1489.52,1.337423,587853,27030
1492.68,1.334635,583875,27020
1496.89,1.334083,578062,26785
1500.03,1.340648,574159,26205
1503.18,1.346480,570285,25681
1506.32,1.336249,565444,26070
1509.45,1.337516,560571,25770
1512.58,1.332155,555821,25869
1515.71,1.333175,550344,25554
1519.87,1.337871,543983,24987
1522.99,1.341117,538764,24563
1526.1,1.332979,533692,24792
1529.21,1.336197,527902,24342
1532.32,1.335108,521886,24125
1535.42,1.331242,515888,24061
1538.51,1.337324,509987,23455
1541.6,1.336438,503936,23224
1545.72,1.336440,494694,22798
1548.8,1.325784,488378,23066
1551.88,1.338032,481832,22124
1554.95,1.336894,474989,21867
1558.02,1.335422,467818,21610
1561.08,1.334965,460730,21305
1564.15,1.331970,454170,21147
1568.22,1.335298,444181,20524
1571.27,1.332612,436947,20315
1574.32,1.324839,429598,20334
1577.36,1.330424,422039,19721
1580.4,1.335701,414375,19129
1583.43,1.334700,406354,18802
1586.46,1.330328,398475,18624
1590.49,1.341490,388982,17719
1593.51,1.332447,380708,17707
1596.53,1.330916,372727,17397
1599.54,1.326129,365060,17228
1602.55,1.334058,357543,16568
1605.55,1.332347,349495,16259
1608.55,1.325397,341154,16127
1612.54,1.320652,330877,15813
1615.53,1.333040,322904,14998
1618.51,1.339234,315116,14429
1621.49,1.327968,307217,14437
1624.47,1.335453,299481,13833
1627.44,1.322503,292112,13901
1630.41,1.324003,284245,13480
1634.36,1.314710,274079,13279
1637.32,1.338806,266916,12234
1640.27,1.324031,259612,12311
1643.22,1.312820,251804,12253
1646.16,1.323326,244348,11606
1649.1,1.310458,236703,11581
1652.04,1.323231,228171,10840
1655.95,1.313025,215408,10477
1658.88,1.303702,204937,10184
1661.8,1.288404,193395,9955
1664.72,1.288474,179728,9250
1667.63,1.269116,163642,8806
1670.54,1.252420,146312,8182
1673.44,1.254431,128451,7150
1677.31,1.179473,105080,6951
1680.21,1.194201,88906,5685
1683.1,1.163445,75033,5150
1685.99,1.194384,63520,4060
1688.87,1.255580,53714,2982
1691.75,1.167968,45653,3101
1694.62,1.147451,39137,2787
1697.49,1.175077,33776,2257
1701.31,1.252308,28175,1576