File: ML/samples/unknown/Column 1_078122_20241121_164632.csv
Method:,Column 1,,
Host Date-Time:,21/11/24 @ 16:46:32,,
Header Version:,1,,
System Temp (C):,32.78,,
Detector Temp (C):,28.24,,
Humidity (%):,3.81,,
Lamp PD:,3806,,
Shift Vector Coefficients:,-10.5391,0.0761263,-0.000134223,,
Pixel to Wavelength Coefficients:,1775.68,-0.916766,-0.000235065,,
Serial Number:,5510004,,
Scan Config Name:,Column 1,,
Scan Config Type:,Slew,,
Section 1,,
Start wavelength (nm):,900,,
End wavelength (nm):,1700,,
Pattern Pixel Width (nm):,   7.03,,,,
Exposure (ms):,  0.635,,,,
Digital Resolution:,228,,
Num Repeats:,6,,
PGA Gain:,64,,
Total Measurement Time in sec:,  2.725,,
Wavelength (nm),Absorbance (AU),Reference Signal (unitless),Sample Signal (unitless)
901.51,1.298177,108485,5460
905.376,1.315688,121306,5864
909.237,1.299482,131909,6619
913.095,1.320743,143299,6847
916.948,1.307951,156982,7725
922.079,1.311675,179937,8779
925.923,1.328441,200504,9412
929.762,1.310056,222660,10904
933.597,1.313660,244426,11871
937.427,1.313297,263972,12831
941.254,1.312751,281845,13717
945.076,1.310588,297271,14540
950.165,1.316929,315605,15213
953.978,1.310518,328029,16047
957.786,1.320611,340470,16273
961.59,1.305736,352317,17426
965.389,1.317358,363056,17483
969.185,1.309755,373162,18287
972.976,1.303799,382632,19010
976.763,1.312369,391202,19056
981.806,1.310210,400190,19591
985.583,1.312416,406088,19779
989.355,1.322542,410162,19517
993.124,1.311967,412868,20130
996.888,1.314339,414263,20088
1000.65,1.306898,415476,20495
1004.4,1.311867,415479,20262
1009.41,1.318021,414358,19923
1013.15,1.313365,412923,20068
1016.89,1.304746,411526,20401
1020.63,1.305819,409066,20229
1024.36,1.309044,406777,19967
1028.09,1.308927,404427,19857
1031.82,1.315590,401911,19433
1036.78,1.313784,398410,19344
1040.49,1.313714,396204,19240
1044.2,1.307328,394236,19428
1047.91,1.300634,392042,19620
1051.61,1.316987,389823,18788
1055.31,1.313621,388234,18857
1059,1.308761,387599,19038
1063.92,1.318151,386688,18587
1067.61,1.320887,386598,18466
1071.29,1.323269,387377,18402
1074.96,1.323364,388536,18453
1078.63,1.319015,389855,18702
1082.3,1.329537,391215,18318
1085.96,1.311442,393215,19195
1090.84,1.321598,396270,18897
1094.49,1.316123,398760,19257
1098.14,1.322256,400987,19093
1101.79,1.322721,403477,19191
1105.43,1.322710,406116,19317
1109.06,1.320508,407701,19491
1112.7,1.328023,409859,19258
1117.53,1.312308,412494,20096
1121.15,1.314131,414909,20129
1124.77,1.315552,416559,20143
1128.38,1.312780,418532,20368
1131.99,1.319101,419956,20142
1135.6,1.324314,421946,19996
1139.2,1.319299,423881,20321
1143.99,1.326928,426786,20104
1147.58,1.314403,428617,20781
1151.17,1.319328,431169,20669
1154.75,1.316714,433579,20910
1158.33,1.321060,436264,20830
1161.91,1.318931,439132,21070
1165.48,1.323895,442389,20985
1169.04,1.312533,446101,21722
1173.79,1.320375,451929,21612
1177.34,1.317041,456026,21976
1180.9,1.310284,461306,22579
1184.44,1.324044,467657,22176
1187.99,1.312928,473969,23058
1191.52,1.323405,479856,22788
1195.06,1.329031,487372,22847
1199.76,1.323233,497347,23628
1203.29,1.327108,504311,23746
1206.81,1.326889,511507,24097
1210.33,1.327274,519078,24432
1213.84,1.327546,527163,24797
1217.35,1.323715,534208,25351
1220.85,1.322620,540472,25713
1225.51,1.326236,549929,25946
1229.01,1.331346,556888,25967
1232.5,1.327515,562180,26446
1235.98,1.323191,567975,26986
1239.46,1.326495,574815,27104
1242.94,1.326790,582782,27461
1246.41,1.322382,591476,28155
1251.03,1.324045,604016,28642
1254.5,1.325773,612289,28919
1257.96,1.324629,619125,29319
1261.41,1.335543,624551,28842
1264.86,1.324269,629900,29854
1268.31,1.329730,634345,29689
1271.75,1.335242,638574,29510
1276.33,1.329104,642499,30114
1279.76,1.329371,645905,30255
1283.19,1.328679,648307,30416
1286.61,1.331396,650446,30326
1290.03,1.330534,652132,30465
1293.44,1.338062,653907,30023
1296.85,1.327033,655963,30892
1301.39,1.326308,657349,31009
1304.8,1.338071,657558,30190
1308.19,1.331994,658515,30660
1311.58,1.336369,658804,30366
1314.97,1.335177,659011,30459
1318.36,1.334647,658272,30462
1321.73,1.331258,658022,30689
1326.23,1.335138,657870,30409
1329.6,1.331785,656482,30580
1332.97,1.329563,654926,30664
1336.33,1.330769,653727,30523
1339.69,1.334040,652497,30237
1343.04,1.339573,649913,29736
1346.39,1.332254,647671,30137
1349.73,1.332333,645338,30023
1354.18,1.337184,641175,29498
1357.52,1.333184,638376,29641
1360.85,1.326724,635805,29964
1364.17,1.332793,633413,29437
1367.49,1.325846,631026,29799
1370.81,1.331601,628050,29268
1374.12,1.325038,625034,29571
1378.54,1.332181,620272,28867
1381.84,1.328936,616892,28925
1385.14,1.331255,613613,28618
1388.43,1.332501,611526,28439
1391.72,1.329815,610663,28575
1395.01,1.328035,610634,28691
1398.29,1.329641,611700,28635
1402.66,1.333466,614051,28493
1405.93,1.335336,616268,28473
1409.2,1.337755,617795,28385
1412.46,1.335189,618872,28603
1415.72,1.334533,619795,28689
1418.98,1.337376,620495,28534
1422.23,1.335452,621087,28688
1426.56,1.336487,621375,28633
1429.8,1.332504,621616,28908
1433.04,1.338381,622129,28543
1436.27,1.334172,621526,28793
1439.5,1.338143,621113,28512
1442.72,1.337598,620921,28539
1445.94,1.336169,620270,28603
1450.23,1.339024,618860,28351
1453.44,1.340958,617697,28172
1456.64,1.333993,616264,28561
1459.85,1.335371,614413,28385
1463.04,1.337784,612307,28131
1466.24,1.343014,610032,27691
1469.43,1.343093,607345,27564
1473.67,1.341253,603789,27519
1476.85,1.340791,601175,27429
1480.02,1.336404,597737,27549
1483.19,1.339616,594479,27197
1486.36,1.330739,591232,27607
1489.52,1.344632,587853,26585
1492.68,1.340378,583875,26665
1496.89,1.342382,578062,26278
1500.03,1.341810,574159,26135
1503.18,1.342775,570285,25901
1506.32,1.340669,565444,25806
1509.45,1.342159,560571,25496
1512.58,1.339896,555821,25412
1515.71,1.346148,550344,24802
1519.87,1.335825,543983,25105
1522.99,1.350844,538764,24019
1526.1,1.339527,533692,24421
1529.21,1.338487,527902,24214
1532.32,1.339996,521886,23855
1535.42,1.332761,515888,23977
1538.51,1.342446,509987,23180
1541.6,1.343565,503936,22846
1545.72,1.333970,494694,22928
1548.8,1.337153,488378,22470
1551.88,1.335039,481832,22277
1554.95,1.336835,474989,21870
1558.02,1.331362,467818,21813
1561.08,1.338218,460730,21146
1564.15,1.328167,454170,21333
1568.22,1.341586,444181,20229
1571.27,1.340116,436947,19967
1574.32,1.344902,429598,19416
1577.36,1.332609,422039,19622
1580.4,1.335974,414375,19117
1583.43,1.331341,406354,18948
1586.46,1.333699,398475,18480
1590.49,1.331340,388982,18138
1593.51,1.339270,380708,17431
1596.53,1.346263,372727,16793
1599.54,1.334735,365060,16890
1602.55,1.323851,357543,16962
1605.55,1.329605,349495,16362
1608.55,1.329754,341154,15966
1612.54,1.325235,330877,15647
1615.53,1.325064,322904,15276
1618.51,1.337372,315116,14491
1621.49,1.319419,307217,14724
1624.47,1.327551,299481,14087
1627.44,1.332426,292112,13587
1630.41,1.322588,284245,13524
1634.36,1.317598,274079,13191
1637.32,1.322332,266916,12707
1640.27,1.311206,259612,12680
1643.22,1.327161,251804,11855
1646.16,1.320417,244348,11684
1649.1,1.338174,236703,10865
1652.04,1.316749,228171,11003
1655.95,1.302379,215408,10737
1658.88,1.296303,204937,10359
1661.8,1.311887,193395,9431
1664.72,1.297823,179728,9053
1667.63,1.289822,163642,8396
1670.54,1.293299,146312,7447
1673.44,1.312302,128451,6258
1677.31,1.271629,105080,5622
1680.21,1.267057,88906,4807
1683.1,1.273410,75033,3998
1685.99,1.273865,63520,3381
1688.87,1.367982,53714,2302
1691.75,1.332315,45653,2124
1694.62,1.314291,39137,1898
1697.49,1.243051,33776,1930
1701.31,1.309042,28175,1383