File: ML/samples/unknown/Column 1_078742_20241121_172000.csv
Method:,Column 1,,
Host Date-Time:,21/11/24 @ 17:20:0,,
Header Version:,1,,
System Temp (C):,36.36,,
Detector Temp (C):,34.62,,
Humidity (%):,0.98,,
Lamp PD:,3799,,
Shift Vector Coefficients:,-10.5391,0.0761263,-0.000134223,,
Pixel to Wavelength Coefficients:,1775.68,-0.916766,-0.000235065,,
Serial Number:,5510004,,
Scan Config Name:,Column 1,,
Scan Config Type:,Slew,,
Section 1,,
Start wavelength (nm):,900,,
End wavelength (nm):,1700,,
Pattern Pixel Width (nm):,   7.03,,,,
Exposure (ms):,  0.635,,,,
Digital Resolution:,228,,
Num Repeats:,6,,
PGA Gain:,64,,
Total Measurement Time in sec:,  2.717,,
Wavelength (nm),Absorbance (AU),Reference Signal (unitless),Sample Signal (unitless)
901.51,1.309540,108485,5319
905.376,1.331066,121306,5660
909.237,1.293422,131909,6712
913.095,1.316702,143299,6911
916.948,1.321542,156982,7487
922.079,1.340249,179937,8220
925.923,1.305174,200504,9930
929.762,1.324102,222660,10557
933.597,1.316707,244426,11788
937.427,1.314280,263972,12802
941.254,1.311234,281845,13765
945.076,1.317786,297271,14301
950.165,1.309654,315605,15470
953.978,1.311196,328029,16022
957.786,1.321012,340470,16258
961.59,1.318277,352317,16930
965.389,1.302319,363056,18099
969.185,1.310801,373162,18243
972.976,1.299367,382632,19205
976.763,1.311754,391202,19083
981.806,1.301692,400190,19979
985.583,1.308677,406088,19950
989.355,1.309565,410162,20109
993.124,1.301986,412868,20598
996.888,1.302756,414263,20631
1000.65,1.303247,415476,20668
1004.4,1.299881,415479,20829
1009.41,1.309452,414358,20320
1013.15,1.298433,412923,20770
1016.89,1.303279,411526,20470
1020.63,1.308900,409066,20086
1024.36,1.291377,406777,20796
1028.09,1.297402,404427,20391
1031.82,1.310878,401911,19645
1036.78,1.297848,398410,20067
1040.49,1.310229,396204,19395
1044.2,1.306480,394236,19466
1047.91,1.311958,392042,19115
1051.61,1.301345,389823,19477
1055.31,1.308424,388234,19084
1059,1.309629,387599,19000
1063.92,1.313272,386688,18797
1067.61,1.310430,386598,18916
1071.29,1.310181,387377,18965
1074.96,1.301070,388536,19425
1078.63,1.313982,389855,18920
1082.3,1.308753,391215,19216
1085.96,1.322696,393215,18704
1090.84,1.310682,396270,19378
1094.49,1.307880,398760,19626
1098.14,1.320463,400987,19172
1101.79,1.310758,403477,19727
1105.43,1.315332,406116,19648
1109.06,1.313918,407701,19789
1112.7,1.314524,409859,19866
1117.53,1.317438,412494,19860
1121.15,1.320652,414909,19829
1124.77,1.310281,416559,20389
1128.38,1.306788,418532,20651
1131.99,1.318756,419956,20158
1135.6,1.317975,421946,20290
1139.2,1.308555,423881,20830
1143.99,1.324021,426786,20239
1147.58,1.309106,428617,21036
1151.17,1.316814,431169,20789
1154.75,1.318066,433579,20845
1158.33,1.317799,436264,20987
1161.91,1.321370,439132,20952
1165.48,1.315127,442389,21413
1169.04,1.322647,446101,21222
1173.79,1.310816,451929,22093
1177.34,1.318407,456026,21907
1180.9,1.314731,461306,22349
1184.44,1.319427,467657,22413
1187.99,1.312345,473969,23089
1191.52,1.315735,479856,23194
1195.06,1.317033,487372,23487
1199.76,1.322498,497347,23668
1203.29,1.317021,504311,24304
1206.81,1.323299,511507,24297
1210.33,1.317571,519078,24984
1213.84,1.315234,527163,25510
1217.35,1.314360,534208,25903
1220.85,1.322975,540472,25692
1225.51,1.320929,549929,26265
1229.01,1.321507,556888,26562
1232.5,1.318367,562180,27009
1235.98,1.315455,567975,27471
1239.46,1.317754,574815,27655
1242.94,1.318658,582782,27980
1246.41,1.318879,591476,28383
1251.03,1.314789,604016,29259
1254.5,1.317901,612289,29448
1257.96,1.327065,619125,29155
1261.41,1.322928,624551,29692
1264.86,1.321543,629900,30042
1268.31,1.324192,634345,30070
1271.75,1.329540,638574,29900
1276.33,1.329133,642499,30112
1279.76,1.322606,645905,30730
1283.19,1.330223,648307,30308
1286.61,1.324844,650446,30787
1290.03,1.323843,652132,30938
1293.44,1.326796,653907,30812
1296.85,1.330562,655963,30642
1301.39,1.328105,657349,30881
1304.8,1.323974,657558,31186
1308.19,1.325442,658515,31126
1311.58,1.324017,658804,31242
1314.97,1.331161,659011,30742
1318.36,1.331989,658272,30649
1321.73,1.328338,658022,30896
1326.23,1.329984,657870,30772
1329.6,1.326871,656482,30928
1332.97,1.324047,654926,31056
1336.33,1.329235,653727,30631
1339.69,1.332091,652497,30373
1343.04,1.322588,649913,30922
1346.39,1.327824,647671,30446
1349.73,1.328502,645338,30289
1354.18,1.325104,641175,30330
1357.52,1.318448,638376,30664
1360.85,1.322728,635805,30241
1364.17,1.322284,633413,30158
1367.49,1.322608,631026,30022
1370.81,1.331275,628050,29290
1374.12,1.325567,625034,29535
1378.54,1.329421,620272,29051
1381.84,1.320844,616892,29469
1385.14,1.326907,613613,28906
1388.43,1.323867,611526,29010
1391.72,1.330195,610663,28550
1395.01,1.327400,610634,28733
1398.29,1.328657,611700,28700
1402.66,1.328435,614051,28825
1405.93,1.327087,616268,29019
1409.2,1.328611,617795,28989
1412.46,1.325668,618872,29237
1415.72,1.328474,619795,29092
1418.98,1.328577,620495,29118
1422.23,1.327457,621087,29221
1426.56,1.331375,621375,28972
1429.8,1.331199,621616,28995
1433.04,1.330944,622129,29036
1436.27,1.331196,621526,28991
1439.5,1.327119,621113,29245
1442.72,1.338695,620921,28467
1445.94,1.329225,620270,29064
1450.23,1.332275,618860,28795
1453.44,1.332848,617697,28703
1456.64,1.330857,616264,28768
1459.85,1.328104,614413,28864
1463.04,1.337445,612307,28153
1466.24,1.350752,610032,27202
1469.43,1.331296,607345,28323
1473.67,1.339473,603789,27632
1476.85,1.331455,601175,28025
1480.02,1.332215,597737,27816
1483.19,1.334646,594479,27510
1486.36,1.331053,591232,27587
1489.52,1.329904,587853,27502
1492.68,1.333671,583875,27080
1496.89,1.329005,578062,27100
1500.03,1.333694,574159,26628
1503.18,1.333158,570285,26481
1506.32,1.333889,565444,26212
1509.45,1.326336,560571,26442
1512.58,1.328344,555821,26097
1515.71,1.334145,550344,25497
1519.87,1.338149,543983,24971
1522.99,1.335566,538764,24879
1526.1,1.325098,533692,25246
1529.21,1.333228,527902,24509
1532.32,1.334012,521886,24186
1535.42,1.330358,515888,24110
1538.51,1.334850,509987,23589
1541.6,1.328471,503936,23654
1545.72,1.338100,494694,22711
1548.8,1.341094,488378,22267
1551.88,1.324371,481832,22831
1554.95,1.332449,474989,22092
1558.02,1.332039,467818,21779
1561.08,1.332546,460730,21424
1564.15,1.330187,454170,21234
1568.22,1.335870,444181,20497
1571.27,1.323390,436947,20751
1574.32,1.335564,429598,19838
1577.36,1.341667,422039,19217
1580.4,1.328228,414375,19461
1583.43,1.332765,406354,18886
1586.46,1.335985,398475,18383
1590.49,1.336373,388982,17929
1593.51,1.321548,380708,18157
1596.53,1.321826,372727,17765
1599.54,1.329698,365060,17087
1602.55,1.328459,357543,16783
1605.55,1.321870,349495,16656
1608.55,1.322766,341154,16225
1612.54,1.313300,330877,16083
1615.53,1.314670,322904,15646
1618.51,1.320847,315116,15053
1621.49,1.315339,307217,14863
1624.47,1.314193,299481,14527
1627.44,1.309485,292112,14324
1630.41,1.312933,284245,13828
1634.36,1.307381,274079,13505
1637.32,1.316290,266916,12885
1640.27,1.312818,259612,12633
1643.22,1.302938,251804,12535
1646.16,1.303147,244348,12158
1649.1,1.296364,236703,11963
1652.04,1.315252,228171,11041
1655.95,1.299115,215408,10818
1658.88,1.290721,204937,10493
1661.8,1.293009,193395,9850
1664.72,1.272933,179728,9587
1667.63,1.251241,163642,9176
1670.54,1.225112,146312,8713
1673.44,1.210506,128451,7911
1677.31,1.187545,105080,6823
1680.21,1.174998,88906,5942
1683.1,1.174116,75033,5025
1685.99,1.146812,63520,4530
1688.87,1.142377,53714,3870
1691.75,1.094094,45653,3676
1694.62,1.200418,39137,2467
1697.49,1.185594,33776,2203
1701.31,1.093838,28175,2270