File: ML/samples/unknown/Column 1_078645_20241121_171254.csv
Method:,Column 1,,
Host Date-Time:,21/11/24 @ 17:12:54,,
Header Version:,1,,
System Temp (C):,36.08,,
Detector Temp (C):,35.25,,
Humidity (%):,0.39,,
Lamp PD:,3798,,
Shift Vector Coefficients:,-10.5391,0.0761263,-0.000134223,,
Pixel to Wavelength Coefficients:,1775.68,-0.916766,-0.000235065,,
Serial Number:,5510004,,
Scan Config Name:,Column 1,,
Scan Config Type:,Slew,,
Section 1,,
Start wavelength (nm):,900,,
End wavelength (nm):,1700,,
Pattern Pixel Width (nm):,   7.03,,,,
Exposure (ms):,  0.635,,,,
Digital Resolution:,228,,
Num Repeats:,6,,
PGA Gain:,64,,
Total Measurement Time in sec:,  2.725,,
Wavelength (nm),Absorbance (AU),Reference Signal (unitless),Sample Signal (unitless)
901.51,1.293982,108485,5513
905.376,1.306746,121306,5986
909.237,1.310513,131909,6453
913.095,1.328874,143299,6720
916.948,1.316926,156982,7567
922.079,1.312616,179937,8760
925.923,1.331497,200504,9346
929.762,1.325585,222660,10521
933.597,1.327865,244426,11489
937.427,1.312249,263972,12862
941.254,1.317751,281845,13560
945.076,1.307938,297271,14629
950.165,1.304213,315605,15665
953.978,1.309140,328029,16098
957.786,1.306925,340470,16794
961.59,1.311178,352317,17209
965.389,1.304991,363056,17988
969.185,1.302945,373162,18576
972.976,1.306641,382632,18886
976.763,1.301677,391202,19531
981.806,1.304703,400190,19841
985.583,1.310095,406088,19885
989.355,1.298646,410162,20621
993.124,1.304969,412868,20457
996.888,1.307093,414263,20426
1000.65,1.305502,415476,20561
1004.4,1.298340,415479,20903
1009.41,1.309025,414358,20340
1013.15,1.298725,412923,20756
1016.89,1.297693,411526,20735
1020.63,1.300697,409066,20469
1024.36,1.310874,406777,19883
1028.09,1.309298,404427,19840
1031.82,1.304252,401911,19947
1036.78,1.312820,398410,19387
1040.49,1.304070,396204,19672
1044.2,1.304454,394236,19557
1047.91,1.306472,392042,19358
1051.61,1.306888,389823,19230
1055.31,1.309564,388234,19034
1059,1.308078,387599,19068
1063.92,1.317148,386688,18630
1067.61,1.308712,386598,18991
1071.29,1.314138,387377,18793
1074.96,1.310632,388536,19002
1078.63,1.310963,389855,19052
1082.3,1.302648,391215,19488
1085.96,1.316517,393215,18972
1090.84,1.309585,396270,19427
1094.49,1.310232,398760,19520
1098.14,1.317618,400987,19298
1101.79,1.320081,403477,19308
1105.43,1.312226,406116,19789
1109.06,1.306843,407701,20114
1112.7,1.315882,409859,19804
1117.53,1.306960,412494,20345
1121.15,1.305226,414909,20546
1124.77,1.311774,416559,20319
1128.38,1.313463,418532,20336
1131.99,1.318864,419956,20153
1135.6,1.315095,421946,20425
1139.2,1.319577,423881,20308
1143.99,1.314870,426786,20670
1147.58,1.308343,428617,21073
1151.17,1.314065,431169,20921
1154.75,1.316548,433579,20918
1158.33,1.305457,436264,21592
1161.91,1.313096,439132,21355
1165.48,1.316712,442389,21335
1169.04,1.316975,446101,21501
1173.79,1.315460,451929,21858
1177.34,1.309052,456026,22384
1180.9,1.313140,461306,22431
1184.44,1.314591,467657,22664
1187.99,1.312100,473969,23102
1191.52,1.314950,479856,23236
1195.06,1.322728,487372,23181
1199.76,1.317590,497347,23937
1203.29,1.319278,504311,24178
1206.81,1.314470,511507,24796
1210.33,1.320501,519078,24816
1213.84,1.320286,527163,25215
1217.35,1.318386,534208,25664
1220.85,1.318954,540472,25931
1225.51,1.322685,549929,26159
1229.01,1.324197,556888,26398
1232.5,1.323332,562180,26702
1235.98,1.318230,567975,27296
1239.46,1.317393,574815,27678
1242.94,1.319544,582782,27923
1246.41,1.324097,591476,28044
1251.03,1.316455,604016,29147
1254.5,1.320875,612289,29247
1257.96,1.321956,619125,29500
1261.41,1.326055,624551,29479
1264.86,1.325099,629900,29797
1268.31,1.321442,634345,30261
1271.75,1.324400,638574,30256
1276.33,1.320578,642499,30711
1279.76,1.319508,645905,30950
1283.19,1.323681,648307,30768
1286.61,1.326413,650446,30676
1290.03,1.323338,652132,30974
1293.44,1.323706,653907,31032
1296.85,1.324762,655963,31054
1301.39,1.320300,657349,31441
1304.8,1.324825,657558,31125
1308.19,1.327204,658515,31000
1311.58,1.324908,658804,31178
1314.97,1.330680,659011,30776
1318.36,1.321531,658272,31396
1321.73,1.326599,658022,31020
1326.23,1.328519,657870,30876
1329.6,1.328743,656482,30795
1332.97,1.328262,654926,30756
1336.33,1.324960,653727,30934
1339.69,1.334428,652497,30210
1343.04,1.332245,649913,30242
1346.39,1.328238,647671,30417
1349.73,1.332145,645338,30036
1354.18,1.323175,641175,30465
1357.52,1.326323,638376,30113
1360.85,1.325971,635805,30016
1364.17,1.323207,633413,30094
1367.49,1.329299,631026,29563
1370.81,1.324902,628050,29723
1374.12,1.321994,625034,29779
1378.54,1.320601,620272,29647
1381.84,1.325973,616892,29123
1385.14,1.322601,613613,29194
1388.43,1.326766,611526,28817
1391.72,1.318460,610663,29332
1395.01,1.323533,610634,28990
1398.29,1.321007,611700,29210
1402.66,1.325402,614051,29027
1405.93,1.328977,616268,28893
1409.2,1.326072,617795,29159
1412.46,1.325327,618872,29260
1415.72,1.325766,619795,29274
1418.98,1.331195,620495,28943
1422.23,1.329468,621087,29086
1426.56,1.330926,621375,29002
1429.8,1.330017,621616,29074
1433.04,1.328899,622129,29173
1436.27,1.324640,621526,29432
1439.5,1.335940,621113,28657
1442.72,1.325813,620921,29324
1445.94,1.333747,620270,28763
1450.23,1.331010,618860,28879
1453.44,1.325170,617697,29215
1456.64,1.330163,616264,28814
1459.85,1.333341,614413,28518
1463.04,1.334232,612307,28362
1466.24,1.328592,610032,28626
1469.43,1.334003,607345,28147
1473.67,1.327169,603789,28426
1476.85,1.329291,601175,28165
1480.02,1.334815,597737,27650
1483.19,1.331672,594479,27699
1486.36,1.334928,591232,27342
1489.52,1.336556,587853,27084
1492.68,1.333896,583875,27066
1496.89,1.328029,578062,27161
1500.03,1.337412,574159,26401
1503.18,1.330460,570285,26646
1506.32,1.325537,565444,26721
1509.45,1.334226,560571,25966
1512.58,1.325706,555821,26256
1515.71,1.335510,550344,25417
1519.87,1.330974,543983,25387
1522.99,1.330360,538764,25179
1526.1,1.335632,533692,24641
1529.21,1.328294,527902,24789
1532.32,1.338125,521886,23958
1535.42,1.330322,515888,24112
1538.51,1.330472,509987,23828
1541.6,1.330440,503936,23547
1545.72,1.328456,494694,23221
1548.8,1.332807,488378,22696
1551.88,1.336523,481832,22201
1554.95,1.336061,474989,21909
1558.02,1.332797,467818,21741
1561.08,1.327948,460730,21652
1564.15,1.338821,454170,20816
1568.22,1.326583,444181,20940
1571.27,1.329693,436947,20452
1574.32,1.333686,429598,19924
1577.36,1.333385,422039,19587
1580.4,1.324451,414375,19631
1583.43,1.327326,406354,19124
1586.46,1.327377,398475,18751
1590.49,1.326767,388982,18330
1593.51,1.324091,380708,18051
1596.53,1.320776,372727,17808
1599.54,1.322865,365060,17358
1602.55,1.323084,357543,16992
1605.55,1.324276,349495,16564
1608.55,1.316732,341154,16452
1612.54,1.319610,330877,15851
1615.53,1.309565,322904,15831
1618.51,1.322437,315116,14998
1621.49,1.318624,307217,14751
1624.47,1.328786,299481,14047
1627.44,1.323880,292112,13857
1630.41,1.321241,284245,13566
1634.36,1.322132,274079,13054
1637.32,1.317134,266916,12860
1640.27,1.314817,259612,12575
1643.22,1.313494,251804,12234
1646.16,1.313887,244348,11861
1649.1,1.305499,236703,11714
1652.04,1.320555,228171,10907
1655.95,1.288840,215408,11077
1658.88,1.277473,204937,10818
1661.8,1.287489,193395,9976
1664.72,1.273160,179728,9582
1667.63,1.255522,163642,9086
1670.54,1.259970,146312,8041
1673.44,1.207715,128451,7962
1677.31,1.150590,105080,7429
1680.21,1.165385,88906,6075
1683.1,1.133235,75033,5521
1685.99,1.143470,63520,4565
1688.87,1.144176,53714,3854
1691.75,1.141087,45653,3299
1694.62,1.108003,39137,3052
1697.49,1.196372,33776,2149
1701.31,1.138746,28175,2047