File: ML/samples/unknown/Column 1_078276_20241121_165408.csv
Method:,Column 1,,
Host Date-Time:,21/11/24 @ 16:54:8,,
Header Version:,1,,
System Temp (C):,34.38,,
Detector Temp (C):,32.29,,
Humidity (%):,2.3,,
Lamp PD:,3803,,
Shift Vector Coefficients:,-10.5391,0.0761263,-0.000134223,,
Pixel to Wavelength Coefficients:,1775.68,-0.916766,-0.000235065,,
Serial Number:,5510004,,
Scan Config Name:,Column 1,,
Scan Config Type:,Slew,,
Section 1,,
Start wavelength (nm):,900,,
End wavelength (nm):,1700,,
Pattern Pixel Width (nm):,   7.03,,,,
Exposure (ms):,  0.635,,,,
Digital Resolution:,228,,
Num Repeats:,6,,
PGA Gain:,64,,
Total Measurement Time in sec:,  2.715,,
Wavelength (nm),Absorbance (AU),Reference Signal (unitless),Sample Signal (unitless)
901.51,1.319450,108485,5199
905.376,1.318885,121306,5821
909.237,1.306427,131909,6514
913.095,1.319666,143299,6864
916.948,1.318248,156982,7544
922.079,1.325906,179937,8496
925.923,1.313118,200504,9750
929.762,1.320374,222660,10648
933.597,1.329949,244426,11434
937.427,1.325831,263972,12466
941.254,1.319419,281845,13508
945.076,1.329233,297271,13929
950.165,1.320282,315605,15096
953.978,1.312635,328029,15969
957.786,1.310065,340470,16673
961.59,1.316434,352317,17002
965.389,1.309895,363056,17786
969.185,1.316432,373162,18008
972.976,1.308647,382632,18799
976.763,1.305070,391202,19379
981.806,1.301910,400190,19969
985.583,1.302882,406088,20218
989.355,1.307905,410162,20186
993.124,1.304587,412868,20475
996.888,1.302377,414263,20649
1000.65,1.307853,415476,20450
1004.4,1.311953,415479,20258
1009.41,1.307256,414358,20423
1013.15,1.314665,412923,20008
1016.89,1.311547,411526,20084
1020.63,1.316886,409066,19720
1024.36,1.309566,406777,19943
1028.09,1.303601,404427,20102
1031.82,1.304383,401911,19941
1036.78,1.306526,398410,19670
1040.49,1.301956,396204,19768
1044.2,1.310897,394236,19269
1047.91,1.305643,392042,19395
1051.61,1.305175,389823,19306
1055.31,1.315791,388234,18763
1059,1.312818,387599,18861
1063.92,1.310945,386688,18898
1067.61,1.305454,386598,19134
1071.29,1.320024,387377,18540
1074.96,1.313038,388536,18897
1078.63,1.319829,389855,18667
1082.3,1.306588,391215,19312
1085.96,1.313369,393215,19110
1090.84,1.308648,396270,19469
1094.49,1.312283,398760,19428
1098.14,1.311251,400987,19583
1101.79,1.317413,403477,19427
1105.43,1.314228,406116,19698
1109.06,1.318929,407701,19562
1112.7,1.306832,409859,20221
1117.53,1.322829,412494,19615
1121.15,1.317771,414909,19961
1124.77,1.319494,416559,19961
1128.38,1.320048,418532,20030
1131.99,1.315965,419956,20288
1135.6,1.320357,421946,20179
1139.2,1.322194,423881,20186
1143.99,1.316111,426786,20611
1147.58,1.321759,428617,20432
1151.17,1.313505,431169,20948
1154.75,1.319235,433579,20789
1158.33,1.325019,436264,20641
1161.91,1.308463,439132,21584
1165.48,1.314499,442389,21444
1169.04,1.319547,446101,21374
1173.79,1.322329,451929,21515
1177.34,1.310880,456026,22290
1180.9,1.317441,461306,22210
1184.44,1.323516,467657,22203
1187.99,1.319571,473969,22708
1191.52,1.315529,479856,23205
1195.06,1.315335,487372,23579
1199.76,1.317336,497347,23951
1203.29,1.323774,504311,23929
1206.81,1.324211,511507,24246
1210.33,1.318092,519078,24954
1213.84,1.326356,527163,24865
1217.35,1.323527,534208,25362
1220.85,1.330787,540472,25234
1225.51,1.326772,549929,25914
1229.01,1.322719,556888,26488
1232.5,1.325124,562180,26592
1235.98,1.323126,567975,26990
1239.46,1.328148,574815,27001
1242.94,1.330586,582782,27222
1246.41,1.318619,591476,28400
1251.03,1.329953,604016,28255
1254.5,1.323034,612289,29102
1257.96,1.328214,619125,29078
1261.41,1.325672,624551,29505
1264.86,1.327569,629900,29628
1268.31,1.326146,634345,29935
1271.75,1.324974,638574,30216
1276.33,1.331925,642499,29919
1279.76,1.331097,645905,30135
1283.19,1.326357,648307,30579
1286.61,1.326512,650446,30669
1290.03,1.332563,652132,30323
1293.44,1.329213,653907,30641
1296.85,1.328230,655963,30807
1301.39,1.328555,657349,30849
1304.8,1.332838,657558,30556
1308.19,1.335592,658515,30407
1311.58,1.330220,658804,30799
1314.97,1.331726,659011,30702
1318.36,1.334049,658272,30504
1321.73,1.331442,658022,30676
1326.23,1.336970,657870,30281
1329.6,1.330877,656482,30644
1332.97,1.336444,654926,30182
1336.33,1.333424,653727,30337
1339.69,1.333954,652497,30243
1343.04,1.334346,649913,30096
1346.39,1.339784,647671,29619
1349.73,1.330788,645338,30130
1354.18,1.326941,641175,30202
1357.52,1.331648,638376,29746
1360.85,1.327420,635805,29916
1364.17,1.333768,633413,29371
1367.49,1.335096,631026,29171
1370.81,1.334236,628050,29091
1374.12,1.327099,625034,29431
1378.54,1.328704,620272,29099
1381.84,1.321744,616892,29408
1385.14,1.328065,613613,28829
1388.43,1.322895,611526,29075
1391.72,1.327602,610663,28721
1395.01,1.326238,610634,28810
1398.29,1.324036,611700,29007
1402.66,1.329582,614051,28749
1405.93,1.333009,616268,28626
1409.2,1.330518,617795,28862
1412.46,1.330974,618872,28882
1415.72,1.328863,619795,29066
1418.98,1.330820,620495,28968
1422.23,1.338658,621087,28477
1426.56,1.333298,621375,28844
1429.8,1.335958,621616,28679
1433.04,1.332968,622129,28901
1436.27,1.334988,621526,28739
1439.5,1.335168,621113,28708
1442.72,1.333689,620921,28797
1445.94,1.334487,620270,28714
1450.23,1.330544,618860,28910
1453.44,1.337595,617697,28391
1456.64,1.330601,616264,28785
1459.85,1.336183,614413,28332
1463.04,1.331667,612307,28530
1466.24,1.336445,610032,28113
1469.43,1.334528,607345,28113
1473.67,1.335499,603789,27886
1476.85,1.339242,601175,27527
1480.02,1.335239,597737,27623
1483.19,1.334062,594479,27547
1486.36,1.337956,591232,27152
1489.52,1.338742,587853,26948
1492.68,1.329744,583875,27326
1496.89,1.339040,578062,26481
1500.03,1.338466,574159,26337
1503.18,1.334685,570285,26388
1506.32,1.336782,565444,26038
1509.45,1.334410,560571,25955
1512.58,1.338412,555821,25499
1515.71,1.338063,550344,25268
1519.87,1.337854,543983,24988
1522.99,1.331638,538764,25105
1526.1,1.340239,533692,24381
1529.21,1.334772,527902,24422
1532.32,1.333151,521886,24234
1535.42,1.336362,515888,23779
1538.51,1.333508,509987,23662
1541.6,1.332826,503936,23418
1545.72,1.330668,494694,23103
1548.8,1.332367,488378,22719
1551.88,1.334649,481832,22297
1554.95,1.332980,474989,22065
1558.02,1.333637,467818,21699
1561.08,1.334843,460730,21311
1564.15,1.334792,454170,21010
1568.22,1.341221,444181,20246
1571.27,1.330012,436947,20437
1574.32,1.332575,429598,19975
1577.36,1.330622,422039,19712
1580.4,1.334771,414375,19170
1583.43,1.329854,406354,19013
1586.46,1.334334,398475,18453
1590.49,1.325679,388982,18376
1593.51,1.330196,380708,17799
1596.53,1.331391,372727,17378
1599.54,1.323215,365060,17344
1602.55,1.325262,357543,16907
1605.55,1.327433,349495,16444
1608.55,1.315388,341154,16503
1612.54,1.323242,330877,15719
1615.53,1.332028,322904,15033
1618.51,1.313070,315116,15325
1621.49,1.325538,307217,14518
1624.47,1.312165,299481,14595
1627.44,1.322191,292112,13911
1630.41,1.314255,284245,13786
1634.36,1.320372,274079,13107
1637.32,1.323872,266916,12662
1640.27,1.316062,259612,12539
1643.22,1.299797,251804,12626
1646.16,1.324150,244348,11584
1649.1,1.299643,236703,11873
1652.04,1.311921,228171,11126
1655.95,1.316646,215408,10390
1658.88,1.307471,204937,10096
1661.8,1.297040,193395,9759
1664.72,1.270899,179728,9632
1667.63,1.274076,163642,8706
1670.54,1.242658,146312,8368
1673.44,1.245950,128451,7291
1677.31,1.208607,105080,6500
1680.21,1.208884,88906,5496
1683.1,1.183287,75033,4920
1685.99,1.176981,63520,4226
1688.87,1.181452,53714,3537
1691.75,1.177168,45653,3036
1694.62,1.214553,39137,2388
1697.49,1.178360,33776,2240
1701.31,1.186465,28175,1834