File: ML/samples/unknown/Column 1_078262_20241121_165326.csv
Method:,Column 1,,
Host Date-Time:,21/11/24 @ 16:53:26,,
Header Version:,1,,
System Temp (C):,34.25,,
Detector Temp (C):,31.97,,
Humidity (%):,2.4,,
Lamp PD:,3802,,
Shift Vector Coefficients:,-10.5391,0.0761263,-0.000134223,,
Pixel to Wavelength Coefficients:,1775.68,-0.916766,-0.000235065,,
Serial Number:,5510004,,
Scan Config Name:,Column 1,,
Scan Config Type:,Slew,,
Section 1,,
Start wavelength (nm):,900,,
End wavelength (nm):,1700,,
Pattern Pixel Width (nm):,   7.03,,,,
Exposure (ms):,  0.635,,,,
Digital Resolution:,228,,
Num Repeats:,6,,
PGA Gain:,64,,
Total Measurement Time in sec:,  2.729,,
Wavelength (nm),Absorbance (AU),Reference Signal (unitless),Sample Signal (unitless)
901.51,1.310766,108485,5304
905.376,1.334997,121306,5609
909.237,1.328865,131909,6186
913.095,1.305903,143299,7085
916.948,1.328972,156982,7360
922.079,1.328058,179937,8454
925.923,1.332335,200504,9328
929.762,1.326370,222660,10502
933.597,1.322456,244426,11633
937.427,1.320223,263972,12628
941.254,1.327762,281845,13251
945.076,1.318424,297271,14280
950.165,1.312951,315605,15353
953.978,1.313043,328029,15954
957.786,1.319945,340470,16298
961.59,1.325389,352317,16655
965.389,1.319574,363056,17394
969.185,1.304256,373162,18520
972.976,1.315844,382632,18490
976.763,1.318474,391202,18790
981.806,1.311742,400190,19522
985.583,1.310357,406088,19873
989.355,1.317696,410162,19736
993.124,1.307909,412868,20319
996.888,1.310744,414263,20255
1000.65,1.309065,415476,20393
1004.4,1.305167,415479,20577
1009.41,1.309965,414358,20296
1013.15,1.317475,412923,19879
1016.89,1.307137,411526,20289
1020.63,1.315457,409066,19785
1024.36,1.310154,406777,19916
1028.09,1.304098,404427,20079
1031.82,1.312805,401911,19558
1036.78,1.315787,398410,19255
1040.49,1.315523,396204,19160
1044.2,1.312093,394236,19216
1047.91,1.309579,392042,19220
1051.61,1.317195,389823,18779
1055.31,1.316765,388234,18721
1059,1.308328,387599,19057
1063.92,1.313480,386688,18788
1067.61,1.314374,386598,18745
1071.29,1.306760,387377,19115
1074.96,1.323294,388536,18456
1078.63,1.309711,389855,19107
1082.3,1.323487,391215,18575
1085.96,1.317755,393215,18918
1090.84,1.311176,396270,19356
1094.49,1.317999,398760,19174
1098.14,1.318226,400987,19271
1101.79,1.319564,403477,19331
1105.43,1.314956,406116,19665
1109.06,1.317776,407701,19614
1112.7,1.317441,409859,19733
1117.53,1.314062,412494,20015
1121.15,1.318685,414909,19919
1124.77,1.325431,416559,19690
1128.38,1.316635,418532,20188
1131.99,1.322739,419956,19974
1135.6,1.320121,421946,20190
1139.2,1.322387,423881,20177
1143.99,1.316006,426786,20616
1147.58,1.322077,428617,20417
1151.17,1.320570,431169,20610
1154.75,1.328824,433579,20335
1158.33,1.318462,436264,20955
1161.91,1.324281,439132,20812
1165.48,1.322903,442389,21033
1169.04,1.328187,446101,20953
1173.79,1.321160,451929,21573
1177.34,1.326551,456026,21500
1180.9,1.321231,461306,22017
1184.44,1.312736,467657,22761
1187.99,1.323336,473969,22512
1191.52,1.309600,479856,23524
1195.06,1.320784,487372,23285
1199.76,1.323122,497347,23634
1203.29,1.324519,504311,23888
1206.81,1.326276,511507,24131
1210.33,1.326723,519078,24463
1213.84,1.315609,527163,25488
1217.35,1.324590,534208,25300
1220.85,1.330649,540472,25242
1225.51,1.332746,549929,25560
1229.01,1.326920,556888,26233
1232.5,1.322470,562180,26755
1235.98,1.320208,567975,27172
1239.46,1.327072,574815,27068
1242.94,1.326489,582782,27480
1246.41,1.323432,591476,28087
1251.03,1.320572,604016,28872
1254.5,1.320816,612289,29251
1257.96,1.328901,619125,29032
1261.41,1.327723,624551,29366
1264.86,1.328861,629900,29540
1268.31,1.327090,634345,29870
1271.75,1.329250,638574,29920
1276.33,1.328009,642499,30190
1279.76,1.327881,645905,30359
1283.19,1.328907,648307,30400
1286.61,1.332500,650446,30249
1290.03,1.327820,652132,30656
1293.44,1.330988,653907,30516
1296.85,1.326205,655963,30951
1301.39,1.331394,657349,30648
1304.8,1.333762,657558,30491
1308.19,1.334323,658515,30496
1311.58,1.331901,658804,30680
1314.97,1.331542,659011,30715
1318.36,1.334946,658272,30441
1321.73,1.328394,658022,30892
1326.23,1.336296,657870,30328
1329.6,1.334492,656482,30390
1332.97,1.328828,654926,30716
1336.33,1.335174,653727,30215
1339.69,1.332878,652497,30318
1343.04,1.334765,649913,30067
1346.39,1.325293,647671,30624
1349.73,1.332811,645338,29990
1354.18,1.332134,641175,29843
1357.52,1.334299,638376,29565
1360.85,1.331475,635805,29638
1364.17,1.331350,633413,29535
1367.49,1.329549,631026,29546
1370.81,1.332418,628050,29213
1374.12,1.328577,625034,29331
1378.54,1.327512,620272,29179
1381.84,1.329958,616892,28857
1385.14,1.328216,613613,28819
1388.43,1.328957,611526,28672
1391.72,1.331994,610663,28432
1395.01,1.326132,610634,28817
1398.29,1.328369,611700,28719
1402.66,1.331231,614051,28640
1405.93,1.333571,616268,28589
1409.2,1.333190,617795,28685
1412.46,1.340336,618872,28266
1415.72,1.334790,619795,28672
1418.98,1.331360,620495,28932
1422.23,1.337881,621087,28528
1426.56,1.335018,621375,28730
1429.8,1.335489,621616,28710
1433.04,1.327161,622129,29290
1436.27,1.334686,621526,28759
1439.5,1.336501,621113,28620
1442.72,1.341695,620921,28271
1445.94,1.335684,620270,28635
1450.23,1.335287,618860,28596
1453.44,1.334394,617697,28601
1456.64,1.337444,616264,28335
1459.85,1.337242,614413,28263
1463.04,1.335183,612307,28300
1466.24,1.340605,610032,27845
1469.43,1.335131,607345,28074
1473.67,1.342406,603789,27446
1476.85,1.338092,601175,27600
1480.02,1.331373,597737,27870
1483.19,1.341023,594479,27109
1486.36,1.338148,591232,27140
1489.52,1.339597,587853,26895
1492.68,1.339565,583875,26715
1496.89,1.333742,578062,26806
1500.03,1.342658,574159,26084
1503.18,1.333896,570285,26436
1506.32,1.339341,565444,25885
1509.45,1.342909,560571,25452
1512.58,1.341163,555821,25338
1515.71,1.345937,550344,24814
1519.87,1.338497,543983,24951
1522.99,1.337999,538764,24740
1526.1,1.340382,533692,24373
1529.21,1.337698,527902,24258
1532.32,1.334155,521886,24178
1535.42,1.335122,515888,23847
1538.51,1.333343,509987,23671
1541.6,1.334908,503936,23306
1545.72,1.334368,494694,22907
1548.8,1.341582,488378,22242
1551.88,1.338385,481832,22106
1554.95,1.336180,474989,21903
1558.02,1.340821,467818,21343
1561.08,1.340442,460730,21038
1564.15,1.341794,454170,20674
1568.22,1.333398,444181,20614
1571.27,1.337881,436947,20070
1574.32,1.340076,429598,19633
1577.36,1.332631,422039,19621
1580.4,1.336087,414375,19112
1583.43,1.332972,406354,18877
1586.46,1.332995,398475,18510
1590.49,1.327336,388982,18306
1593.51,1.344181,380708,17235
1596.53,1.338496,372727,17096
1599.54,1.320668,365060,17446
1602.55,1.326754,357543,16849
1605.55,1.330375,349495,16333
1608.55,1.332428,341154,15868
1612.54,1.328803,330877,15519
1615.53,1.329120,322904,15134
1618.51,1.312787,315116,15335
1621.49,1.331138,307217,14332
1624.47,1.332169,299481,13938
1627.44,1.320820,292112,13955
1630.41,1.313059,284245,13824
1634.36,1.315857,274079,13244
1637.32,1.319504,266916,12790
1640.27,1.315716,259612,12549
1643.22,1.318672,251804,12089
1646.16,1.328105,244348,11479
1649.1,1.328842,236703,11101
1652.04,1.316158,228171,11018
1655.95,1.299035,215408,10820
1658.88,1.310276,204937,10031
1661.8,1.290591,193395,9905
1664.72,1.292720,179728,9160
1667.63,1.281167,163642,8565
1670.54,1.278846,146312,7699
1673.44,1.264758,128451,6982
1677.31,1.229268,105080,6198
1680.21,1.200976,88906,5597
1683.1,1.239065,75033,4327
1685.99,1.179661,63520,4200
1688.87,1.224666,53714,3202
1691.75,1.203103,45653,2860
1694.62,1.225045,39137,2331
1697.49,1.330226,33776,1579
1701.31,1.216360,28175,1712