File: ML/samples/unknown/Column 1_078598_20241121_171034.csv
Method:,Column 1,,
Host Date-Time:,21/11/24 @ 17:10:34,,
Header Version:,1,,
System Temp (C):,36.9,,
Detector Temp (C):,34.85,,
Humidity (%):,1.08,,
Lamp PD:,3798,,
Shift Vector Coefficients:,-10.5391,0.0761263,-0.000134223,,
Pixel to Wavelength Coefficients:,1775.68,-0.916766,-0.000235065,,
Serial Number:,5510004,,
Scan Config Name:,Column 1,,
Scan Config Type:,Slew,,
Section 1,,
Start wavelength (nm):,900,,
End wavelength (nm):,1700,,
Pattern Pixel Width (nm):,   7.03,,,,
Exposure (ms):,  0.635,,,,
Digital Resolution:,228,,
Num Repeats:,6,,
PGA Gain:,64,,
Total Measurement Time in sec:,  2.725,,
Wavelength (nm),Absorbance (AU),Reference Signal (unitless),Sample Signal (unitless)
901.51,1.322468,108485,5163
905.376,1.347565,121306,5449
909.237,1.326624,131909,6218
913.095,1.309350,143299,7029
916.948,1.325504,156982,7419
922.079,1.303880,179937,8938
925.923,1.319897,200504,9599
929.762,1.312012,222660,10855
933.597,1.327563,244426,11497
937.427,1.323503,263972,12533
941.254,1.315451,281845,13632
945.076,1.313676,297271,14437
950.165,1.316444,315605,15230
953.978,1.322203,328029,15621
957.786,1.307908,340470,16756
961.59,1.314649,352317,17072
965.389,1.308701,363056,17835
969.185,1.307363,373162,18388
972.976,1.300363,382632,19161
976.763,1.312734,391202,19040
981.806,1.313481,400190,19444
985.583,1.302088,406088,20255
989.355,1.313405,410162,19932
993.124,1.299149,412868,20733
996.888,1.310873,414263,20249
1000.65,1.312014,415476,20255
1004.4,1.305949,415479,20540
1009.41,1.306300,414358,20468
1013.15,1.310819,412923,20186
1016.89,1.305044,411526,20387
1020.63,1.304833,409066,20275
1024.36,1.302803,406777,20256
1028.09,1.304856,404427,20044
1031.82,1.312539,401911,19570
1036.78,1.315651,398410,19261
1040.49,1.319280,396204,18995
1044.2,1.302129,394236,19662
1047.91,1.304972,392042,19425
1051.61,1.310175,389823,19085
1055.31,1.314682,388234,18811
1059,1.304720,387599,19216
1063.92,1.310141,386688,18933
1067.61,1.306385,386598,19093
1071.29,1.305398,387377,19175
1074.96,1.309149,388536,19067
1078.63,1.309552,389855,19114
1082.3,1.308866,391215,19211
1085.96,1.318582,393215,18882
1090.84,1.308714,396270,19466
1094.49,1.305585,398760,19730
1098.14,1.317326,400987,19311
1101.79,1.306508,403477,19921
1105.43,1.323048,406116,19302
1109.06,1.317488,407701,19627
1112.7,1.309050,409859,20118
1117.53,1.308714,412494,20263
1121.15,1.309410,414909,20349
1124.77,1.317129,416559,20070
1128.38,1.321938,418532,19943
1131.99,1.318972,419956,20148
1135.6,1.320960,421946,20151
1139.2,1.313040,423881,20616
1143.99,1.310958,426786,20857
1147.58,1.322503,428617,20397
1151.17,1.317441,431169,20759
1154.75,1.311594,433579,21158
1158.33,1.319582,436264,20901
1161.91,1.314787,439132,21272
1165.48,1.313184,442389,21509
1169.04,1.322401,446101,21234
1173.79,1.305812,451929,22349
1177.34,1.317575,456026,21949
1180.9,1.316679,461306,22249
1184.44,1.308691,467657,22974
1187.99,1.314910,473969,22953
1191.52,1.318270,479856,23059
1195.06,1.320169,487372,23318
1199.76,1.312844,497347,24200
1203.29,1.314775,504311,24430
1206.81,1.324158,511507,24249
1210.33,1.318859,519078,24910
1213.84,1.315047,527163,25521
1217.35,1.324332,534208,25315
1220.85,1.318351,540472,25967
1225.51,1.318571,549929,26408
1229.01,1.325713,556888,26306
1232.5,1.322682,562180,26742
1235.98,1.318644,567975,27270
1239.46,1.317535,574815,27669
1242.94,1.322181,582782,27754
1246.41,1.319231,591476,28360
1251.03,1.320767,604016,28859
1254.5,1.322318,612289,29150
1257.96,1.324792,619125,29308
1261.41,1.322446,624551,29725
1264.86,1.320114,629900,30141
1268.31,1.323759,634345,30100
1271.75,1.323969,638574,30286
1276.33,1.324442,642499,30439
1279.76,1.322634,645905,30728
1283.19,1.325039,648307,30672
1286.61,1.327731,650446,30583
1290.03,1.322708,652132,31019
1293.44,1.330505,653907,30550
1296.85,1.326219,655963,30950
1301.39,1.328653,657349,30842
1304.8,1.324225,657558,31168
1308.19,1.327821,658515,30956
1311.58,1.320115,658804,31524
1314.97,1.326272,659011,31090
1318.36,1.327562,658272,30963
1321.73,1.324559,658022,31166
1326.23,1.327227,657870,30968
1329.6,1.329830,656482,30718
1332.97,1.327247,654926,30828
1336.33,1.332966,653727,30369
1339.69,1.330578,652497,30479
1343.04,1.325462,649913,30718
1346.39,1.328338,647671,30410
1349.73,1.323555,645338,30636
1354.18,1.327042,641175,30195
1357.52,1.321076,638376,30479
1360.85,1.326217,635805,29999
1364.17,1.327733,633413,29782
1367.49,1.328961,631026,29586
1370.81,1.319197,628050,30116
1374.12,1.327482,625034,29405
1378.54,1.324427,620272,29387
1381.84,1.324410,616892,29228
1385.14,1.321220,613613,29287
1388.43,1.333066,611526,28402
1391.72,1.323478,610663,28995
1395.01,1.322784,610634,29040
1398.29,1.326769,611700,28825
1402.66,1.321886,614051,29263
1405.93,1.326325,616268,29070
1409.2,1.329331,617795,28941
1412.46,1.330237,618872,28931
1415.72,1.332147,619795,28847
1418.98,1.326761,620495,29240
1422.23,1.329200,621087,29104
1426.56,1.327139,621375,29256
1429.8,1.328422,621616,29181
1433.04,1.331348,622129,29009
1436.27,1.331031,621526,29002
1439.5,1.331807,621113,28931
1442.72,1.334534,620921,28741
1445.94,1.330497,620270,28979
1450.23,1.332094,618860,28807
1453.44,1.329082,617697,28953
1456.64,1.324860,616264,29168
1459.85,1.333875,614413,28483
1463.04,1.333651,612307,28400
1466.24,1.328167,610032,28654
1469.43,1.335549,607345,28047
1473.67,1.330744,603789,28193
1476.85,1.331843,601175,28000
1480.02,1.337841,597737,27458
1483.19,1.334914,594479,27493
1486.36,1.335293,591232,27319
1489.52,1.335147,587853,27172
1492.68,1.328728,583875,27390
1496.89,1.336571,578062,26632
1500.03,1.330023,574159,26854
1503.18,1.332994,570285,26491
1506.32,1.335932,565444,26089
1509.45,1.329700,560571,26238
1512.58,1.331971,555821,25880
1515.71,1.330972,550344,25684
1519.87,1.329284,543983,25486
1522.99,1.337946,538764,24743
1526.1,1.335527,533692,24647
1529.21,1.337466,527902,24271
1532.32,1.334425,521886,24163
1535.42,1.337368,515888,23724
1538.51,1.333416,509987,23667
1541.6,1.327627,503936,23700
1545.72,1.331477,494694,23060
1548.8,1.340023,488378,22322
1551.88,1.338228,481832,22114
1554.95,1.340484,474989,21687
1558.02,1.336670,467818,21548
1561.08,1.326427,460730,21728
1564.15,1.326541,454170,21413
1568.22,1.326065,444181,20965
1571.27,1.326309,436947,20612
1574.32,1.326080,429598,20276
1577.36,1.332078,422039,19646
1580.4,1.334590,414375,19178
1583.43,1.337016,406354,18702
1586.46,1.326983,398475,18768
1590.49,1.329763,388982,18204
1593.51,1.327666,380708,17903
1596.53,1.327386,372727,17539
1599.54,1.324293,365060,17301
1602.55,1.334924,357543,16535
1605.55,1.324145,349495,16569
1608.55,1.321323,341154,16279
1612.54,1.325180,330877,15649
1615.53,1.318966,322904,15492
1618.51,1.332366,315116,14659
1621.49,1.321459,307217,14655
1624.47,1.316141,299481,14462
1627.44,1.309515,292112,14323
1630.41,1.314129,284245,13790
1634.36,1.319611,274079,13130
1637.32,1.316762,266916,12871
1640.27,1.297020,259612,13101
1643.22,1.302142,251804,12558
1646.16,1.301080,244348,12216
1649.1,1.308213,236703,11641
1652.04,1.315370,228171,11038
1655.95,1.286533,215408,11136
1658.88,1.287504,204937,10571
1661.8,1.288448,193395,9954
1664.72,1.274885,179728,9544
1667.63,1.251241,163642,9176
1670.54,1.237089,146312,8476
1673.44,1.207715,128451,7962
1677.31,1.160165,105080,7267
1680.21,1.146089,88906,6351
1683.1,1.157831,75033,5217
1685.99,1.177392,63520,4222
1688.87,1.166369,53714,3662
1691.75,1.210608,45653,2811
1694.62,1.196039,39137,2492
1697.49,1.226710,33776,2004
1701.31,1.160944,28175,1945