File: ML/samples/unknown/Column 1_078011_20241121_164108.csv
Method:,Column 1,,
Host Date-Time:,21/11/24 @ 16:41:8,,
Header Version:,1,,
System Temp (C):,29.35,,
Detector Temp (C):,24.79,,
Humidity (%):,7.25,,
Lamp PD:,3815,,
Shift Vector Coefficients:,-10.5391,0.0761263,-0.000134223,,
Pixel to Wavelength Coefficients:,1775.68,-0.916766,-0.000235065,,
Serial Number:,5510004,,
Scan Config Name:,Column 1,,
Scan Config Type:,Slew,,
Section 1,,
Start wavelength (nm):,900,,
End wavelength (nm):,1700,,
Pattern Pixel Width (nm):,   7.03,,,,
Exposure (ms):,  0.635,,,,
Digital Resolution:,228,,
Num Repeats:,6,,
PGA Gain:,64,,
Total Measurement Time in sec:,  2.723,,
Wavelength (nm),Absorbance (AU),Reference Signal (unitless),Sample Signal (unitless)
901.51,1.318782,108485,5207
905.376,1.315688,121306,5864
909.237,1.327463,131909,6206
913.095,1.294052,143299,7281
916.948,1.323227,156982,7458
922.079,1.313907,179937,8734
925.923,1.306006,200504,9911
929.762,1.312172,222660,10851
933.597,1.304860,244426,12114
937.427,1.309791,263972,12935
941.254,1.324139,281845,13362
945.076,1.319643,297271,14240
950.165,1.311539,315605,15403
953.978,1.315363,328029,15869
957.786,1.313360,340470,16547
961.59,1.306210,352317,17407
965.389,1.319999,363056,17377
969.185,1.303156,373162,18567
972.976,1.315328,382632,18512
976.763,1.316261,391202,18886
981.806,1.309081,400190,19642
985.583,1.306462,406088,20052
989.355,1.315786,410162,19823
993.124,1.309687,412868,20236
996.888,1.311796,414263,20206
1000.65,1.311457,415476,20281
1004.4,1.317888,415479,19983
1009.41,1.310072,414358,20291
1013.15,1.320544,412923,19739
1016.89,1.307222,411526,20285
1020.63,1.318453,409066,19649
1024.36,1.325874,406777,19208
1028.09,1.317697,404427,19460
1031.82,1.310215,401911,19675
1036.78,1.308961,398410,19560
1040.49,1.311507,396204,19338
1044.2,1.310469,394236,19288
1047.91,1.309692,392042,19215
1051.61,1.313855,389823,18924
1055.31,1.312701,388234,18897
1059,1.322316,387599,18453
1063.92,1.305373,386688,19142
1067.61,1.318658,386598,18561
1071.29,1.307555,387377,19080
1074.96,1.318078,388536,18679
1078.63,1.321087,389855,18613
1082.3,1.313799,391215,18994
1085.96,1.310877,393215,19220
1090.84,1.319695,396270,18980
1094.49,1.312641,398760,19412
1098.14,1.311695,400987,19563
1101.79,1.320869,403477,19273
1105.43,1.314780,406116,19673
1109.06,1.318263,407701,19592
1112.7,1.324050,409859,19435
1117.53,1.329478,412494,19317
1121.15,1.318773,414909,19915
1124.77,1.323978,416559,19756
1128.38,1.320916,418532,19990
1131.99,1.328055,419956,19731
1135.6,1.321758,421946,20114
1139.2,1.325953,423881,20012
1143.99,1.329267,426786,19996
1147.58,1.321525,428617,20443
1151.17,1.324422,431169,20428
1154.75,1.323750,433579,20574
1158.33,1.326832,436264,20555
1161.91,1.322470,439132,20899
1165.48,1.316447,442389,21348
1169.04,1.320850,446101,21310
1173.79,1.321180,451929,21572
1177.34,1.321311,456026,21761
1180.9,1.320265,461306,22066
1184.44,1.319854,467657,22391
1187.99,1.322045,473969,22579
1191.52,1.318666,479856,23038
1195.06,1.326340,487372,22989
1199.76,1.327536,497347,23395
1203.29,1.328519,504311,23669
1206.81,1.330000,511507,23925
1210.33,1.321850,519078,24739
1213.84,1.324892,527163,24949
1217.35,1.327138,534208,25152
1220.85,1.324482,540472,25603
1225.51,1.322918,549929,26145
1229.01,1.324197,556888,26398
1232.5,1.327269,562180,26461
1235.98,1.327005,567975,26750
1239.46,1.315702,574815,27786
1242.94,1.326126,582782,27503
1246.41,1.321765,591476,28195
1251.03,1.329446,604016,28288
1254.5,1.323496,612289,29071
1257.96,1.329335,619125,29003
1261.41,1.328597,624551,29307
1264.86,1.330260,629900,29445
1268.31,1.326829,634345,29888
1271.75,1.329395,638574,29910
1276.33,1.333292,642499,29825
1279.76,1.329257,645905,30263
1283.19,1.332335,648307,30161
1286.61,1.326908,650446,30641
1290.03,1.334616,652132,30180
1293.44,1.330718,653907,30535
1296.85,1.331669,655963,30564
1301.39,1.335809,657349,30338
1304.8,1.335018,657558,30403
1308.19,1.332688,658515,30611
1311.58,1.334399,658804,30504
1314.97,1.327965,659011,30969
1318.36,1.330447,658272,30758
1321.73,1.336325,658022,30333
1326.23,1.334710,657870,30439
1329.6,1.337173,656482,30203
1332.97,1.330868,654926,30572
1336.33,1.330542,653727,30539
1339.69,1.331405,652497,30421
1343.04,1.328555,649913,30500
1346.39,1.331592,647671,30183
1349.73,1.329809,645338,30198
1354.18,1.334089,641175,29709
1357.52,1.328245,638376,29980
1360.85,1.328540,635805,29839
1364.17,1.331188,633413,29546
1367.49,1.336931,631026,29048
1370.81,1.335611,628050,28999
1374.12,1.332488,625034,29068
1378.54,1.325448,620272,29318
1381.84,1.327841,616892,28998
1385.14,1.333599,613613,28464
1388.43,1.328412,611526,28708
1391.72,1.328586,610663,28656
1395.01,1.329172,610634,28616
1398.29,1.334982,611700,28285
1402.66,1.334978,614051,28394
1405.93,1.325936,616268,29096
1409.2,1.334721,617795,28584
1412.46,1.333628,618872,28706
1415.72,1.333308,619795,28770
1418.98,1.336342,620495,28602
1422.23,1.341673,621087,28280
1426.56,1.333193,621375,28851
1429.8,1.336913,621616,28616
1433.04,1.334397,622129,28806
1436.27,1.331841,621526,28948
1439.5,1.337549,621113,28551
1442.72,1.333749,620921,28793
1445.94,1.335077,620270,28675
1450.23,1.338473,618860,28387
1453.44,1.338882,617697,28307
1456.64,1.340288,616264,28150
1459.85,1.336290,614413,28325
1463.04,1.340743,612307,27940
1466.24,1.339515,610032,27915
1469.43,1.336215,607345,28004
1473.67,1.337122,603789,27782
1476.85,1.339763,601175,27494
1480.02,1.335286,597737,27620
1483.19,1.339472,594479,27206
1486.36,1.340201,591232,27012
1489.52,1.340778,587853,26822
1492.68,1.337699,583875,26830
1496.89,1.335577,578062,26693
1500.03,1.334853,574159,26557
1503.18,1.340985,570285,26008
1506.32,1.343844,565444,25618
1509.45,1.338968,560571,25684
1512.58,1.336000,555821,25641
1515.71,1.341012,550344,25097
1519.87,1.340644,543983,24828
1522.99,1.334520,538764,24939
1526.1,1.342310,533692,24265
1529.21,1.338935,527902,24189
1532.32,1.338651,521886,23929
1535.42,1.345740,515888,23271
1538.51,1.339012,509987,23364
1541.6,1.339064,503936,23084
1545.72,1.345506,494694,22327
1548.8,1.337404,488378,22457
1551.88,1.340137,481832,22017
1554.95,1.342813,474989,21571
1558.02,1.337235,467818,21520
1561.08,1.337152,460730,21198
1564.15,1.347269,454170,20415
1568.22,1.340878,444181,20262
1571.27,1.337860,436947,20071
1574.32,1.346785,429598,19332
1577.36,1.344911,422039,19074
1580.4,1.340863,414375,18903
1583.43,1.336575,406354,18721
1586.46,1.334334,398475,18453
1590.49,1.334295,388982,18015
1593.51,1.336216,380708,17554
1596.53,1.335282,372727,17223
1599.54,1.340116,365060,16682
1602.55,1.337321,357543,16444
1605.55,1.335000,349495,16160
1608.55,1.343910,341154,15454
1612.54,1.328411,330877,15533
1615.53,1.336733,322904,14871
1618.51,1.336324,315116,14526
1621.49,1.337764,307217,14115
1624.47,1.330210,299481,14001
1627.44,1.330799,292112,13638
1630.41,1.329939,284245,13297
1634.36,1.331957,274079,12762
1637.32,1.334567,266916,12354
1640.27,1.315819,259612,12546
1643.22,1.345914,251804,11354
1646.16,1.325164,244348,11557
1649.1,1.318138,236703,11378
1652.04,1.320197,228171,10916
1655.95,1.329844,215408,10079
1658.88,1.326508,204937,9663
1661.8,1.340583,193395,8828
1664.72,1.340273,179728,8210
1667.63,1.361415,163642,7120
1670.54,1.353571,146312,6482
1673.44,1.334221,128451,5950
1677.31,1.359707,105080,4590
1680.21,1.401772,88906,3525
1683.1,1.412854,75033,2900
1685.99,1.316197,63520,3067
1688.87,1.398458,53714,2146
1691.75,1.456709,45653,1595
1694.62,1.426750,39137,1465
1697.49,1.431698,33776,1250
1701.31,1.272327,28175,1505