File: ML/samples/unknown/Column 1_078925_20241121_172848.csv
Method:,Column 1,,
Host Date-Time:,21/11/24 @ 17:28:48,,
Header Version:,1,,
System Temp (C):,37.28,,
Detector Temp (C):,36.39,,
Humidity (%):,0.58,,
Lamp PD:,3796,,
Shift Vector Coefficients:,-10.5391,0.0761263,-0.000134223,,
Pixel to Wavelength Coefficients:,1775.68,-0.916766,-0.000235065,,
Serial Number:,5510004,,
Scan Config Name:,Column 1,,
Scan Config Type:,Slew,,
Section 1,,
Start wavelength (nm):,900,,
End wavelength (nm):,1700,,
Pattern Pixel Width (nm):,   7.03,,,,
Exposure (ms):,  0.635,,,,
Digital Resolution:,228,,
Num Repeats:,6,,
PGA Gain:,64,,
Total Measurement Time in sec:,  2.709,,
Wavelength (nm),Absorbance (AU),Reference Signal (unitless),Sample Signal (unitless)
901.51,1.308235,108485,5335
905.376,1.333605,121306,5627
909.237,1.324951,131909,6242
913.095,1.329327,143299,6713
916.948,1.323169,156982,7459
922.079,1.331255,179937,8392
925.923,1.335371,200504,9263
929.762,1.320374,222660,10648
933.597,1.313880,244426,11865
937.427,1.329610,263972,12358
941.254,1.331085,281845,13150
945.076,1.308740,297271,14602
950.165,1.313828,315605,15322
953.978,1.317723,328029,15783
957.786,1.311866,340470,16604
961.59,1.312264,352317,17166
965.389,1.318178,363056,17450
969.185,1.302618,373162,18590
972.976,1.313012,382632,18611
976.763,1.307159,391202,19286
981.806,1.305842,400190,19789
985.583,1.309614,406088,19907
989.355,1.303581,410162,20388
993.124,1.312054,412868,20126
996.888,1.306052,414263,20475
1000.65,1.305671,415476,20553
1004.4,1.314145,415479,20156
1009.41,1.307065,414358,20432
1013.15,1.308715,412923,20284
1016.89,1.295979,411526,20817
1020.63,1.296768,409066,20655
1024.36,1.309174,406777,19961
1028.09,1.308096,404427,19895
1031.82,1.312362,401911,19578
1036.78,1.301783,398410,19886
1040.49,1.312384,396204,19299
1044.2,1.317552,394236,18976
1047.91,1.299219,392042,19684
1051.61,1.311794,389823,19014
1055.31,1.300129,388234,19452
1059,1.321610,387599,18483
1063.92,1.316589,386688,18654
1067.61,1.315093,386598,18714
1071.29,1.306828,387377,19112
1074.96,1.308512,388536,19095
1078.63,1.309097,389855,19134
1082.3,1.315150,391215,18935
1085.96,1.318099,393215,18903
1090.84,1.311131,396270,19358
1094.49,1.316168,398760,19255
1098.14,1.313697,400987,19473
1101.79,1.316788,403477,19455
1105.43,1.319619,406116,19455
1109.06,1.304904,407701,20204
1112.7,1.305567,409859,20280
1117.53,1.317832,412494,19842
1121.15,1.320586,414909,19832
1124.77,1.305240,416559,20627
1128.38,1.315862,418532,20224
1131.99,1.329908,419956,19647
1135.6,1.316031,421946,20381
1139.2,1.322323,423881,20180
1143.99,1.315059,426786,20661
1147.58,1.315784,428617,20715
1151.17,1.317316,431169,20765
1154.75,1.316403,433579,20925
1158.33,1.316848,436264,21033
1161.91,1.318580,439132,21087
1165.48,1.321501,442389,21101
1169.04,1.314557,446101,21621
1173.79,1.314705,451929,21896
1177.34,1.310043,456026,22333
1180.9,1.315918,461306,22288
1184.44,1.319505,467657,22409
1187.99,1.320298,473969,22670
1191.52,1.311747,479856,23408
1195.06,1.319816,487372,23337
1199.76,1.320101,497347,23799
1203.29,1.330339,504311,23570
1206.81,1.322888,511507,24320
1210.33,1.323363,519078,24653
1213.84,1.320252,527163,25217
1217.35,1.320609,534208,25533
1220.85,1.317299,540472,26030
1225.51,1.320599,549929,26285
1229.01,1.322375,556888,26509
1232.5,1.319284,562180,26952
1235.98,1.320160,567975,27175
1239.46,1.323747,574815,27276
1242.94,1.326442,582782,27483
1246.41,1.317047,591476,28503
1251.03,1.318890,604016,28984
1254.5,1.323706,612289,29057
1257.96,1.320149,619125,29623
1261.41,1.323353,624551,29663
1264.86,1.332374,629900,29302
1268.31,1.326727,634345,29895
1271.75,1.325032,638574,30212
1276.33,1.321612,642499,30638
1279.76,1.326211,645905,30476
1283.19,1.331084,648307,30248
1286.61,1.320241,650446,31115
1290.03,1.322050,652132,31066
1293.44,1.332600,653907,30403
1296.85,1.323728,655963,31128
1301.39,1.330007,657349,30746
1304.8,1.325663,657558,31065
1308.19,1.330241,658515,30784
1311.58,1.327184,658804,31015
1314.97,1.326258,659011,31091
1318.36,1.331805,658272,30662
1321.73,1.333784,658022,30511
1326.23,1.332546,657870,30591
1329.6,1.326590,656482,30948
1332.97,1.330173,654926,30621
1336.33,1.324259,653727,30984
1339.69,1.330421,652497,30490
1343.04,1.328299,649913,30518
1346.39,1.331218,647671,30209
1349.73,1.332029,645338,30044
1354.18,1.326352,641175,30243
1357.52,1.321974,638376,30416
1360.85,1.326927,635805,29950
1364.17,1.331629,633413,29516
1367.49,1.328023,631026,29650
1370.81,1.328585,628050,29472
1374.12,1.323074,625034,29705
1378.54,1.329885,620272,29020
1381.84,1.323994,616892,29256
1385.14,1.324958,613613,29036
1388.43,1.335750,611526,28227
1391.72,1.329026,610663,28627
1395.01,1.326690,610634,28780
1398.29,1.325791,611700,28890
1402.66,1.319458,614051,29427
1405.93,1.332448,616268,28663
1409.2,1.331211,617795,28816
1412.46,1.323446,618872,29387
1415.72,1.324167,619795,29382
1418.98,1.328502,620495,29123
1422.23,1.327978,621087,29186
1426.56,1.331210,621375,28983
1429.8,1.322877,621616,29556
1433.04,1.334714,622129,28785
1436.27,1.334127,621526,28796
1439.5,1.335485,621113,28687
1442.72,1.333644,620921,28800
1445.94,1.334971,620270,28682
1450.23,1.328880,618860,29021
1453.44,1.334592,617697,28588
1456.64,1.333462,616264,28596
1459.85,1.332748,614413,28557
1463.04,1.331957,612307,28511
1466.24,1.335890,610032,28149
1469.43,1.337178,607345,27942
1473.67,1.324701,603789,28588
1476.85,1.335300,601175,27778
1480.02,1.335806,597737,27587
1483.19,1.338531,594479,27265
1486.36,1.332504,591232,27495
1489.52,1.331740,587853,27386
1492.68,1.333944,583875,27063
1496.89,1.329342,578062,27079
1500.03,1.333058,574159,26667
1503.18,1.339734,570285,26083
1506.32,1.340905,565444,25792
1509.45,1.340900,560571,25570
1512.58,1.330865,555821,25946
1515.71,1.336845,550344,25339
1519.87,1.336934,543983,25041
1522.99,1.340022,538764,24625
1526.1,1.332471,533692,24821
1529.21,1.332856,527902,24530
1532.32,1.332882,521886,24249
1535.42,1.336307,515888,23782
1538.51,1.335531,509987,23552
1541.6,1.337693,503936,23157
1545.72,1.336154,494694,22813
1548.8,1.331717,488378,22753
1551.88,1.333579,481832,22352
1554.95,1.329295,474989,22253
1558.02,1.334018,467818,21680
1561.08,1.329214,460730,21589
1564.15,1.324477,454170,21515
1568.22,1.333461,444181,20611
1571.27,1.328230,436947,20521
1574.32,1.333729,429598,19922
1577.36,1.336076,422039,19466
1580.4,1.334341,414375,19189
1583.43,1.324970,406354,19228
1586.46,1.329350,398475,18666
1590.49,1.329763,388982,18204
1593.51,1.334044,380708,17642
1596.53,1.327114,372727,17550
1599.54,1.326760,365060,17203
1602.55,1.330300,357543,16712
1605.55,1.315708,349495,16894
1608.55,1.327205,341154,16060
1612.54,1.314381,330877,16043
1615.53,1.318070,322904,15524
1618.51,1.321627,315116,15026
1621.49,1.316978,307217,14807
1624.47,1.327612,299481,14085
1627.44,1.328037,292112,13725
1630.41,1.320985,284245,13574
1634.36,1.318554,274079,13162
1637.32,1.313468,266916,12969
1640.27,1.322166,259612,12364
1643.22,1.306347,251804,12437
1646.16,1.310641,244348,11950
1649.1,1.309970,236703,11594
1652.04,1.298243,228171,11482
1655.95,1.299436,215408,10810
1658.88,1.300515,204937,10259
1661.8,1.290415,193395,9909
1664.72,1.265032,179728,9763
1667.63,1.250390,163642,9194
1670.54,1.226260,146312,8690
1673.44,1.207988,128451,7957
1677.31,1.189970,105080,6785
1680.21,1.156960,88906,6194
1683.1,1.145764,75033,5364
1685.99,1.121217,63520,4805
1688.87,1.167914,53714,3649
1691.75,1.154727,45653,3197
1694.62,1.174121,39137,2621
1697.49,1.086599,33776,2767
1701.31,1.142154,28175,2031