File: ML/samples/unknown/Column 1_078349_20241121_165741.csv
Method:,Column 1,,
Host Date-Time:,21/11/24 @ 16:57:41,,
Header Version:,1,,
System Temp (C):,34.8,,
Detector Temp (C):,33.28,,
Humidity (%):,2.16,,
Lamp PD:,3801,,
Shift Vector Coefficients:,-10.5391,0.0761263,-0.000134223,,
Pixel to Wavelength Coefficients:,1775.68,-0.916766,-0.000235065,,
Serial Number:,5510004,,
Scan Config Name:,Column 1,,
Scan Config Type:,Slew,,
Section 1,,
Start wavelength (nm):,900,,
End wavelength (nm):,1700,,
Pattern Pixel Width (nm):,   7.03,,,,
Exposure (ms):,  0.635,,,,
Digital Resolution:,228,,
Num Repeats:,6,,
PGA Gain:,64,,
Total Measurement Time in sec:,  2.722,,
Wavelength (nm),Absorbance (AU),Reference Signal (unitless),Sample Signal (unitless)
901.51,1.327119,108485,5108
905.376,1.320305,121306,5802
909.237,1.333027,131909,6127
913.095,1.338083,143299,6579
916.948,1.362894,156982,6807
922.079,1.328624,179937,8443
925.923,1.333920,200504,9294
929.762,1.322295,222660,10601
933.597,1.312309,244426,11908
937.427,1.333954,263972,12235
941.254,1.326583,281845,13287
945.076,1.318607,297271,14274
950.165,1.311116,315605,15418
953.978,1.322815,328029,15599
957.786,1.318614,340470,16348
961.59,1.308887,352317,17300
965.389,1.309261,363056,17812
969.185,1.310730,373162,18246
972.976,1.312685,382632,18625
976.763,1.303459,391202,19451
981.806,1.310276,400190,19588
985.583,1.308046,406088,19979
989.355,1.304669,410162,20337
993.124,1.311062,412868,20172
996.888,1.313174,414263,20142
1000.65,1.311200,415476,20293
1004.4,1.308791,415479,20406
1009.41,1.315716,414358,20029
1013.15,1.313257,412923,20073
1016.89,1.309304,411526,20188
1020.63,1.305304,409066,20253
1024.36,1.307220,406777,20051
1028.09,1.303752,404427,20095
1031.82,1.308475,401911,19754
1036.78,1.308562,398410,19578
1040.49,1.306040,396204,19583
1044.2,1.307507,394236,19420
1047.91,1.306113,392042,19374
1051.61,1.307453,389823,19205
1055.31,1.303469,388234,19303
1059,1.321469,387599,18489
1063.92,1.317591,386688,18611
1067.61,1.313472,386598,18784
1071.29,1.307715,387377,19073
1074.96,1.315782,388536,18778
1078.63,1.307919,389855,19186
1082.3,1.302247,391215,19506
1085.96,1.313733,393215,19094
1090.84,1.318301,396270,19041
1094.49,1.315289,398760,19294
1098.14,1.317393,400987,19308
1101.79,1.319834,403477,19319
1105.43,1.310693,406116,19859
1109.06,1.314115,407701,19780
1112.7,1.314218,409859,19880
1117.53,1.317723,412494,19847
1121.15,1.321003,414909,19813
1124.77,1.320453,416559,19917
1128.38,1.322243,418532,19929
1131.99,1.320635,419956,20071
1135.6,1.313524,421946,20499
1139.2,1.326236,423881,19999
1143.99,1.319220,426786,20464
1147.58,1.324659,428617,20296
1151.17,1.323106,431169,20490
1154.75,1.320595,433579,20724
1158.33,1.315982,436264,21075
1161.91,1.323364,439132,20856
1165.48,1.311693,442389,21583
1169.04,1.322504,446101,21229
1173.79,1.320677,451929,21597
1177.34,1.325039,456026,21575
1180.9,1.317851,461306,22189
1184.44,1.323614,467657,22198
1187.99,1.312270,473969,23093
1191.52,1.326849,479856,22608
1195.06,1.330116,487372,22790
1199.76,1.326906,497347,23429
1203.29,1.325137,504311,23854
1206.81,1.324104,511507,24252
1210.33,1.325801,519078,24515
1213.84,1.323051,527163,25055
1217.35,1.326413,534208,25194
1220.85,1.314969,540472,26170
1225.51,1.324716,549929,26037
1229.01,1.329777,556888,26061
1232.5,1.316698,562180,27113
1235.98,1.328160,567975,26679
1239.46,1.325550,574815,27163
1242.94,1.326063,582782,27507
1246.41,1.326411,591476,27895
1251.03,1.324743,604016,28596
1254.5,1.329226,612289,28690
1257.96,1.327736,619125,29110
1261.41,1.332541,624551,29042
1264.86,1.328347,629900,29575
1268.31,1.328926,634345,29744
1271.75,1.329134,638574,29928
1276.33,1.330187,642499,30039
1279.76,1.330406,645905,30183
1283.19,1.331343,648307,30230
1286.61,1.331625,650446,30310
1290.03,1.328061,652132,30639
1293.44,1.330946,653907,30519
1296.85,1.327033,655963,30892
1301.39,1.331606,657349,30633
1304.8,1.333506,657558,30509
1308.19,1.327064,658515,31010
1311.58,1.333418,658804,30573
1314.97,1.330173,659011,30812
1318.36,1.334191,658272,30494
1321.73,1.334953,658022,30429
1326.23,1.330889,657870,30708
1329.6,1.333194,656482,30481
1332.97,1.335941,654926,30217
1336.33,1.337162,653727,30077
1339.69,1.332964,652497,30312
1343.04,1.330296,649913,30378
1346.39,1.334103,647671,30009
1349.73,1.332507,645338,30011
1354.18,1.328684,641175,30081
1357.52,1.335520,638376,29482
1360.85,1.335420,635805,29370
1364.17,1.332528,633413,29455
1367.49,1.331272,631026,29429
1370.81,1.331334,628050,29286
1374.12,1.329837,625034,29246
1378.54,1.332994,620272,28813
1381.84,1.330214,616892,28840
1385.14,1.325512,613613,28999
1388.43,1.329412,611526,28642
1391.72,1.332300,610663,28412
1395.01,1.329597,610634,28588
1398.29,1.330476,611700,28580
1402.66,1.326676,614051,28942
1405.93,1.332888,616268,28634
1409.2,1.332932,617795,28702
1412.46,1.330373,618872,28922
1415.72,1.335472,619795,28627
1418.98,1.337041,620495,28556
1422.23,1.330560,621087,29013
1426.56,1.335169,621375,28720
1429.8,1.334945,621616,28746
1433.04,1.337499,622129,28601
1436.27,1.331421,621526,28976
1439.5,1.332889,621113,28859
1442.72,1.332590,620921,28870
1445.94,1.336762,620270,28564
1450.23,1.334604,618860,28641
1453.44,1.334409,617697,28600
1456.64,1.336280,616264,28411
1459.85,1.334867,614413,28418
1463.04,1.337877,612307,28125
1466.24,1.332570,610032,28365
1469.43,1.333002,607345,28212
1473.67,1.336700,603789,27809
1476.85,1.338155,601175,27596
1480.02,1.334909,597737,27644
1483.19,1.335183,594479,27476
1486.36,1.337844,591232,27159
1489.52,1.335211,587853,27168
1492.68,1.335053,583875,26994
1496.89,1.333872,578062,26798
1500.03,1.337050,574159,26423
1503.18,1.335542,570285,26336
1506.32,1.338169,565444,25955
1509.45,1.335046,560571,25917
1512.58,1.340478,555821,25378
1515.71,1.334861,550344,25455
1519.87,1.337333,543983,25018
1522.99,1.334781,538764,24924
1526.1,1.333435,533692,24766
1529.21,1.335823,527902,24363
1532.32,1.334407,521886,24164
1535.42,1.334067,515888,23905
1538.51,1.344248,509987,23084
1541.6,1.335374,503936,23281
1545.72,1.335717,494694,22836
1548.8,1.337578,488378,22448
1551.88,1.342333,481832,21906
1554.95,1.338825,474989,21770
1558.02,1.335061,467818,21628
1561.08,1.340401,460730,21040
1564.15,1.334854,454170,21007
1568.22,1.336569,444181,20464
1571.27,1.334175,436947,20242
1574.32,1.331425,429598,20028
1577.36,1.331460,422039,19674
1580.4,1.336451,414375,19096
1583.43,1.338389,406354,18643
1586.46,1.328792,398475,18690
1590.49,1.332683,388982,18082
1593.51,1.325488,380708,17993
1596.53,1.332517,372727,17333
1599.54,1.331583,365060,17013
1602.55,1.334872,357543,16537
1605.55,1.338237,349495,16040
1608.55,1.327882,341154,16035
1612.54,1.332484,330877,15388
1615.53,1.327659,322904,15185
1618.51,1.334773,315116,14578
1621.49,1.321459,307217,14655
1624.47,1.332107,299481,13940
1627.44,1.325041,292112,13820
1630.41,1.324357,284245,13469
1634.36,1.322965,274079,13029
1637.32,1.318182,266916,12829
1640.27,1.311857,259612,12661
1643.22,1.314845,251804,12196
1646.16,1.319637,244348,11705
1649.1,1.322434,236703,11266
1652.04,1.304299,228171,11323
1655.95,1.297552,215408,10857
1658.88,1.305839,204937,10134
1661.8,1.291293,193395,9889
1664.72,1.263656,179728,9794
1667.63,1.272582,163642,8736
1670.54,1.251360,146312,8202
1673.44,1.251345,128451,7201
1677.31,1.218200,105080,6358
1680.21,1.192980,88906,5701
1683.1,1.192115,75033,4821
1685.99,1.226224,63520,3773
1688.87,1.204654,53714,3353
1691.75,1.250213,45653,2566
1694.62,1.204131,39137,2446
1697.49,1.238796,33776,1949
1701.31,1.181286,28175,1856