File: ML/samples/unknown/Column 1_078755_20241121_172037.csv
Method:,Column 1,,
Host Date-Time:,21/11/24 @ 17:20:37,,
Header Version:,1,,
System Temp (C):,36.78,,
Detector Temp (C):,34.88,,
Humidity (%):,1.37,,
Lamp PD:,3798,,
Shift Vector Coefficients:,-10.5391,0.0761263,-0.000134223,,
Pixel to Wavelength Coefficients:,1775.68,-0.916766,-0.000235065,,
Serial Number:,5510004,,
Scan Config Name:,Column 1,,
Scan Config Type:,Slew,,
Section 1,,
Start wavelength (nm):,900,,
End wavelength (nm):,1700,,
Pattern Pixel Width (nm):,   7.03,,,,
Exposure (ms):,  0.635,,,,
Digital Resolution:,228,,
Num Repeats:,6,,
PGA Gain:,64,,
Total Measurement Time in sec:,  2.728,,
Wavelength (nm),Absorbance (AU),Reference Signal (unitless),Sample Signal (unitless)
901.51,1.328140,108485,5096
905.376,1.296280,121306,6132
909.237,1.318048,131909,6342
913.095,1.322459,143299,6820
916.948,1.317500,156982,7557
922.079,1.306121,179937,8892
925.923,1.310233,200504,9815
929.762,1.321395,222660,10623
933.597,1.321821,244426,11650
937.427,1.313162,263972,12835
941.254,1.319773,281845,13497
945.076,1.312234,297271,14485
950.165,1.303853,315605,15678
953.978,1.315527,328029,15863
957.786,1.304809,340470,16876
961.59,1.311531,352317,17195
965.389,1.317606,363056,17473
969.185,1.302058,373162,18614
972.976,1.304920,382632,18961
976.763,1.297560,391202,19717
981.806,1.310920,400190,19559
985.583,1.305792,406088,20083
989.355,1.300588,410162,20529
993.124,1.294855,412868,20939
996.888,1.305607,414263,20496
1000.65,1.303521,415476,20655
1004.4,1.306668,415479,20506
1009.41,1.306215,414358,20472
1013.15,1.298370,412923,20773
1016.89,1.299372,411526,20655
1020.63,1.307950,409066,20130
1024.36,1.305038,406777,20152
1028.09,1.308140,404427,19893
1031.82,1.300027,401911,20142
1036.78,1.303051,398410,19828
1040.49,1.298826,396204,19911
1044.2,1.300959,394236,19715
1047.91,1.298800,392042,19703
1051.61,1.297527,389823,19649
1055.31,1.315838,388234,18761
1059,1.316100,387599,18719
1063.92,1.306669,386688,19085
1067.61,1.308003,386598,19022
1071.29,1.304561,387377,19212
1074.96,1.306153,388536,19199
1078.63,1.309506,389855,19116
1082.3,1.310791,391215,19126
1085.96,1.300120,393215,19702
1090.84,1.309764,396270,19419
1094.49,1.314255,398760,19340
1098.14,1.307607,400987,19748
1101.79,1.311066,403477,19713
1105.43,1.310299,406116,19877
1109.06,1.306520,407701,20129
1112.7,1.314240,409859,19879
1117.53,1.318292,412494,19821
1121.15,1.317792,414909,19960
1124.77,1.314003,416559,20215
1128.38,1.309213,418532,20536
1131.99,1.312617,419956,20445
1135.6,1.302273,421946,21037
1139.2,1.315660,423881,20492
1143.99,1.318245,426786,20510
1147.58,1.314194,428617,20791
1151.17,1.315583,431169,20848
1154.75,1.318796,433579,20810
1158.33,1.311574,436264,21290
1161.91,1.308564,439132,21579
1165.48,1.306273,442389,21854
1169.04,1.314236,446101,21637
1173.79,1.305036,451929,22389
1177.34,1.312441,456026,22210
1180.9,1.313082,461306,22434
1184.44,1.309258,467657,22944
1187.99,1.314305,473969,22985
1191.52,1.319213,479856,23009
1195.06,1.316276,487372,23528
1199.76,1.317989,497347,23915
1203.29,1.315042,504311,24415
1206.81,1.314523,511507,24793
1210.33,1.310861,519078,25373
1213.84,1.313027,527163,25640
1217.35,1.324899,534208,25282
1220.85,1.316166,540472,26098
1225.51,1.315474,549929,26597
1229.01,1.321671,556888,26552
1232.5,1.314365,562180,27259
1235.98,1.314918,567975,27505
1239.46,1.321128,574815,27441
1242.94,1.320151,582782,27884
1246.41,1.315192,591476,28625
1251.03,1.324045,604016,28642
1254.5,1.323272,612289,29086
1257.96,1.322752,619125,29446
1261.41,1.325231,624551,29535
1264.86,1.320604,629900,30107
1268.31,1.318667,634345,30455
1271.75,1.323253,638574,30336
1276.33,1.323573,642499,30500
1279.76,1.324887,645905,30569
1283.19,1.328365,648307,30438
1286.61,1.321780,650446,31005
1290.03,1.322708,652132,31019
1293.44,1.326965,653907,30800
1296.85,1.322906,655963,31187
1301.39,1.325008,657349,31102
1304.8,1.325411,657558,31083
1308.19,1.322148,658515,31363
1311.58,1.328812,658804,30899
1314.97,1.324780,659011,31197
1318.36,1.326302,658272,31053
1321.73,1.327776,658022,30936
1326.23,1.326708,657870,31005
1329.6,1.323333,656482,31181
1332.97,1.330769,654926,30579
1336.33,1.327424,653727,30759
1339.69,1.327143,652497,30721
1343.04,1.322897,649913,30900
1346.39,1.319139,647671,31061
1349.73,1.323612,645338,30632
1354.18,1.324832,641175,30349
1357.52,1.324495,638376,30240
1360.85,1.321094,635805,30355
1364.17,1.323250,633413,30091
1367.49,1.320933,631026,30138
1370.81,1.325706,628050,29668
1374.12,1.320552,625034,29878
1378.54,1.327036,620272,29211
1381.84,1.323594,616892,29283
1385.14,1.322988,613613,29168
1388.43,1.322432,611526,29106
1391.72,1.323913,610663,28966
1395.01,1.329385,610634,28602
1398.29,1.321602,611700,29170
1402.66,1.316400,614051,29635
1405.93,1.327551,616268,28988
1409.2,1.324125,617795,29290
1412.46,1.330463,618872,28916
1415.72,1.322470,619795,29497
1418.98,1.326627,620495,29249
1422.23,1.321304,621087,29638
1426.56,1.329894,621375,29071
1429.8,1.325825,621616,29356
1433.04,1.326998,622129,29301
1436.27,1.328300,621526,29185
1439.5,1.331882,621113,28926
1442.72,1.332154,620921,28899
1445.94,1.329868,620270,29021
1450.23,1.327849,618860,29090
1453.44,1.333575,617697,28655
1456.64,1.329636,616264,28849
1459.85,1.328872,614413,28813
1463.04,1.327215,612307,28824
1466.24,1.330721,610032,28486
1469.43,1.332233,607345,28262
1473.67,1.334006,603789,27982
1476.85,1.326417,601175,28352
1480.02,1.331217,597737,27880
1483.19,1.324180,594479,28181
1486.36,1.332678,591232,27484
1489.52,1.334923,587853,27186
1492.68,1.335616,583875,26959
1496.89,1.332707,578062,26870
1500.03,1.329377,574159,26894
1503.18,1.333190,570285,26479
1506.32,1.333790,565444,26218
1509.45,1.337533,560571,25769
1512.58,1.334951,555821,25703
1515.71,1.333056,550344,25561
1519.87,1.335324,543983,25134
1522.99,1.330429,538764,25175
1526.1,1.337275,533692,24548
1529.21,1.334026,527902,24464
1532.32,1.326076,521886,24632
1535.42,1.324099,515888,24460
1538.51,1.327547,509987,23989
1541.6,1.338312,503936,23124
1545.72,1.323066,494694,23511
1548.8,1.325050,488378,23105
1551.88,1.329403,481832,22568
1554.95,1.329588,474989,22238
1558.02,1.324723,467818,22149
1561.08,1.326327,460730,21733
1564.15,1.334958,454170,21002
1568.22,1.328871,444181,20830
1571.27,1.327955,436947,20534
1574.32,1.324711,429598,20340
1577.36,1.327220,422039,19867
1580.4,1.335384,414375,19143
1583.43,1.326804,406354,19147
1586.46,1.329234,398475,18671
1590.49,1.326199,388982,18354
1593.51,1.322626,380708,18112
1596.53,1.316915,372727,17967
1599.54,1.314048,365060,17714
1602.55,1.316262,357543,17261
1605.55,1.320257,349495,16718
1608.55,1.317577,341154,16420
1612.54,1.329868,330877,15481
1615.53,1.312759,322904,15715
1618.51,1.309964,315116,15435
1621.49,1.319626,307217,14717
1624.47,1.317404,299481,14420
1627.44,1.318894,292112,14017
1630.41,1.316465,284245,13716
1634.36,1.320406,274079,13106
1637.32,1.310232,266916,13066
1640.27,1.307522,259612,12788
1643.22,1.305266,251804,12468
1646.16,1.305367,244348,12096
1649.1,1.311096,236703,11564
1652.04,1.296469,228171,11529
1655.95,1.305831,215408,10652
1658.88,1.277875,204937,10808
1661.8,1.281737,193395,10109
1664.72,1.295431,179728,9103
1667.63,1.245739,163642,9293
1670.54,1.238372,146312,8451
1673.44,1.216476,128451,7803
1677.31,1.170629,105080,7094
1680.21,1.169768,88906,6014
1683.1,1.153771,75033,5266
1685.99,1.173909,63520,4256
1688.87,1.104775,53714,4220
1691.75,1.181191,45653,3008
1694.62,1.087166,39137,3202
1697.49,1.150756,33776,2387
1701.31,1.164982,28175,1927