File: ML/samples/unknown/Column 1_078239_20241121_165219.csv
Method:,Column 1,,
Host Date-Time:,21/11/24 @ 16:52:19,,
Header Version:,1,,
System Temp (C):,34.07,,
Detector Temp (C):,31.53,,
Humidity (%):,2.64,,
Lamp PD:,3803,,
Shift Vector Coefficients:,-10.5391,0.0761263,-0.000134223,,
Pixel to Wavelength Coefficients:,1775.68,-0.916766,-0.000235065,,
Serial Number:,5510004,,
Scan Config Name:,Column 1,,
Scan Config Type:,Slew,,
Section 1,,
Start wavelength (nm):,900,,
End wavelength (nm):,1700,,
Pattern Pixel Width (nm):,   7.03,,,,
Exposure (ms):,  0.635,,,,
Digital Resolution:,228,,
Num Repeats:,6,,
PGA Gain:,64,,
Total Measurement Time in sec:,  2.725,,
Wavelength (nm),Absorbance (AU),Reference Signal (unitless),Sample Signal (unitless)
901.51,1.307666,108485,5342
905.376,1.325955,121306,5727
909.237,1.329637,131909,6175
913.095,1.326554,143299,6756
916.948,1.330568,156982,7333
922.079,1.318959,179937,8633
925.923,1.345907,200504,9041
929.762,1.329858,222660,10418
933.597,1.323952,244426,11593
937.427,1.318576,263972,12676
941.254,1.326616,281845,13286
945.076,1.317756,297271,14302
950.165,1.315220,315605,15273
953.978,1.313533,328029,15936
957.786,1.302755,340470,16956
961.59,1.309541,352317,17274
965.389,1.310726,363056,17752
969.185,1.314603,373162,18084
972.976,1.322495,382632,18209
976.763,1.297252,391202,19731
981.806,1.310232,400190,19590
985.583,1.306462,406088,20052
989.355,1.309392,410162,20117
993.124,1.305649,412868,20425
996.888,1.306455,414263,20456
1000.65,1.308235,415476,20432
1004.4,1.309793,415479,20359
1009.41,1.310693,414358,20262
1013.15,1.304794,412923,20468
1016.89,1.298364,411526,20703
1020.63,1.315457,409066,19785
1024.36,1.311224,406777,19867
1028.09,1.307682,404427,19914
1031.82,1.307267,401911,19809
1036.78,1.318229,398410,19147
1040.49,1.307128,396204,19534
1044.2,1.310086,394236,19305
1047.91,1.315265,392042,18970
1051.61,1.309470,389823,19116
1055.31,1.301673,388234,19383
1059,1.312979,387599,18854
1063.92,1.299760,386688,19391
1067.61,1.309650,386598,18950
1071.29,1.313099,387377,18838
1074.96,1.314304,388536,18842
1078.63,1.307059,389855,19224
1082.3,1.316736,391215,18866
1085.96,1.320934,393215,18780
1090.84,1.314464,396270,19210
1094.49,1.317772,398760,19184
1098.14,1.319400,400987,19219
1101.79,1.311463,403477,19695
1105.43,1.318727,406116,19495
1109.06,1.306153,407701,20146
1112.7,1.324810,409859,19401
1117.53,1.316368,412494,19909
1121.15,1.325055,414909,19629
1124.77,1.320671,416559,19907
1128.38,1.313399,418532,20339
1131.99,1.316757,419956,20251
1135.6,1.319068,421946,20239
1139.2,1.318509,423881,20358
1143.99,1.318626,426786,20492
1147.58,1.314633,428617,20770
1151.17,1.314917,431169,20880
1154.75,1.316237,433579,20933
1158.33,1.317571,436264,20998
1161.91,1.319199,439132,21057
1165.48,1.321069,442389,21122
1169.04,1.317561,446101,21472
1173.79,1.313972,451929,21933
1177.34,1.318446,456026,21905
1180.9,1.332643,461306,21446
1184.44,1.315224,467657,22631
1187.99,1.317415,473969,22821
1191.52,1.317255,479856,23113
1195.06,1.319165,487372,23372
1199.76,1.322314,497347,23678
1203.29,1.325429,504311,23838
1206.81,1.324911,511507,24207
1210.33,1.322799,519078,24685
1213.84,1.321597,527163,25139
1217.35,1.322518,534208,25421
1220.85,1.323838,540472,25641
1225.51,1.326019,549929,25959
1229.01,1.322096,556888,26526
1232.5,1.325647,562180,26560
1235.98,1.327981,567975,26690
1239.46,1.323859,574815,27269
1242.94,1.324581,582782,27601
1246.41,1.326972,591476,27859
1251.03,1.328557,604016,28346
1254.5,1.324603,612289,28997
1257.96,1.324170,619125,29350
1261.41,1.323119,624551,29679
1264.86,1.329141,629900,29521
1268.31,1.323254,634345,30135
1271.75,1.329424,638574,29908
1276.33,1.328038,642499,30188
1279.76,1.325314,645905,30539
1283.19,1.330266,648307,30305
1286.61,1.327831,650446,30576
1290.03,1.324911,652132,30862
1293.44,1.330306,653907,30564
1296.85,1.334106,655963,30393
1301.39,1.330941,657349,30680
1304.8,1.329383,657558,30800
1308.19,1.335878,658515,30387
1311.58,1.328390,658804,30929
1314.97,1.327699,659011,30988
1318.36,1.333309,658272,30556
1321.73,1.328380,658022,30893
1326.23,1.338133,657870,30200
1329.6,1.333379,656482,30468
1332.97,1.332947,654926,30426
1336.33,1.330286,653727,30557
1339.69,1.332119,652497,30371
1343.04,1.327276,649913,30590
1346.39,1.332096,647671,30148
1349.73,1.332883,645338,29985
1354.18,1.329262,641175,30041
1357.52,1.334049,638376,29582
1360.85,1.328205,635805,29862
1364.17,1.322299,633413,30157
1367.49,1.332972,631026,29314
1370.81,1.329352,628050,29420
1374.12,1.327482,625034,29405
1378.54,1.327125,620272,29205
1381.84,1.330169,616892,28843
1385.14,1.329967,613613,28703
1388.43,1.327098,611526,28795
1391.72,1.328768,610663,28644
1395.01,1.327113,610634,28752
1398.29,1.325400,611700,28916
1402.66,1.335422,614051,28365
1405.93,1.330392,616268,28799
1409.2,1.334023,617795,28630
1412.46,1.333870,618872,28690
1415.72,1.333580,619795,28752
1418.98,1.328159,620495,29146
1422.23,1.333881,621087,28792
1426.56,1.334444,621375,28768
1429.8,1.335413,621616,28715
1433.04,1.335197,622129,28753
1436.27,1.333811,621526,28817
1439.5,1.337793,621113,28535
1442.72,1.335700,620921,28664
1445.94,1.332330,620270,28857
1450.23,1.337373,618860,28459
1453.44,1.334698,617697,28581
1456.64,1.335837,616264,28440
1459.85,1.333204,614413,28527
1463.04,1.330770,612307,28589
1466.24,1.333290,610032,28318
1469.43,1.340141,607345,27752
1473.67,1.333324,603789,28026
1476.85,1.335519,601175,27764
1480.02,1.338015,597737,27447
1483.19,1.338770,594479,27250
1486.36,1.333595,591232,27426
1489.52,1.339016,587853,26931
1492.68,1.339890,583875,26695
1496.89,1.332367,578062,26891
1500.03,1.340101,574159,26238
1503.18,1.343329,570285,25868
1506.32,1.339442,565444,25879
1509.45,1.332406,560571,26075
1512.58,1.338122,555821,25516
1515.71,1.345640,550344,24831
1519.87,1.340941,543983,24811
1522.99,1.342605,538764,24479
1526.1,1.342203,533692,24271
1529.21,1.326720,527902,24879
1532.32,1.343928,521886,23640
1535.42,1.341432,515888,23503
1538.51,1.335384,509987,23560
1541.6,1.335150,503936,23293
1545.72,1.328643,494694,23211
1548.8,1.333458,488378,22662
1551.88,1.336680,481832,22193
1554.95,1.332625,474989,22083
1558.02,1.328010,467818,21982
1561.08,1.339411,460730,21088
1564.15,1.335206,454170,20990
1568.22,1.334833,444181,20546
1571.27,1.341161,436947,19919
1574.32,1.329456,429598,20119
1577.36,1.344865,422039,19076
1580.4,1.331521,414375,19314
1583.43,1.338109,406354,18655
1586.46,1.325459,398475,18834
1590.49,1.328690,388982,18249
1593.51,1.339170,380708,17435
1596.53,1.341811,372727,16966
1599.54,1.324619,365060,17288
1602.55,1.332906,357543,16612
1605.55,1.328677,349495,16397
1608.55,1.328342,341154,16018
1612.54,1.330682,330877,15452
1615.53,1.338812,322904,14800
1618.51,1.319609,315116,15096
1621.49,1.319095,307217,14735
1624.47,1.327366,299481,14093
1627.44,1.322503,292112,13901
1630.41,1.319930,284245,13607
1634.36,1.315299,274079,13261
1637.32,1.313066,266916,12981
1640.27,1.315093,259612,12567
1643.22,1.300589,251804,12603
1646.16,1.317971,244348,11750
1649.1,1.319782,236703,11335
1652.04,1.307224,228171,11247
1655.95,1.294960,215408,10922
1658.88,1.289563,204937,10521
1661.8,1.304129,193395,9601
1664.72,1.288005,179728,9260
1667.63,1.277985,163642,8628
1670.54,1.268368,146312,7887
1673.44,1.255953,128451,7125
1677.31,1.238832,105080,6063
1680.21,1.216216,88906,5404
1683.1,1.190766,75033,4836
1685.99,1.175237,63520,4243
1688.87,1.179004,53714,3557
1691.75,1.215268,45653,2781
1694.62,1.208234,39137,2423
1697.49,1.202682,33776,2118
1701.31,1.178487,28175,1868