File: ML/samples/unknown/Column 1_078716_20241121_171844.csv
Method:,Column 1,,
Host Date-Time:,21/11/24 @ 17:18:44,,
Header Version:,1,,
System Temp (C):,35.66,,
Detector Temp (C):,34.42,,
Humidity (%):,1.56,,
Lamp PD:,3800,,
Shift Vector Coefficients:,-10.5391,0.0761263,-0.000134223,,
Pixel to Wavelength Coefficients:,1775.68,-0.916766,-0.000235065,,
Serial Number:,5510004,,
Scan Config Name:,Column 1,,
Scan Config Type:,Slew,,
Section 1,,
Start wavelength (nm):,900,,
End wavelength (nm):,1700,,
Pattern Pixel Width (nm):,   7.03,,,,
Exposure (ms):,  0.635,,,,
Digital Resolution:,228,,
Num Repeats:,6,,
PGA Gain:,64,,
Total Measurement Time in sec:,  2.726,,
Wavelength (nm),Absorbance (AU),Reference Signal (unitless),Sample Signal (unitless)
901.51,1.313559,108485,5270
905.376,1.310242,121306,5938
909.237,1.325020,131909,6241
913.095,1.344869,143299,6477
916.948,1.326266,156982,7406
922.079,1.317803,179937,8656
925.923,1.331172,200504,9353
929.762,1.334131,222660,10316
933.597,1.326620,244426,11522
937.427,1.314280,263972,12802
941.254,1.315419,281845,13633
945.076,1.305599,297271,14708
950.165,1.321954,315605,15038
953.978,1.312009,328029,15992
957.786,1.314648,340470,16498
961.59,1.310170,352317,17249
965.389,1.309163,363056,17816
969.185,1.306655,373162,18418
972.976,1.303685,382632,19015
976.763,1.322725,391202,18607
981.806,1.308329,400190,19676
985.583,1.306701,406088,20041
989.355,1.311318,410162,20028
993.124,1.300891,412868,20650
996.888,1.305183,414263,20516
1000.65,1.314292,415476,20149
1004.4,1.309217,415479,20386
1009.41,1.306980,414358,20436
1013.15,1.303374,412923,20535
1016.89,1.304469,411526,20414
1020.63,1.314777,409066,19816
1024.36,1.316591,406777,19623
1028.09,1.308970,404427,19855
1031.82,1.312606,401911,19567
1036.78,1.308495,398410,19581
1040.49,1.305729,396204,19597
1044.2,1.312071,394236,19217
1047.91,1.318598,392042,18825
1051.61,1.304748,389823,19325
1055.31,1.312195,388234,18919
1059,1.306986,387599,19116
1063.92,1.302637,386688,19263
1067.61,1.310476,386598,18914
1071.29,1.306578,387377,19123
1074.96,1.316917,388536,18729
1078.63,1.314166,389855,18912
1082.3,1.311496,391215,19095
1085.96,1.318720,393215,18876
1090.84,1.316140,396270,19136
1094.49,1.319655,398760,19101
1098.14,1.311695,400987,19563
1101.79,1.311308,403477,19702
1105.43,1.306103,406116,20070
1109.06,1.317510,407701,19626
1112.7,1.314677,409859,19859
1117.53,1.319016,412494,19788
1121.15,1.322012,414909,19767
1124.77,1.310046,416559,20400
1128.38,1.316227,418532,20207
1131.99,1.311619,419956,20492
1135.6,1.314479,421946,20454
1139.2,1.310812,423881,20722
1143.99,1.314093,426786,20707
1147.58,1.324424,428617,20307
1151.17,1.311994,431169,21021
1154.75,1.313734,433579,21054
1158.33,1.321540,436264,20807
1161.91,1.309854,439132,21515
1165.48,1.326344,442389,20867
1169.04,1.315342,446101,21582
1173.79,1.313458,451929,21959
1177.34,1.314755,456026,22092
1180.9,1.313353,461306,22420
1184.44,1.313404,467657,22726
1187.99,1.322334,473969,22564
1191.52,1.319459,479856,22996
1195.06,1.319462,487372,23356
1199.76,1.316883,497347,23976
1203.29,1.315718,504311,24377
1206.81,1.323031,511507,24312
1210.33,1.323292,519078,24657
1213.84,1.315882,527163,25472
1217.35,1.324195,534208,25323
1220.85,1.321170,540472,25799
1225.51,1.316308,549929,26546
1229.01,1.323506,556888,26440
1232.5,1.318560,562180,26997
1235.98,1.321456,567975,27094
1239.46,1.320717,574815,27467
1242.94,1.315889,582782,28159
1246.41,1.323540,591476,28080
1251.03,1.327715,604016,28401
1254.5,1.323631,612289,29062
1257.96,1.320824,619125,29577
1261.41,1.326394,624551,29456
1264.86,1.323484,629900,29908
1268.31,1.321959,634345,30225
1271.75,1.323926,638574,30289
1276.33,1.323872,642499,30479
1279.76,1.327438,645905,30390
1283.19,1.323865,648307,30755
1286.61,1.316946,650446,31352
1290.03,1.332062,652132,30358
1293.44,1.324084,653907,31005
1296.85,1.327906,655963,30830
1301.39,1.328105,657349,30881
1304.8,1.326797,657558,30984
1308.19,1.327681,658515,30966
1311.58,1.324282,658804,31223
1314.97,1.325616,659011,31137
1318.36,1.330899,658272,30726
1321.73,1.323947,658022,31210
1326.23,1.328322,657870,30890
1329.6,1.329858,656482,30716
1332.97,1.334105,654926,30345
1336.33,1.333896,653727,30304
1339.69,1.328644,652497,30615
1343.04,1.328612,649913,30496
1346.39,1.323636,647671,30741
1349.73,1.329105,645338,30247
1354.18,1.325247,641175,30320
1357.52,1.323419,638376,30315
1360.85,1.330758,635805,29687
1364.17,1.326423,633413,29872
1367.49,1.326516,631026,29753
1370.81,1.330016,628050,29375
1374.12,1.324187,625034,29629
1378.54,1.323364,620272,29459
1381.84,1.326331,616892,29099
1385.14,1.325961,613613,28969
1388.43,1.325277,611526,28916
1391.72,1.329998,610663,28563
1395.01,1.322695,610634,29046
1398.29,1.334338,611700,28327
1402.66,1.325372,614051,29029
1405.93,1.329624,616268,28850
1409.2,1.329301,617795,28943
1412.46,1.331621,618872,28839
1415.72,1.326122,619795,29250
1418.98,1.325485,620495,29326
1422.23,1.327116,621087,29244
1426.56,1.332651,621375,28887
1429.8,1.332564,621616,28904
1433.04,1.329480,622129,29134
1436.27,1.335169,621526,28727
1439.5,1.333296,621113,28832
1442.72,1.326970,620921,29246
1445.94,1.329764,620270,29028
1450.23,1.333801,618860,28694
1453.44,1.339388,617697,28274
1456.64,1.328508,616264,28924
1459.85,1.331366,614413,28648
1463.04,1.325726,612307,28923
1466.24,1.337064,610032,28073
1469.43,1.336991,607345,27954
1473.67,1.334814,603789,27930
1476.85,1.334535,601175,27827
1480.02,1.338110,597737,27441
1483.19,1.333731,594479,27568
1486.36,1.338484,591232,27119
1489.52,1.335867,587853,27127
1492.68,1.335294,583875,26979
1496.89,1.333111,578062,26845
1500.03,1.332814,574159,26682
1503.18,1.339501,570285,26097
1506.32,1.335383,565444,26122
1509.45,1.334058,560571,25976
1512.58,1.337187,555821,25571
1515.71,1.333515,550344,25534
1519.87,1.328007,543983,25561
1522.99,1.334816,538764,24922
1526.1,1.336250,533692,24606
1529.21,1.337287,527902,24281
1532.32,1.336858,521886,24028
1535.42,1.334940,515888,23857
1538.51,1.339756,509987,23324
1541.6,1.336700,503936,23210
1545.72,1.330856,494694,23093
1548.8,1.330060,488378,22840
1551.88,1.332493,481832,22408
1554.95,1.336994,474989,21862
1558.02,1.334759,467818,21643
1561.08,1.334272,460730,21339
1564.15,1.332710,454170,21111
1568.22,1.340749,444181,20268
1571.27,1.337038,436947,20109
1574.32,1.327904,429598,20191
1577.36,1.327526,422039,19853
1580.4,1.324872,414375,19612
1583.43,1.328554,406354,19070
1586.46,1.322631,398475,18957
1590.49,1.331244,388982,18142
1593.51,1.331810,380708,17733
1596.53,1.327188,372727,17547
1599.54,1.327341,365060,17180
1602.55,1.327554,357543,16818
1605.55,1.326326,349495,16486
1608.55,1.320443,341154,16312
1612.54,1.323767,330877,15700
1615.53,1.329953,322904,15105
1618.51,1.324585,315116,14924
1621.49,1.330654,307217,14348
1624.47,1.313685,299481,14544
1627.44,1.328449,292112,13712
1630.41,1.324100,284245,13477
1634.36,1.317697,274079,13188
1637.32,1.316459,266916,12880
1640.27,1.310932,259612,12688
1643.22,1.303181,251804,12528
1646.16,1.308791,244348,12001
1649.1,1.314338,236703,11478
1652.04,1.309819,228171,11180
1655.95,1.301571,215408,10757
1658.88,1.289770,204937,10516
1661.8,1.294024,193395,9827
1664.72,1.265834,179728,9745
1667.63,1.259363,163642,9006
1670.54,1.239710,146312,8425
1673.44,1.253703,128451,7162
1677.31,1.239980,105080,6047
1680.21,1.224491,88906,5302
1683.1,1.152043,75033,5287
1685.99,1.136673,63520,4637
1688.87,1.160129,53714,3715
1691.75,1.148522,45653,3243
1694.62,1.185197,39137,2555
1697.49,1.251458,33776,1893
1701.31,1.257296,28175,1558