File: ML/samples/unknown/Column 1_078947_20241121_172952.csv
Method:,Column 1,,
Host Date-Time:,21/11/24 @ 17:29:52,,
Header Version:,1,,
System Temp (C):,37.67,,
Detector Temp (C):,36.59,,
Humidity (%):,0.54,,
Lamp PD:,3795,,
Shift Vector Coefficients:,-10.5391,0.0761263,-0.000134223,,
Pixel to Wavelength Coefficients:,1775.68,-0.916766,-0.000235065,,
Serial Number:,5510004,,
Scan Config Name:,Column 1,,
Scan Config Type:,Slew,,
Section 1,,
Start wavelength (nm):,900,,
End wavelength (nm):,1700,,
Pattern Pixel Width (nm):,   7.03,,,,
Exposure (ms):,  0.635,,,,
Digital Resolution:,228,,
Num Repeats:,6,,
PGA Gain:,64,,
Total Measurement Time in sec:,  2.714,,
Wavelength (nm),Absorbance (AU),Reference Signal (unitless),Sample Signal (unitless)
901.51,1.312571,108485,5282
905.376,1.336082,121306,5595
909.237,1.320865,131909,6301
913.095,1.337621,143299,6586
916.948,1.331636,156982,7315
922.079,1.303637,179937,8943
925.923,1.339233,200504,9181
929.762,1.322951,222660,10585
933.597,1.300331,244426,12241
937.427,1.323884,263972,12522
941.254,1.332010,281845,13122
945.076,1.320834,297271,14201
950.165,1.310975,315605,15423
953.978,1.315417,328029,15867
957.786,1.312835,340470,16567
961.59,1.308887,352317,17300
965.389,1.303448,363056,18052
969.185,1.309446,373162,18300
972.976,1.307401,382632,18853
976.763,1.305406,391202,19364
981.806,1.310298,400190,19587
985.583,1.307677,406088,19996
989.355,1.303091,410162,20411
993.124,1.305224,412868,20445
996.888,1.311645,414263,20213
1000.65,1.310708,415476,20316
1004.4,1.304513,415479,20608
1009.41,1.309431,414358,20321
1013.15,1.313062,412923,20082
1016.89,1.311050,411526,20107
1020.63,1.304554,409066,20288
1024.36,1.306982,406777,20062
1028.09,1.303990,404427,20084
1031.82,1.302384,401911,20033
1036.78,1.308052,398410,19601
1040.49,1.307417,396204,19521
1044.2,1.301268,394236,19701
1047.91,1.301032,392042,19602
1051.61,1.314658,389823,18889
1055.31,1.312586,388234,18902
1059,1.306055,387599,19157
1063.92,1.304807,386688,19167
1067.61,1.304955,386598,19156
1071.29,1.304177,387377,19229
1074.96,1.313521,388536,18876
1078.63,1.312241,389855,18996
1082.3,1.307399,391215,19276
1085.96,1.310335,393215,19244
1090.84,1.307267,396270,19531
1094.49,1.317908,398760,19178
1098.14,1.312650,400987,19520
1101.79,1.317928,403477,19404
1105.43,1.312270,406116,19787
1109.06,1.301308,407701,20372
1112.7,1.317639,409859,19724
1117.53,1.317417,412494,19861
1121.15,1.312537,414909,20203
1124.77,1.320998,416559,19892
1128.38,1.316635,418532,20188
1131.99,1.317229,419956,20229
1135.6,1.314882,421946,20435
1139.2,1.317252,423881,20417
1143.99,1.318139,426786,20515
1147.58,1.323420,428617,20354
1151.17,1.320211,431169,20627
1154.75,1.310528,433579,21210
1158.33,1.314891,436264,21128
1161.91,1.316239,439132,21201
1165.48,1.314640,442389,21437
1169.04,1.316773,446101,21511
1173.79,1.318811,451929,21690
1177.34,1.312480,456026,22208
1180.9,1.316698,461306,22248
1184.44,1.316916,467657,22543
1187.99,1.317777,473969,22802
1191.52,1.316297,479856,23164
1195.06,1.323591,487372,23135
1199.76,1.322792,497347,23652
1203.29,1.315415,504311,24394
1206.81,1.315382,511507,24744
1210.33,1.319889,519078,24851
1213.84,1.319013,527163,25289
1217.35,1.320387,534208,25546
1220.85,1.321692,540472,25768
1225.51,1.318752,549929,26397
1229.01,1.323326,556888,26451
1232.5,1.319671,562180,26928
1235.98,1.321921,567975,27065
1239.46,1.321176,574815,27438
1242.94,1.323042,582782,27699
1246.41,1.322922,591476,28120
1251.03,1.319385,604016,28951
1254.5,1.321648,612289,29195
1257.96,1.322089,619125,29491
1261.41,1.323763,624551,29635
1264.86,1.321846,629900,30021
1268.31,1.322721,634345,30172
1271.75,1.323453,638574,30322
1276.33,1.327233,642499,30244
1279.76,1.320491,645905,30880
1283.19,1.326571,648307,30564
1286.61,1.326795,650446,30649
1290.03,1.327650,652132,30668
1293.44,1.325473,653907,30906
1296.85,1.326513,655963,30929
1301.39,1.330643,657349,30701
1304.8,1.327512,657558,30933
1308.19,1.328748,658515,30890
1311.58,1.329388,658804,30858
1314.97,1.327405,659011,31009
1318.36,1.329869,658272,30799
1321.73,1.331088,658022,30701
1326.23,1.327816,657870,30926
1329.6,1.331871,656482,30574
1332.97,1.334463,654926,30320
1336.33,1.328584,653727,30677
1339.69,1.326042,652497,30799
1343.04,1.328712,649913,30489
1346.39,1.335930,647671,29883
1349.73,1.335280,645338,29820
1354.18,1.324804,641175,30351
1357.52,1.331385,638376,29764
1360.85,1.328816,635805,29820
1364.17,1.328375,633413,29738
1367.49,1.329372,631026,29558
1370.81,1.322715,628050,29873
1374.12,1.329674,625034,29257
1378.54,1.323866,620272,29425
1381.84,1.322705,616892,29343
1385.14,1.320790,613613,29316
1388.43,1.324406,611526,28974
1391.72,1.324288,610663,28941
1395.01,1.325485,610634,28860
1398.29,1.325686,611700,28897
1402.66,1.325612,614051,29013
1405.93,1.330543,616268,28789
1409.2,1.330067,617795,28892
1412.46,1.329398,618872,28987
1415.72,1.323163,619795,29450
1418.98,1.330670,620495,28978
1422.23,1.332179,621087,28905
1426.56,1.328849,621375,29141
1429.8,1.328988,621616,29143
1433.04,1.331602,622129,28992
1436.27,1.333660,621526,28827
1439.5,1.329830,621113,29063
1442.72,1.326287,620921,29292
1445.94,1.329659,620270,29035
1450.23,1.337541,618860,28448
1453.44,1.335489,617697,28529
1456.64,1.329320,616264,28870
1459.85,1.329883,614413,28746
1463.04,1.327924,612307,28777
1466.24,1.332325,610032,28381
1469.43,1.335797,607345,28031
1473.67,1.335468,603789,27888
1476.85,1.333117,601175,27918
1480.02,1.337051,597737,27508
1483.19,1.329936,594479,27810
1486.36,1.332125,591232,27519
1489.52,1.333695,587853,27263
1492.68,1.333960,583875,27062
1496.89,1.330257,578062,27022
1500.03,1.333938,574159,26613
1503.18,1.331145,570285,26604
1506.32,1.327051,565444,26628
1509.45,1.338630,560571,25704
1512.58,1.342742,555821,25246
1515.71,1.333941,550344,25509
1519.87,1.333083,543983,25264
1522.99,1.337946,538764,24743
1526.1,1.334875,533692,24684
1529.21,1.332502,527902,24550
1532.32,1.329741,521886,24425
1535.42,1.337679,515888,23707
1538.51,1.327583,509987,23987
1541.6,1.331474,503936,23491
1545.72,1.324935,494694,23410
1548.8,1.327009,488378,23001
1551.88,1.336817,481832,22186
1554.95,1.329627,474989,22236
1558.02,1.334940,467818,21634
1561.08,1.330181,460730,21541
1564.15,1.330309,454170,21228
1568.22,1.325051,444181,21014
1571.27,1.330905,436947,20395
1574.32,1.326273,429598,20267
1577.36,1.334295,422039,19546
1580.4,1.327314,414375,19502
1583.43,1.334816,406354,18797
1586.46,1.325389,398475,18837
1590.49,1.327692,388982,18291
1593.51,1.325609,380708,17988
1596.53,1.320240,372727,17830
1599.54,1.319227,365060,17504
1602.55,1.310961,357543,17473
1605.55,1.326405,349495,16483
1608.55,1.316283,341154,16469
1612.54,1.319720,330877,15847
1615.53,1.324268,322904,15304
1618.51,1.317514,315116,15169
1621.49,1.326557,307217,14484
1624.47,1.323500,299481,14219
1627.44,1.312192,292112,14235
1630.41,1.314475,284245,13779
1634.36,1.314449,274079,13287
1637.32,1.312298,266916,13004
1640.27,1.299680,259612,13021
1643.22,1.306661,251804,12428
1646.16,1.305942,244348,12080
1649.1,1.317147,236703,11404
1652.04,1.291413,228171,11664
1655.95,1.302500,215408,10734
1658.88,1.290721,204937,10493
1661.8,1.279082,193395,10171
1664.72,1.285060,179728,9323
1667.63,1.246768,163642,9271
1670.54,1.213845,146312,8942
1673.44,1.201004,128451,8086
1677.31,1.165154,105080,7184
1680.21,1.152704,88906,6255
1683.1,1.152207,75033,5285
1685.99,1.149312,63520,4504
1688.87,1.092898,53714,4337
1691.75,1.155679,45653,3190
1694.62,1.169178,39137,2651
1697.49,1.137320,33776,2462
1701.31,1.083628,28175,2324