File: ML/samples/unknown/Column 1_078983_20241121_173136.csv
Method:,Column 1,,
Host Date-Time:,21/11/24 @ 17:31:36,,
Header Version:,1,,
System Temp (C):,37.55,,
Detector Temp (C):,36.91,,
Humidity (%):,0.64,,
Lamp PD:,3796,,
Shift Vector Coefficients:,-10.5391,0.0761263,-0.000134223,,
Pixel to Wavelength Coefficients:,1775.68,-0.916766,-0.000235065,,
Serial Number:,5510004,,
Scan Config Name:,Column 1,,
Scan Config Type:,Slew,,
Section 1,,
Start wavelength (nm):,900,,
End wavelength (nm):,1700,,
Pattern Pixel Width (nm):,   7.03,,,,
Exposure (ms):,  0.635,,,,
Digital Resolution:,228,,
Num Repeats:,6,,
PGA Gain:,64,,
Total Measurement Time in sec:,  2.727,,
Wavelength (nm),Absorbance (AU),Reference Signal (unitless),Sample Signal (unitless)
901.51,1.330705,108485,5066
905.376,1.299336,121306,6089
909.237,1.323007,131909,6270
913.095,1.325783,143299,6768
916.948,1.335452,156982,7251
922.079,1.328624,179937,8443
925.923,1.319626,200504,9605
929.762,1.335438,222660,10285
933.597,1.329797,244426,11438
937.427,1.325274,263972,12482
941.254,1.306309,281845,13922
945.076,1.313766,297271,14434
950.165,1.302940,315605,15711
953.978,1.298902,328029,16482
957.786,1.300023,340470,17063
961.59,1.321418,352317,16808
965.389,1.300762,363056,18164
969.185,1.314027,373162,18108
972.976,1.312079,382632,18651
976.763,1.302924,391202,19475
981.806,1.294685,400190,20304
985.583,1.305079,406088,20116
989.355,1.313296,410162,19937
993.124,1.315433,412868,19970
996.888,1.307987,414263,20384
1000.65,1.301005,415476,20775
1004.4,1.309153,415479,20389
1009.41,1.302056,414358,20669
1013.15,1.308009,412923,20317
1016.89,1.308960,411526,20204
1020.63,1.302824,409066,20369
1024.36,1.305297,406777,20140
1028.09,1.306810,404427,19954
1031.82,1.302905,401911,20009
1036.78,1.309873,398410,19519
1040.49,1.312092,396204,19312
1044.2,1.300651,394236,19729
1047.91,1.306831,392042,19342
1051.61,1.304815,389823,19322
1055.31,1.311324,388234,18957
1059,1.302128,387599,19331
1063.92,1.304127,386688,19197
1067.61,1.317163,386598,18625
1071.29,1.308627,387377,19033
1074.96,1.316152,388536,18762
1078.63,1.313913,389855,18923
1082.3,1.317796,391215,18820
1085.96,1.321953,393215,18736
1090.84,1.320726,396270,18935
1094.49,1.308323,398760,19606
1098.14,1.309171,400987,19677
1101.79,1.310428,403477,19742
1105.43,1.317548,406116,19548
1109.06,1.310638,407701,19939
1112.7,1.324184,409859,19429
1117.53,1.306597,412494,20362
1121.15,1.314757,414909,20100
1124.77,1.322639,416559,19817
1128.38,1.318209,418532,20115
1131.99,1.317122,419956,20234
1135.6,1.319218,421946,20232
1139.2,1.325736,423881,20022
1143.99,1.313946,426786,20714
1147.58,1.311965,428617,20898
1151.17,1.317065,431169,20777
1154.75,1.313259,433579,21077
1158.33,1.312452,436264,21247
1161.91,1.313726,439132,21324
1165.48,1.318405,442389,21252
1169.04,1.319324,446101,21385
1173.79,1.309030,451929,22184
1177.34,1.312324,456026,22216
1180.9,1.312986,461306,22439
1184.44,1.320029,467657,22382
1187.99,1.312759,473969,23067
1191.52,1.319629,479856,22987
1195.06,1.322298,487372,23204
1199.76,1.324908,497347,23537
1203.29,1.318399,504311,24227
1206.81,1.322638,511507,24334
1210.33,1.323980,519078,24618
1213.84,1.315950,527163,25468
1217.35,1.322877,534208,25400
1220.85,1.317934,540472,25992
1225.51,1.316930,549929,26508
1229.01,1.322325,556888,26512
1232.5,1.319816,562180,26919
1235.98,1.317324,567975,27353
1239.46,1.315874,574815,27775
1242.94,1.322368,582782,27742
1246.41,1.315571,591476,28600
1251.03,1.319475,604016,28945
1254.5,1.320608,612289,29265
1257.96,1.325816,619125,29239
1261.41,1.328315,624551,29326
1264.86,1.327833,629900,29610
1268.31,1.324785,634345,30029
1271.75,1.324070,638574,30279
1276.33,1.323388,642499,30513
1279.76,1.320716,645905,30864
1283.19,1.326542,648307,30566
1286.61,1.325239,650446,30759
1290.03,1.326505,652132,30749
1293.44,1.322211,653907,31139
1296.85,1.326598,655963,30923
1301.39,1.322557,657349,31278
1304.8,1.331589,657558,30644
1308.19,1.326169,658515,31074
1311.58,1.328264,658804,30938
1314.97,1.324710,659011,31202
1318.36,1.329883,658272,30798
1321.73,1.331484,658022,30673
1326.23,1.326302,657870,31034
1329.6,1.333051,656482,30491
1332.97,1.331394,654926,30535
1336.33,1.322901,653727,31081
1339.69,1.332434,652497,30349
1343.04,1.324925,649913,30756
1346.39,1.324995,647671,30645
1349.73,1.324478,645338,30571
1354.18,1.328742,641175,30077
1357.52,1.324279,638376,30255
1360.85,1.322857,635805,30232
1364.17,1.325363,633413,29945
1367.49,1.327057,631026,29716
1370.81,1.330490,628050,29343
1374.12,1.324994,625034,29574
1378.54,1.323940,620272,29420
1381.84,1.324960,616892,29191
1385.14,1.326681,613613,28921
1388.43,1.323703,611526,29021
1391.72,1.328874,610663,28637
1395.01,1.314680,610634,29587
1398.29,1.332869,611700,28423
1402.66,1.327262,614051,28903
1405.93,1.324982,616268,29160
1409.2,1.324822,617795,29243
1412.46,1.327484,618872,29115
1415.72,1.331155,619795,28913
1418.98,1.335356,620495,28667
1422.23,1.329857,621087,29060
1426.56,1.327376,621375,29240
1429.8,1.325973,621616,29346
1433.04,1.329764,622129,29115
1436.27,1.334399,621526,28778
1439.5,1.336334,621113,28631
1442.72,1.326554,620921,29274
1445.94,1.326975,620270,29215
1450.23,1.326835,618860,29158
1453.44,1.331790,617697,28773
1456.64,1.327773,616264,28973
1459.85,1.336076,614413,28339
1463.04,1.325216,612307,28957
1466.24,1.334611,610032,28232
1469.43,1.328210,607345,28525
1473.67,1.333650,603789,28005
1476.85,1.329368,601175,28160
1480.02,1.329771,597737,27973
1483.19,1.332379,594479,27654
1486.36,1.336439,591232,27247
1489.52,1.329589,587853,27522
1492.68,1.335342,583875,26976
1496.89,1.334667,578062,26749
1500.03,1.341560,574159,26150
1503.18,1.332846,570285,26500
1506.32,1.329636,565444,26470
1509.45,1.336002,560571,25860
1512.58,1.333399,555821,25795
1515.71,1.332479,550344,25595
1519.87,1.330068,543983,25440
1522.99,1.327901,538764,25322
1526.1,1.335051,533692,24674
1529.21,1.334203,527902,24454
1532.32,1.334191,521886,24176
1535.42,1.336015,515888,23798
1538.51,1.328635,509987,23929
1541.6,1.326529,503936,23760
1545.72,1.332439,494694,23009
1548.8,1.333496,488378,22660
1551.88,1.337228,481832,22165
1554.95,1.330487,474989,22192
1558.02,1.334880,467818,21637
1561.08,1.327187,460730,21690
1564.15,1.338154,454170,20848
1568.22,1.328287,444181,20858
1571.27,1.328209,436947,20522
1574.32,1.323752,429598,20385
1577.36,1.333340,422039,19589
1580.4,1.327248,414375,19505
1583.43,1.335718,406354,18758
1586.46,1.330841,398475,18602
1590.49,1.326341,388982,18348
1593.51,1.326866,380708,17936
1596.53,1.323418,372727,17700
1599.54,1.326432,365060,17216
1602.55,1.321375,357543,17059
1605.55,1.318416,349495,16789
1608.55,1.328641,341154,16007
1612.54,1.327573,330877,15563
1615.53,1.321355,322904,15407
1618.51,1.322698,315116,14989
1621.49,1.322617,307217,14616
1624.47,1.317525,299481,14416
1627.44,1.311674,292112,14252
1630.41,1.318433,284245,13654
1634.36,1.302203,274079,13667
1637.32,1.303177,266916,13280
1640.27,1.325409,259612,12272
1643.22,1.306626,251804,12429
1646.16,1.286846,244348,12623
1649.1,1.309297,236703,11612
1652.04,1.307997,228171,11227
1655.95,1.297112,215408,10868
1658.88,1.278840,204937,10784
1661.8,1.277717,193395,10203
1664.72,1.278725,179728,9460
1667.63,1.233210,163642,9565
1670.54,1.232451,146312,8567
1673.44,1.206408,128451,7986
1677.31,1.161662,105080,7242
1680.21,1.152634,88906,6256
1683.1,1.152618,75033,5280
1685.99,1.129337,63520,4716
1688.87,1.120920,53714,4066
1691.75,1.094094,45653,3676
1694.62,1.092763,39137,3161
1697.49,1.083004,33776,2790
1701.31,1.123528,28175,2120