File: ML/samples/unknown/Column 1_078211_20241121_165055.csv
Method:,Column 1,,
Host Date-Time:,21/11/24 @ 16:50:55,,
Header Version:,1,,
System Temp (C):,34.02,,
Detector Temp (C):,30.88,,
Humidity (%):,2.94,,
Lamp PD:,3803,,
Shift Vector Coefficients:,-10.5391,0.0761263,-0.000134223,,
Pixel to Wavelength Coefficients:,1775.68,-0.916766,-0.000235065,,
Serial Number:,5510004,,
Scan Config Name:,Column 1,,
Scan Config Type:,Slew,,
Section 1,,
Start wavelength (nm):,900,,
End wavelength (nm):,1700,,
Pattern Pixel Width (nm):,   7.03,,,,
Exposure (ms):,  0.635,,,,
Digital Resolution:,228,,
Num Repeats:,6,,
PGA Gain:,64,,
Total Measurement Time in sec:,  2.727,,
Wavelength (nm),Absorbance (AU),Reference Signal (unitless),Sample Signal (unitless)
901.51,1.324069,108485,5144
905.376,1.311928,121306,5915
909.237,1.313959,131909,6402
913.095,1.311518,143299,6994
916.948,1.308908,156982,7708
922.079,1.311379,179937,8785
925.923,1.331823,200504,9339
929.762,1.315386,222660,10771
933.597,1.327148,244426,11508
937.427,1.319776,263972,12641
941.254,1.312435,281845,13727
945.076,1.307582,297271,14641
950.165,1.311341,315605,15410
953.978,1.308655,328029,16116
957.786,1.320398,340470,16281
961.59,1.311936,352317,17179
965.389,1.308238,363056,17854
969.185,1.310516,373162,18255
972.976,1.308970,382632,18785
976.763,1.308015,391202,19248
981.806,1.316237,400190,19321
985.583,1.309680,406088,19904
989.355,1.307432,410162,20208
993.124,1.306650,412868,20378
996.888,1.312872,414263,20156
1000.65,1.309470,415476,20374
1004.4,1.308238,415479,20432
1009.41,1.307277,414358,20422
1013.15,1.304285,412923,20492
1016.89,1.311309,411526,20095
1020.63,1.317019,409066,19714
1024.36,1.307719,406777,20028
1028.09,1.308096,404427,19895
1031.82,1.306151,401911,19860
1036.78,1.308274,398410,19591
1040.49,1.320355,396204,18948
1044.2,1.309524,394236,19330
1047.91,1.312914,392042,19073
1051.61,1.312000,389823,19005
1055.31,1.317577,388234,18686
1059,1.304968,387599,19205
1063.92,1.299067,386688,19422
1067.61,1.313749,386598,18772
1071.29,1.313284,387377,18830
1074.96,1.313383,388536,18882
1078.63,1.305188,389855,19307
1082.3,1.317173,391215,18847
1085.96,1.305621,393215,19454
1090.84,1.315482,396270,19165
1094.49,1.321501,398760,19020
1098.14,1.322324,400987,19090
1101.79,1.320667,403477,19282
1105.43,1.314471,406116,19687
1109.06,1.313501,407701,19808
1112.7,1.319449,409859,19642
1117.53,1.322143,412494,19646
1121.15,1.316489,414909,20020
1124.77,1.316178,416559,20114
1128.38,1.314661,418532,20280
1131.99,1.326013,419956,19824
1135.6,1.330460,421946,19715
1139.2,1.316423,423881,20456
1143.99,1.324450,426786,20219
1147.58,1.330757,428617,20013
1151.17,1.318027,431169,20731
1154.75,1.317192,433579,20887
1158.33,1.324157,436264,20682
1161.91,1.313889,439132,21316
1165.48,1.320514,442389,21149
1169.04,1.315784,446101,21560
1173.79,1.311071,451929,22080
1177.34,1.314440,456026,22108
1180.9,1.315704,461306,22299
1184.44,1.326381,467657,22057
1187.99,1.319437,473969,22715
1191.52,1.321086,479856,22910
1195.06,1.328139,487372,22894
1199.76,1.325259,497347,23518
1203.29,1.322777,504311,23984
1206.81,1.317352,511507,24632
1210.33,1.332172,519078,24158
1213.84,1.324005,527163,25000
1217.35,1.317693,534208,25705
1220.85,1.326881,540472,25462
1225.51,1.319658,549929,26342
1229.01,1.322998,556888,26471
1232.5,1.317660,562180,27053
1235.98,1.323690,567975,26955
1239.46,1.330002,574815,26886
1242.94,1.325195,582782,27562
1246.41,1.323865,591476,28059
1251.03,1.320587,604016,28871
1254.5,1.327112,612289,28830
1257.96,1.325237,619125,29278
1261.41,1.325540,624551,29514
1264.86,1.329965,629900,29465
1268.31,1.327876,634345,29816
1271.75,1.334404,638574,29567
1276.33,1.326186,642499,30317
1279.76,1.330896,645905,30149
1283.19,1.329422,648307,30364
1286.61,1.325946,650446,30709
1290.03,1.332077,652132,30357
1293.44,1.333944,653907,30309
1296.85,1.329600,655963,30710
1301.39,1.334951,657349,30398
1304.8,1.326026,657558,31039
1308.19,1.331144,658515,30720
1311.58,1.327801,658804,30971
1314.97,1.333711,659011,30562
1318.36,1.333479,658272,30544
1321.73,1.333784,658022,30511
1326.23,1.324654,657870,31152
1329.6,1.329957,656482,30709
1332.97,1.334649,654926,30307
1336.33,1.328739,653727,30666
1339.69,1.337023,652497,30030
1343.04,1.330654,649913,30353
1346.39,1.326429,647671,30544
1349.73,1.333637,645338,29933
1354.18,1.332629,641175,29809
1357.52,1.331999,638376,29722
1360.85,1.334563,635805,29428
1364.17,1.326830,633413,29844
1367.49,1.329475,631026,29551
1370.81,1.327319,628050,29558
1374.12,1.328695,625034,29323
1378.54,1.329795,620272,29026
1381.84,1.330395,616892,28828
1385.14,1.324450,613613,29070
1388.43,1.330748,611526,28554
1391.72,1.330409,610663,28536
1395.01,1.333672,610634,28321
1398.29,1.324905,611700,28949
1402.66,1.328013,614051,28853
1405.93,1.335291,616268,28476
1409.2,1.329361,617795,28939
1412.46,1.330312,618872,28926
1415.72,1.339174,619795,28384
1418.98,1.333557,620495,28786
1422.23,1.334394,621087,28758
1426.56,1.330118,621375,29056
1429.8,1.336974,621616,28612
1433.04,1.331992,622129,28966
1436.27,1.330508,621526,29037
1439.5,1.333627,621113,28810
1442.72,1.333086,620921,28837
1445.94,1.336701,620270,28568
1450.23,1.336549,618860,28513
1453.44,1.336495,617697,28463
1456.64,1.335471,616264,28464
1459.85,1.341039,614413,28017
1463.04,1.337769,612307,28132
1466.24,1.333198,610032,28324
1469.43,1.334513,607345,28114
1473.67,1.331006,603789,28176
1476.85,1.330496,601175,28087
1480.02,1.338696,597737,27404
1483.19,1.336022,594479,27423
1486.36,1.329419,591232,27691
1489.52,1.338613,587853,26956
1492.68,1.334763,583875,27012
1496.89,1.334602,578062,26753
1500.03,1.342242,574159,26109
1503.18,1.338953,570285,26130
1506.32,1.339241,565444,25891
1509.45,1.339476,560571,25654
1512.58,1.336237,555821,25627
1515.71,1.348853,550344,24648
1519.87,1.339055,543983,24919
1522.99,1.334502,538764,24940
1526.1,1.333751,533692,24748
1529.21,1.336643,527902,24317
1532.32,1.339141,521886,23902
1535.42,1.334085,515888,23904
1538.51,1.335107,509987,23575
1541.6,1.335392,503936,23280
1545.72,1.346441,494694,22279
1548.8,1.336207,488378,22519
1551.88,1.336445,481832,22205
1554.95,1.331094,474989,22161
1558.02,1.338488,467818,21458
1561.08,1.336926,460730,21209
1564.15,1.332936,454170,21100
1568.22,1.326314,444181,20953
1571.27,1.330713,436947,20404
1574.32,1.333599,429598,19928
1577.36,1.326958,422039,19879
1580.4,1.333527,414375,19225
1583.43,1.333593,406354,18850
1586.46,1.328513,398475,18702
1590.49,1.330001,388982,18194
1593.51,1.322985,380708,18097
1596.53,1.331041,372727,17392
1599.54,1.326331,365060,17220
1602.55,1.325853,357543,16884
1605.55,1.323019,349495,16612
1608.55,1.330435,341154,15941
1612.54,1.324404,330877,15677
1615.53,1.329120,322904,15134
1618.51,1.331774,315116,14679
1621.49,1.323807,307217,14576
1624.47,1.323836,299481,14208
1627.44,1.327721,292112,13735
1630.41,1.319707,284245,13614
1634.36,1.320803,274079,13094
1637.32,1.322673,266916,12697
1640.27,1.318006,259612,12483
1643.22,1.321122,251804,12021
1646.16,1.327122,244348,11505
1649.1,1.318749,236703,11362
1652.04,1.317975,228171,10972
1655.95,1.322665,215408,10247
1658.88,1.308893,204937,10063
1661.8,1.301963,193395,9649
1664.72,1.292199,179728,9171
1667.63,1.282284,163642,8543
1670.54,1.241311,146312,8394
1673.44,1.265629,128451,6968
1677.31,1.243224,105080,6002
1680.21,1.233178,88906,5197
1683.1,1.229535,75033,4423
1685.99,1.249149,63520,3579
1688.87,1.250224,53714,3019
1691.75,1.215268,45653,2781
1694.62,1.238479,39137,2260
1697.49,1.280880,33776,1769
1701.31,1.150357,28175,1993