File: ML/samples/unknown/Column 1_078503_20241121_170552.csv
Method:,Column 1,,
Host Date-Time:,21/11/24 @ 17:5:52,,
Header Version:,1,,
System Temp (C):,34.38,,
Detector Temp (C):,33.9,,
Humidity (%):,1.81,,
Lamp PD:,3800,,
Shift Vector Coefficients:,-10.5391,0.0761263,-0.000134223,,
Pixel to Wavelength Coefficients:,1775.68,-0.916766,-0.000235065,,
Serial Number:,5510004,,
Scan Config Name:,Column 1,,
Scan Config Type:,Slew,,
Section 1,,
Start wavelength (nm):,900,,
End wavelength (nm):,1700,,
Pattern Pixel Width (nm):,   7.03,,,,
Exposure (ms):,  0.635,,,,
Digital Resolution:,228,,
Num Repeats:,6,,
PGA Gain:,64,,
Total Measurement Time in sec:,  2.727,,
Wavelength (nm),Absorbance (AU),Reference Signal (unitless),Sample Signal (unitless)
901.51,1.337966,108485,4982
905.376,1.322631,121306,5771
909.237,1.302974,131909,6566
913.095,1.333683,143299,6646
916.948,1.312756,156982,7640
922.079,1.313559,179937,8741
925.923,1.333687,200504,9299
929.762,1.334636,222660,10304
933.597,1.335800,244426,11281
937.427,1.319880,263972,12638
941.254,1.323587,281845,13379
945.076,1.311306,297271,14516
950.165,1.322966,315605,15003
953.978,1.322203,328029,15621
957.786,1.321359,340470,16245
961.59,1.319561,352317,16880
965.389,1.317333,363056,17484
969.185,1.305148,373162,18482
972.976,1.306365,382632,18898
976.763,1.316008,391202,18897
981.806,1.298660,400190,20119
985.583,1.311166,406088,19836
989.355,1.313753,410162,19916
993.124,1.307866,412868,20321
996.888,1.306902,414263,20435
1000.65,1.307152,415476,20483
1004.4,1.310882,415479,20308
1009.41,1.305029,414358,20528
1013.15,1.313668,412923,20054
1016.89,1.316768,411526,19844
1020.63,1.307842,409066,20135
1024.36,1.308587,406777,19988
1028.09,1.313544,404427,19647
1031.82,1.305998,401911,19867
1036.78,1.311545,398410,19444
1040.49,1.309647,396204,19421
1044.2,1.312206,394236,19211
1047.91,1.317837,392042,18858
1051.61,1.313212,389823,18952
1055.31,1.310157,388234,19008
1059,1.311829,387599,18904
1063.92,1.299649,386688,19396
1067.61,1.313148,386598,18798
1071.29,1.311006,387377,18929
1074.96,1.314420,388536,18837
1078.63,1.319736,389855,18671
1082.3,1.318396,391215,18794
1085.96,1.317824,393215,18915
1090.84,1.317891,396270,19059
1094.49,1.315379,398760,19290
1098.14,1.315508,400987,19392
1101.79,1.321140,403477,19261
1105.43,1.313787,406116,19718
1109.06,1.312538,407701,19852
1112.7,1.320024,409859,19616
1117.53,1.324071,412494,19559
1121.15,1.318511,414909,19927
1124.77,1.314928,416559,20172
1128.38,1.325700,418532,19771
1131.99,1.320289,419956,20087
1135.6,1.317953,421946,20291
1139.2,1.320626,423881,20259
1143.99,1.320048,426786,20425
1147.58,1.328593,428617,20113
1151.17,1.320001,431169,20637
1154.75,1.314746,433579,21005
1158.33,1.326494,436264,20571
1161.91,1.321556,439132,20943
1165.48,1.317037,442389,21319
1169.04,1.327276,446101,20997
1173.79,1.316275,451929,21817
1177.34,1.318288,456026,21913
1180.9,1.320817,461306,22038
1184.44,1.323164,467657,22221
1187.99,1.326958,473969,22325
1191.52,1.318101,479856,23068
1195.06,1.324042,487372,23111
1199.76,1.320630,497347,23770
1203.29,1.324210,504311,23905
1206.81,1.323406,511507,24291
1210.33,1.326670,519078,24466
1213.84,1.326077,527163,24881
1217.35,1.325896,534208,25224
1220.85,1.321608,540472,25773
1225.51,1.331185,549929,25652
1229.01,1.323523,556888,26439
1232.5,1.334885,562180,26001
1235.98,1.324900,567975,26880
1239.46,1.324720,574815,27215
1242.94,1.320665,582782,27851
1246.41,1.321380,591476,28220
1251.03,1.321445,604016,28814
1254.5,1.329817,612289,28651
1257.96,1.334502,619125,28660
1261.41,1.326851,624551,29425
1264.86,1.328891,629900,29538
1268.31,1.327512,634345,29841
1271.75,1.326212,638574,30130
1276.33,1.330173,642499,30040
1279.76,1.329242,645905,30264
1283.19,1.328193,648307,30450
1286.61,1.332414,650446,30255
1290.03,1.335005,652132,30153
1293.44,1.335351,653907,30211
1296.85,1.330491,655963,30647
1301.39,1.334366,657349,30439
1304.8,1.330230,657558,30740
1308.19,1.333597,658515,30547
1311.58,1.333092,658804,30596
1314.97,1.336376,659011,30375
1318.36,1.331947,658272,30652
1321.73,1.331640,658022,30662
1326.23,1.327634,657870,30939
1329.6,1.334035,656482,30422
1332.97,1.332833,654926,30434
1336.33,1.330172,653727,30565
1339.69,1.334528,652497,30203
1343.04,1.334116,649913,30112
1346.39,1.328838,647671,30375
1349.73,1.331639,645338,30071
1354.18,1.325491,641175,30303
1357.52,1.335078,638376,29512
1360.85,1.332076,635805,29597
1364.17,1.336661,633413,29176
1367.49,1.331139,631026,29438
1370.81,1.332240,628050,29225
1374.12,1.328059,625034,29366
1378.54,1.325700,620272,29301
1381.84,1.325407,616892,29161
1385.14,1.329831,613613,28712
1388.43,1.327551,611526,28765
1391.72,1.322685,610663,29048
1395.01,1.327990,610634,28694
1398.29,1.335366,611700,28260
1402.66,1.331034,614051,28653
1405.93,1.329639,616268,28849
1409.2,1.332479,617795,28732
1412.46,1.332646,618872,28771
1415.72,1.337418,619795,28499
1418.98,1.331315,620495,28935
1422.23,1.333067,621087,28846
1426.56,1.333449,621375,28834
1429.8,1.332009,621616,28941
1433.04,1.329510,622129,29132
1436.27,1.330373,621526,29046
1439.5,1.335047,621113,28716
1442.72,1.332169,620921,28898
1445.94,1.337157,620270,28538
1450.23,1.330980,618860,28881
1453.44,1.332863,617697,28702
1456.64,1.335273,616264,28477
1459.85,1.339044,614413,28146
1463.04,1.333865,612307,28386
1466.24,1.336523,610032,28108
1469.43,1.335534,607345,28048
1473.67,1.339253,603789,27646
1476.85,1.336835,601175,27680
1480.02,1.339648,597737,27344
1483.19,1.332316,594479,27658
1486.36,1.344873,591232,26723
1489.52,1.331899,587853,27376
1492.68,1.331272,583875,27230
1496.89,1.336114,578062,26660
1500.03,1.334870,574159,26556
1503.18,1.338886,570285,26134
1506.32,1.339778,565444,25859
1509.45,1.336136,560571,25852
1512.58,1.338565,555821,25490
1515.71,1.335271,550344,25431
1519.87,1.336466,543983,25068
1522.99,1.334067,538764,24965
1526.1,1.338834,533692,24460
1529.21,1.337233,527902,24284
1532.32,1.328711,521886,24483
1535.42,1.339846,515888,23589
1538.51,1.334206,509987,23624
1541.6,1.335411,503936,23279
1545.72,1.332684,494694,22996
1548.8,1.338198,488378,22416
1551.88,1.346276,481832,21708
1554.95,1.332743,474989,22077
1558.02,1.343905,467818,21192
1561.08,1.331837,460730,21459
1564.15,1.336615,454170,20922
1568.22,1.331716,444181,20694
1571.27,1.348949,436947,19565
1574.32,1.338177,429598,19719
1577.36,1.328907,422039,19790
1580.4,1.335542,414375,19136
1583.43,1.335718,406354,18758
1586.46,1.326914,398475,18771
1590.49,1.325371,388982,18389
1593.51,1.339818,380708,17409
1596.53,1.326174,372727,17588
1599.54,1.336952,365060,16804
1602.55,1.328355,357543,16787
1605.55,1.322784,349495,16621
1608.55,1.320683,341154,16303
1612.54,1.324404,330877,15677
1615.53,1.330701,322904,15079
1618.51,1.331390,315116,14692
1621.49,1.330109,307217,14366
1624.47,1.312820,299481,14573
1627.44,1.317286,292112,14069
1630.41,1.327951,284245,13358
1634.36,1.321667,274079,13068
1637.32,1.312431,266916,13000
1640.27,1.315059,259612,12568
1643.22,1.314667,251804,12201
1646.16,1.324863,244348,11565
1649.1,1.295965,236703,11974
1652.04,1.317342,228171,10988
1655.95,1.294483,215408,10934
1658.88,1.296554,204937,10353
1661.8,1.288360,193395,9956
1664.72,1.268516,179728,9685
1667.63,1.258688,163642,9020
1670.54,1.251307,146312,8203
1673.44,1.236290,128451,7455
1677.31,1.207472,105080,6517
1680.21,1.184232,88906,5817
1683.1,1.190317,75033,4841
1685.99,1.162628,63520,4368
1688.87,1.181698,53714,3535
1691.75,1.161435,45653,3148
1694.62,1.157699,39137,2722
1697.49,1.190750,33776,2177
1701.31,1.196041,28175,1794