File: ML/samples/unknown/Column 1_078310_20241121_165547.csv
Method:,Column 1,,
Host Date-Time:,21/11/24 @ 16:55:47,,
Header Version:,1,,
System Temp (C):,34.6,,
Detector Temp (C):,32.69,,
Humidity (%):,2.25,,
Lamp PD:,3802,,
Shift Vector Coefficients:,-10.5391,0.0761263,-0.000134223,,
Pixel to Wavelength Coefficients:,1775.68,-0.916766,-0.000235065,,
Serial Number:,5510004,,
Scan Config Name:,Column 1,,
Scan Config Type:,Slew,,
Section 1,,
Start wavelength (nm):,900,,
End wavelength (nm):,1700,,
Pattern Pixel Width (nm):,   7.03,,,,
Exposure (ms):,  0.635,,,,
Digital Resolution:,228,,
Num Repeats:,6,,
PGA Gain:,64,,
Total Measurement Time in sec:,  2.675,,
Wavelength (nm),Absorbance (AU),Reference Signal (unitless),Sample Signal (unitless)
901.51,1.329420,108485,5081
905.376,1.316281,121306,5856
909.237,1.316203,131909,6369
913.095,1.322777,143299,6815
916.948,1.339786,156982,7179
922.079,1.312964,179937,8753
925.923,1.328533,200504,9410
929.762,1.320089,222660,10655
933.597,1.323652,244426,11601
937.427,1.315197,263972,12775
941.254,1.326845,281845,13279
945.076,1.321231,297271,14188
950.165,1.326308,315605,14888
953.978,1.318081,328029,15770
957.786,1.311579,340470,16615
961.59,1.316408,352317,17003
965.389,1.310360,363056,17767
969.185,1.310206,373162,18268
972.976,1.314250,382632,18558
976.763,1.314151,391202,18978
981.806,1.313347,400190,19450
985.583,1.315081,406088,19658
989.355,1.314867,410162,19865
993.124,1.306202,412868,20399
996.888,1.305438,414263,20504
1000.65,1.306856,415476,20497
1004.4,1.319718,415479,19899
1009.41,1.313403,414358,20136
1013.15,1.312608,412923,20103
1016.89,1.317184,411526,19825
1020.63,1.314471,409066,19830
1024.36,1.318254,406777,19548
1028.09,1.309474,404427,19832
1031.82,1.311896,401911,19599
1036.78,1.310318,398410,19499
1040.49,1.317955,396204,19053
1044.2,1.316866,394236,19006
1047.91,1.312345,392042,19098
1051.61,1.320561,389823,18634
1055.31,1.319721,388234,18594
1059,1.308396,387599,19054
1063.92,1.317334,386688,18622
1067.61,1.313726,386598,18773
1071.29,1.313976,387377,18800
1074.96,1.319498,388536,18618
1078.63,1.318412,389855,18728
1082.3,1.314440,391215,18966
1085.96,1.316952,393215,18953
1090.84,1.312704,396270,19288
1094.49,1.313896,398760,19356
1098.14,1.320327,400987,19178
1101.79,1.318644,403477,19372
1105.43,1.323813,406116,19268
1109.06,1.326250,407701,19235
1112.7,1.310715,409859,20041
1117.53,1.318862,412494,19795
1121.15,1.334652,414909,19200
1124.77,1.319734,416559,19950
1128.38,1.321003,418532,19986
1131.99,1.321154,419956,20047
1135.6,1.318639,421946,20259
1139.2,1.325195,423881,20047
1143.99,1.319241,426786,20463
1147.58,1.331648,428617,19972
1151.17,1.325081,431169,20397
1154.75,1.322043,433579,20655
1158.33,1.327360,436264,20530
1161.91,1.324636,439132,20795
1165.48,1.321028,442389,21124
1169.04,1.328000,446101,20962
1173.79,1.319833,451929,21639
1177.34,1.320952,456026,21779
1180.9,1.322713,461306,21942
1184.44,1.317533,467657,22511
1187.99,1.323374,473969,22510
1191.52,1.323519,479856,22782
1195.06,1.326265,487372,22993
1199.76,1.324798,497347,23543
1203.29,1.326669,504311,23770
1206.81,1.326654,511507,24110
1210.33,1.332190,519078,24157
1213.84,1.328194,527163,24760
1217.35,1.326655,534208,25180
1220.85,1.326046,540472,25511
1225.51,1.328872,549929,25789
1229.01,1.323129,556888,26463
1232.5,1.330895,562180,26241
1235.98,1.325450,567975,26846
1239.46,1.326559,574815,27100
1242.94,1.330682,582782,27216
1246.41,1.325851,591476,27931
1251.03,1.325792,604016,28527
1254.5,1.330378,612289,28614
1257.96,1.329006,619125,29025
1261.41,1.334069,624551,28940
1264.86,1.330054,629900,29459
1268.31,1.327876,634345,29816
1271.75,1.328713,638574,29957
1276.33,1.330389,642499,30025
1279.76,1.330334,645905,30188
1283.19,1.328037,648307,30461
1286.61,1.332586,650446,30243
1290.03,1.328047,652132,30640
1293.44,1.334719,653907,30255
1296.85,1.337117,655963,30183
1301.39,1.329090,657349,30811
1304.8,1.334504,657558,30439
1308.19,1.330043,658515,30798
1311.58,1.335098,658804,30455
1314.97,1.337722,659011,30281
1318.36,1.331876,658272,30657
1321.73,1.337300,658022,30265
1326.23,1.336654,657870,30303
1329.6,1.334106,656482,30417
1332.97,1.334162,654926,30341
1336.33,1.334040,653727,30294
1339.69,1.337703,652497,29983
1343.04,1.331284,649913,30309
1346.39,1.337707,647671,29761
1349.73,1.329320,645338,30232
1354.18,1.334308,641175,29694
1357.52,1.328303,638376,29976
1360.85,1.331226,635805,29655
1364.17,1.333502,633413,29389
1367.49,1.336274,631026,29092
1370.81,1.331186,628050,29296
1374.12,1.326258,625034,29488
1378.54,1.325137,620272,29339
1381.84,1.332221,616892,28707
1385.14,1.331680,613613,28590
1388.43,1.327113,611526,28794
1391.72,1.334015,610663,28300
1395.01,1.325033,610634,28890
1398.29,1.325130,611700,28934
1402.66,1.332325,614051,28568
1405.93,1.330905,616268,28765
1409.2,1.327818,617795,29042
1412.46,1.337732,618872,28436
1415.72,1.332132,619795,28848
1418.98,1.336479,620495,28593
1422.23,1.332691,621087,28871
1426.56,1.329939,621375,29068
1429.8,1.335413,621616,28715
1433.04,1.340837,622129,28382
1436.27,1.338782,621526,28489
1439.5,1.335788,621113,28667
1442.72,1.334217,620921,28762
1445.94,1.335320,620270,28659
1450.23,1.338963,618860,28355
1453.44,1.337044,617697,28427
1456.64,1.338287,616264,28280
1459.85,1.341287,614413,28001
1463.04,1.336474,612307,28216
1466.24,1.337977,610032,28014
1469.43,1.334636,607345,28106
1473.67,1.336154,603789,27844
1476.85,1.337526,601175,27636
1480.02,1.339823,597737,27333
1483.19,1.339089,594479,27230
1486.36,1.336232,591232,27260
1489.52,1.338034,587853,26992
1492.68,1.341455,583875,26599
1496.89,1.341573,578062,26327
1500.03,1.337182,574159,26415
1503.18,1.339884,570285,26074
1506.32,1.342186,565444,25716
1509.45,1.341903,560571,25511
1512.58,1.341317,555821,25329
1515.71,1.341203,550344,25086
1519.87,1.337976,543983,24981
1522.99,1.345739,538764,24303
1526.1,1.340079,533692,24390
1529.21,1.335235,527902,24396
1532.32,1.342223,521886,23733
1535.42,1.346058,515888,23254
1538.51,1.333673,509987,23653
1541.6,1.335859,503936,23255
1545.72,1.338617,494694,22684
1548.8,1.331469,488378,22766
1551.88,1.330462,481832,22513
1554.95,1.337312,474989,21846
1558.02,1.338791,467818,21443
1561.08,1.346240,460730,20759
1564.15,1.342803,454170,20626
1568.22,1.343501,444181,20140
1571.27,1.333939,436947,20253
1574.32,1.343406,429598,19483
1577.36,1.332499,422039,19627
1580.4,1.337088,414375,19068
1583.43,1.332673,406354,18890
1586.46,1.334617,398475,18441
1590.49,1.331388,388982,18136
1593.51,1.328273,380708,17878
1596.53,1.334728,372727,17245
1599.54,1.335172,365060,16873
1602.55,1.339598,357543,16358
1605.55,1.336939,349495,16088
1608.55,1.342787,341154,15494
1612.54,1.333106,330877,15366
1615.53,1.338812,322904,14800
1618.51,1.336265,315116,14528
1621.49,1.328631,307217,14415
1624.47,1.330831,299481,13981
1627.44,1.319204,292112,14007
1630.41,1.323777,284245,13487
1634.36,1.323565,274079,13011
1637.32,1.327281,266916,12563
1640.27,1.319260,259612,12447
1643.22,1.327931,251804,11834
1646.16,1.330799,244348,11408
1649.1,1.333799,236703,10975
1652.04,1.324354,228171,10812
1655.95,1.312901,215408,10480
1658.88,1.304855,204937,10157
1661.8,1.289715,193395,9925
1664.72,1.277350,179728,9490
1667.63,1.282386,163642,8541
1670.54,1.260564,146312,8030
1673.44,1.222303,128451,7699
1677.31,1.212432,105080,6443
1680.21,1.183337,88906,5829
1683.1,1.204728,75033,4683
1685.99,1.194277,63520,4061
1688.87,1.200657,53714,3384
1691.75,1.229394,45653,2692
1694.62,1.258939,39137,2156
1697.49,1.132758,33776,2488
1701.31,1.181754,28175,1854