File: ML/samples/unknown/Column 1_078544_20241121_170754.csv
Method:,Column 1,,
Host Date-Time:,21/11/24 @ 17:7:54,,
Header Version:,1,,
System Temp (C):,36.04,,
Detector Temp (C):,34.31,,
Humidity (%):,1.57,,
Lamp PD:,3799,,
Shift Vector Coefficients:,-10.5391,0.0761263,-0.000134223,,
Pixel to Wavelength Coefficients:,1775.68,-0.916766,-0.000235065,,
Serial Number:,5510004,,
Scan Config Name:,Column 1,,
Scan Config Type:,Slew,,
Section 1,,
Start wavelength (nm):,900,,
End wavelength (nm):,1700,,
Pattern Pixel Width (nm):,   7.03,,,,
Exposure (ms):,  0.635,,,,
Digital Resolution:,228,,
Num Repeats:,6,,
PGA Gain:,64,,
Total Measurement Time in sec:,  2.726,,
Wavelength (nm),Absorbance (AU),Reference Signal (unitless),Sample Signal (unitless)
901.51,1.305557,108485,5368
905.376,1.301410,121306,6060
909.237,1.298564,131909,6633
913.095,1.301937,143299,7150
916.948,1.290216,156982,8047
922.079,1.317904,179937,8654
925.923,1.305174,200504,9930
929.762,1.335269,222660,10289
933.597,1.323989,244426,11592
937.427,1.320705,263972,12614
941.254,1.312498,281845,13725
945.076,1.306160,297271,14689
950.165,1.306939,315605,15567
953.978,1.308466,328029,16123
957.786,1.303371,340470,16932
961.59,1.309038,352317,17294
965.389,1.305595,363056,17963
969.185,1.313763,373162,18119
972.976,1.301657,382632,19104
976.763,1.298244,391202,19686
981.806,1.300282,400190,20044
985.583,1.302217,406088,20249
989.355,1.303900,410162,20373
993.124,1.300219,412868,20682
996.888,1.298608,414263,20829
1000.65,1.306136,415476,20531
1004.4,1.294349,415479,21096
1009.41,1.299250,414358,20803
1013.15,1.309616,412923,20242
1016.89,1.307394,411526,20277
1020.63,1.293918,409066,20791
1024.36,1.297751,406777,20493
1028.09,1.302975,404427,20131
1031.82,1.297212,401911,20273
1036.78,1.303599,398410,19803
1040.49,1.301846,396204,19773
1044.2,1.306859,394236,19449
1047.91,1.307393,392042,19317
1051.61,1.300276,389823,19525
1055.31,1.307469,388234,19126
1059,1.302960,387599,19294
1063.92,1.309614,386688,18956
1067.61,1.307479,386598,19045
1071.29,1.304833,387377,19200
1074.96,1.300155,388536,19466
1078.63,1.308100,389855,19178
1082.3,1.304547,391215,19403
1085.96,1.303417,393215,19553
1090.84,1.307667,396270,19513
1094.49,1.313918,398760,19355
1098.14,1.304146,400987,19906
1101.79,1.308912,403477,19811
1105.43,1.313743,406116,19720
1109.06,1.312450,407701,19856
1112.7,1.309849,409859,20081
1117.53,1.308307,412494,20282
1121.15,1.316164,414909,20035
1124.77,1.324307,416559,19741
1128.38,1.312418,418532,20385
1131.99,1.318175,419956,20185
1135.6,1.313948,421946,20479
1139.2,1.312135,423881,20659
1143.99,1.314576,426786,20684
1147.58,1.307519,428617,21113
1151.17,1.314564,431169,20897
1154.75,1.311224,433579,21176
1158.33,1.307311,436264,21500
1161.91,1.302488,439132,21883
1165.48,1.316976,442389,21322
1169.04,1.315080,446101,21595
1173.79,1.313319,451929,21966
1177.34,1.303423,456026,22676
1180.9,1.310304,461306,22578
1184.44,1.313710,467657,22710
1187.99,1.318711,473969,22753
1191.52,1.312805,479856,23351
1195.06,1.321195,487372,23263
1199.76,1.318825,497347,23869
1203.29,1.313603,504311,24496
1206.81,1.312687,511507,24898
1210.33,1.320798,519078,24799
1213.84,1.321545,527163,25142
1217.35,1.311719,534208,26061
1220.85,1.314107,540472,26222
1225.51,1.315294,549929,26608
1229.01,1.320217,556888,26641
1232.5,1.318045,562180,27029
1235.98,1.319952,567975,27188
1239.46,1.314843,574815,27841
1242.94,1.312065,582782,28408
1246.41,1.314934,591476,28642
1251.03,1.315249,604016,29228
1254.5,1.323885,612289,29045
1257.96,1.326559,619125,29189
1261.41,1.321512,624551,29789
1264.86,1.324880,629900,29812
1268.31,1.320697,634345,30313
1271.75,1.323826,638574,30296
1276.33,1.315979,642499,31038
1279.76,1.319199,645905,30972
1283.19,1.326230,648307,30588
1286.61,1.320926,650446,31066
1290.03,1.324883,652132,30864
1293.44,1.326557,653907,30829
1296.85,1.322099,655963,31245
1301.39,1.330997,657349,30676
1304.8,1.325439,657558,31081
1308.19,1.323827,658515,31242
1311.58,1.330544,658804,30776
1314.97,1.326328,659011,31086
1318.36,1.325757,658272,31092
1321.73,1.325690,658022,31085
1326.23,1.328392,657870,30885
1329.6,1.325693,656482,31012
1332.97,1.326023,654926,30915
1336.33,1.322860,653727,31084
1339.69,1.326028,652497,30800
1343.04,1.325321,649913,30728
1346.39,1.321677,647671,30880
1349.73,1.324648,645338,30559
1354.18,1.320220,641175,30673
1357.52,1.323018,638376,30343
1360.85,1.319836,635805,30443
1364.17,1.324276,633413,30020
1367.49,1.327115,631026,29712
1370.81,1.328334,628050,29489
1374.12,1.324905,625034,29580
1378.54,1.320777,620272,29635
1381.84,1.323965,616892,29258
1385.14,1.318942,613613,29441
1388.43,1.317536,611526,29436
1391.72,1.321089,610663,29155
1395.01,1.325906,610634,28832
1398.29,1.322392,611700,29117
1402.66,1.327983,614051,28855
1405.93,1.327117,616268,29017
1409.2,1.323917,617795,29304
1412.46,1.323726,618872,29368
1415.72,1.319755,619795,29682
1418.98,1.323476,620495,29462
1422.23,1.328276,621087,29166
1426.56,1.332681,621375,28885
1429.8,1.324599,621616,29439
1433.04,1.324014,622129,29503
1436.27,1.327541,621526,29236
1439.5,1.326926,621113,29258
1442.72,1.329576,620921,29071
1445.94,1.329405,620270,29052
1450.23,1.331010,618860,28879
1453.44,1.328587,617697,28986
1456.64,1.330616,616264,28784
1459.85,1.334653,614413,28432
1463.04,1.328588,612307,28733
1466.24,1.329503,610032,28566
1469.43,1.329613,607345,28433
1473.67,1.326879,603789,28445
1476.85,1.335879,601175,27741
1480.02,1.333028,597737,27764
1483.19,1.335499,594479,27456
1486.36,1.331699,591232,27546
1489.52,1.329510,587853,27527
1492.68,1.335391,583875,26973
1496.89,1.329711,578062,27056
1500.03,1.332716,574159,26688
1503.18,1.333814,570285,26441
1506.32,1.328063,565444,26566
1509.45,1.331358,560571,26138
1512.58,1.328062,555821,26114
1515.71,1.331073,550344,25678
1519.87,1.324454,543983,25771
1522.99,1.326770,538764,25388
1526.1,1.329194,533692,25009
1529.21,1.331177,527902,24625
1532.32,1.332059,521886,24295
1535.42,1.331260,515888,24060
1538.51,1.332316,509987,23727
1541.6,1.325780,503936,23801
1545.72,1.328119,494694,23239
1548.8,1.327841,488378,22957
1551.88,1.327674,481832,22658
1554.95,1.327173,474989,22362
1558.02,1.326570,467818,22055
1561.08,1.326787,460730,21710
1564.15,1.321360,454170,21670
1568.22,1.325837,444181,20976
1571.27,1.335486,436947,20181
1574.32,1.329996,429598,20094
1577.36,1.321099,422039,20149
1580.4,1.328809,414375,19435
1583.43,1.317225,406354,19574
1586.46,1.331239,398475,18585
1590.49,1.326791,388982,18329
1593.51,1.322554,380708,18115
1596.53,1.318077,372727,17919
1599.54,1.308203,365060,17954
1602.55,1.325185,357543,16910
1605.55,1.327433,349495,16444
1608.55,1.329211,341154,15986
1612.54,1.320625,330877,15814
1615.53,1.314282,322904,15660
1618.51,1.314774,315116,15265
1621.49,1.308037,307217,15115
1624.47,1.303212,299481,14899
1627.44,1.296581,292112,14756
1630.41,1.324616,284245,13461
1634.36,1.318851,274079,13153
1637.32,1.304388,266916,13243
1640.27,1.319574,259612,12438
1643.22,1.305092,251804,12473
1646.16,1.315649,244348,11813
1649.1,1.310645,236703,11576
1652.04,1.292233,228171,11642
1655.95,1.288604,215408,11083
1658.88,1.288450,204937,10548
1661.8,1.277845,193395,10200
1664.72,1.279874,179728,9435
1667.63,1.261684,163642,8958
1670.54,1.260835,146312,8025
1673.44,1.216198,128451,7808
1677.31,1.201450,105080,6608
1680.21,1.151664,88906,6270
1683.1,1.140692,75033,5427
1685.99,1.110064,63520,4930
1688.87,1.123706,53714,4040
1691.75,1.153506,45653,3206
1694.62,1.174784,39137,2617
1697.49,1.138734,33776,2454
1701.31,1.117830,28175,2148