File: ML/samples/unknown/Column 1_078721_20241121_171858.csv
Method:,Column 1,,
Host Date-Time:,21/11/24 @ 17:18:58,,
Header Version:,1,,
System Temp (C):,35.96,,
Detector Temp (C):,34.45,,
Humidity (%):,1.57,,
Lamp PD:,3799,,
Shift Vector Coefficients:,-10.5391,0.0761263,-0.000134223,,
Pixel to Wavelength Coefficients:,1775.68,-0.916766,-0.000235065,,
Serial Number:,5510004,,
Scan Config Name:,Column 1,,
Scan Config Type:,Slew,,
Section 1,,
Start wavelength (nm):,900,,
End wavelength (nm):,1700,,
Pattern Pixel Width (nm):,   7.03,,,,
Exposure (ms):,  0.635,,,,
Digital Resolution:,228,,
Num Repeats:,6,,
PGA Gain:,64,,
Total Measurement Time in sec:,  2.730,,
Wavelength (nm),Absorbance (AU),Reference Signal (unitless),Sample Signal (unitless)
901.51,1.311832,108485,5291
905.376,1.331450,121306,5655
909.237,1.341978,131909,6002
913.095,1.309473,143299,7027
916.948,1.330924,156982,7327
922.079,1.335049,179937,8319
925.923,1.334388,200504,9284
929.762,1.327281,222660,10480
933.597,1.319591,244426,11710
937.427,1.313500,263972,12825
941.254,1.316919,281845,13586
945.076,1.310827,297271,14532
950.165,1.318932,315605,15143
953.978,1.309410,328029,16088
957.786,1.316997,340470,16409
961.59,1.312923,352317,17140
965.389,1.311583,363056,17717
969.185,1.307883,373162,18366
972.976,1.310847,382632,18704
976.763,1.310663,391202,19131
981.806,1.311253,400190,19544
985.583,1.309396,406088,19917
989.355,1.310062,410162,20086
993.124,1.311709,412868,20142
996.888,1.308818,414263,20345
1000.65,1.299440,415476,20850
1004.4,1.304324,415479,20617
1009.41,1.301363,414358,20702
1013.15,1.306132,412923,20405
1016.89,1.303577,411526,20456
1020.63,1.309874,409066,20041
1024.36,1.309806,406777,19932
1028.09,1.300780,404427,20233
1031.82,1.305037,401911,19911
1036.78,1.309428,398410,19539
1040.49,1.302396,396204,19748
1044.2,1.307708,394236,19411
1047.91,1.305800,392042,19388
1051.61,1.310175,389823,19085
1055.31,1.312081,388234,18924
1059,1.307782,387599,19081
1063.92,1.304173,386688,19195
1067.61,1.297961,386598,19467
1071.29,1.304968,387377,19194
1074.96,1.314973,388536,18813
1078.63,1.311556,389855,19026
1082.3,1.315311,391215,18928
1085.96,1.310019,393215,19258
1090.84,1.313357,396270,19259
1094.49,1.316213,398760,19253
1098.14,1.313029,400987,19503
1101.79,1.317368,403477,19429
1105.43,1.312599,406116,19772
1109.06,1.307535,407701,20082
1112.7,1.314699,409859,19858
1117.53,1.307003,412494,20343
1121.15,1.310286,414909,20308
1124.77,1.319016,416559,19983
1128.38,1.313164,418532,20350
1131.99,1.318003,419956,20193
1135.6,1.321197,421946,20140
1139.2,1.317295,423881,20415
1143.99,1.313506,426786,20735
1147.58,1.311072,428617,20941
1151.17,1.321054,431169,20587
1154.75,1.317587,433579,20868
1158.33,1.317179,436264,21017
1161.91,1.322969,439132,20875
1165.48,1.321481,442389,21102
1169.04,1.320015,446101,21351
1173.79,1.321381,451929,21562
1177.34,1.313753,456026,22143
1180.9,1.312560,461306,22461
1184.44,1.320689,467657,22348
1187.99,1.311105,473969,23155
1191.52,1.317875,479856,23080
1195.06,1.318404,487372,23413
1199.76,1.316575,497347,23993
1203.29,1.320753,504311,24096
1206.81,1.315434,511507,24741
1210.33,1.324298,519078,24600
1213.84,1.322029,527163,25114
1217.35,1.319301,534208,25610
1220.85,1.321473,540472,25781
1225.51,1.320714,549929,26278
1229.01,1.322260,556888,26516
1232.5,1.318110,562180,27025
1235.98,1.314365,567975,27540
1239.46,1.323000,574815,27323
1242.94,1.324723,582782,27592
1246.41,1.322012,591476,28179
1251.03,1.322018,604016,28776
1254.5,1.325143,612289,28961
1257.96,1.321456,619125,29534
1261.41,1.328004,624551,29347
1264.86,1.324764,629900,29820
1268.31,1.325566,634345,29975
1271.75,1.322081,638574,30418
1276.33,1.325270,642499,30381
1279.76,1.323228,645905,30686
1283.19,1.329050,648307,30390
1286.61,1.325875,650446,30714
1290.03,1.325362,652132,30830
1293.44,1.329497,653907,30621
1296.85,1.323896,655963,31116
1301.39,1.327037,657349,30957
1304.8,1.331475,657558,30652
1308.19,1.327134,658515,31005
1311.58,1.329515,658804,30849
1314.97,1.324182,659011,31240
1318.36,1.332386,658272,30621
1321.73,1.331017,658022,30706
1326.23,1.326176,657870,31043
1329.6,1.331672,656482,30588
1332.97,1.330755,654926,30580
1336.33,1.323895,653727,31010
1339.69,1.326988,652497,30732
1343.04,1.325208,649913,30736
1346.39,1.330084,647671,30288
1349.73,1.328302,645338,30303
1354.18,1.327776,641175,30144
1357.52,1.328665,638376,29951
1360.85,1.318554,635805,30533
1364.17,1.323092,633413,30102
1367.49,1.322723,631026,30014
1370.81,1.324785,628050,29731
1374.12,1.322300,625034,29758
1378.54,1.326620,620272,29239
1381.84,1.324618,616892,29214
1385.14,1.326096,613613,28960
1388.43,1.323448,611526,29038
1391.72,1.325460,610663,28863
1395.01,1.323638,610634,28983
1398.29,1.327101,611700,28803
1402.66,1.324804,614051,29067
1405.93,1.326878,616268,29033
1409.2,1.327624,617795,29055
1412.46,1.327723,618872,29099
1415.72,1.333278,619795,28772
1418.98,1.324568,620495,29388
1422.23,1.328901,621087,29124
1426.56,1.327332,621375,29243
1429.8,1.328407,621616,29182
1433.04,1.322457,622129,29609
1436.27,1.330777,621526,29019
1439.5,1.330593,621113,29012
1442.72,1.333915,620921,28782
1445.94,1.331878,620270,28887
1450.23,1.334422,618860,28653
1453.44,1.332228,617697,28744
1456.64,1.333340,616264,28604
1459.85,1.329777,614413,28753
1463.04,1.327652,612307,28795
1466.24,1.326624,610032,28756
1469.43,1.327981,607345,28540
1473.67,1.332426,603789,28084
1476.85,1.331099,601175,28048
1480.02,1.334297,597737,27683
1483.19,1.334267,594479,27534
1486.36,1.333770,591232,27415
1489.52,1.335947,587853,27122
1492.68,1.329140,583875,27364
1496.89,1.333435,578062,26825
1500.03,1.340317,574159,26225
1503.18,1.327423,570285,26833
1506.32,1.330391,565444,26424
1509.45,1.338258,560571,25726
1512.58,1.342777,555821,25244
1515.71,1.333686,550344,25524
1519.87,1.341046,543983,24805
1522.99,1.333771,538764,24982
1526.1,1.334084,533692,24729
1529.21,1.339978,527902,24131
1532.32,1.329670,521886,24429
1535.42,1.321285,515888,24619
1538.51,1.335273,509987,23566
1541.6,1.334964,503936,23303
1545.72,1.334558,494694,22897
1548.8,1.331698,488378,22754
1551.88,1.338327,481832,22109
1554.95,1.332743,474989,22077
1558.02,1.324115,467818,22180
1561.08,1.333500,460730,21377
1564.15,1.338633,454170,20825
1568.22,1.340556,444181,20277
1571.27,1.328802,436947,20494
1574.32,1.331663,429598,20017
1577.36,1.327789,422039,19841
1580.4,1.324872,414375,19612
1583.43,1.331043,406354,18961
1586.46,1.338045,398475,18296
1590.49,1.336398,388982,17928
1593.51,1.330123,380708,17802
1596.53,1.323933,372727,17679
1599.54,1.325525,365060,17252
1602.55,1.312280,357543,17420
1605.55,1.331813,349495,16279
1608.55,1.324778,341154,16150
1612.54,1.319144,330877,15868
1615.53,1.313672,322904,15682
1618.51,1.331715,315116,14681
1621.49,1.324105,307217,14566
1624.47,1.321185,299481,14295
1627.44,1.320167,292112,13976
1630.41,1.315643,284245,13742
1634.36,1.316217,274079,13233
1637.32,1.308176,266916,13128
1640.27,1.316200,259612,12535
1643.22,1.303701,251804,12513
1646.16,1.309733,244348,11975
1649.1,1.301770,236703,11815
1652.04,1.295867,228171,11545
1655.95,1.293768,215408,10952
1658.88,1.301320,204937,10240
1661.8,1.281007,193395,10126
1664.72,1.268965,179728,9675
1667.63,1.240582,163642,9404
1670.54,1.248879,146312,8249
1673.44,1.210946,128451,7903
1677.31,1.193311,105080,6733
1680.21,1.165099,88906,6079
1683.1,1.187011,75033,4878
1685.99,1.221530,63520,3814
1688.87,1.111203,53714,4158
1691.75,1.152153,45653,3216
1694.62,1.187925,39137,2539
1697.49,1.278676,33776,1778
1701.31,1.196041,28175,1794