File: ML/samples/unknown/Column 1_078136_20241121_164714.csv
Method:,Column 1,,
Host Date-Time:,21/11/24 @ 16:47:14,,
Header Version:,1,,
System Temp (C):,33.06,,
Detector Temp (C):,28.84,,
Humidity (%):,3.52,,
Lamp PD:,3806,,
Shift Vector Coefficients:,-10.5391,0.0761263,-0.000134223,,
Pixel to Wavelength Coefficients:,1775.68,-0.916766,-0.000235065,,
Serial Number:,5510004,,
Scan Config Name:,Column 1,,
Scan Config Type:,Slew,,
Section 1,,
Start wavelength (nm):,900,,
End wavelength (nm):,1700,,
Pattern Pixel Width (nm):,   7.03,,,,
Exposure (ms):,  0.635,,,,
Digital Resolution:,228,,
Num Repeats:,6,,
PGA Gain:,64,,
Total Measurement Time in sec:,  2.690,,
Wavelength (nm),Absorbance (AU),Reference Signal (unitless),Sample Signal (unitless)
901.51,1.344731,108485,4905
905.376,1.305080,121306,6009
909.237,1.353341,131909,5847
913.095,1.337292,143299,6591
916.948,1.328854,156982,7362
922.079,1.311428,179937,8784
925.923,1.316068,200504,9684
929.762,1.309022,222660,10930
933.597,1.314429,244426,11850
937.427,1.323018,263972,12547
941.254,1.325408,281845,13323
945.076,1.319917,297271,14231
950.165,1.319133,315605,15136
953.978,1.307847,328029,16146
957.786,1.310769,340470,16646
961.59,1.314929,352317,17061
965.389,1.307436,363056,17887
969.185,1.312065,373162,18190
972.976,1.305722,382632,18926
976.763,1.303682,391202,19441
981.806,1.320597,400190,19128
985.583,1.317407,406088,19553
989.355,1.316751,410162,19779
993.124,1.312918,412868,20086
996.888,1.313907,414263,20108
1000.65,1.312872,415476,20215
1004.4,1.315353,415479,20100
1009.41,1.317694,414358,19938
1013.15,1.306985,412923,20365
1016.89,1.310403,411526,20137
1020.63,1.301546,409066,20429
1024.36,1.317278,406777,19592
1028.09,1.307725,404427,19912
1031.82,1.312384,401911,19577
1036.78,1.308008,398410,19603
1040.49,1.310744,396204,19372
1044.2,1.312048,394236,19218
1047.91,1.305039,392042,19422
1051.61,1.312388,389823,18988
1055.31,1.318089,388234,18664
1059,1.320718,387599,18521
1063.92,1.318035,386688,18592
1067.61,1.318191,386598,18581
1071.29,1.315457,387377,18736
1074.96,1.316013,388536,18768
1078.63,1.318945,389855,18705
1082.3,1.320969,391215,18683
1085.96,1.318559,393215,18883
1090.84,1.319993,396270,18967
1094.49,1.321570,398760,19017
1098.14,1.311806,400987,19558
1101.79,1.312876,403477,19631
1105.43,1.323746,406116,19271
1109.06,1.315083,407701,19736
1112.7,1.318168,409859,19700
1117.53,1.322652,412494,19623
1121.15,1.323685,414909,19691
1124.77,1.325321,416559,19695
1128.38,1.313719,418532,20324
1131.99,1.326341,419956,19809
1135.6,1.316394,421946,20364
1139.2,1.318253,423881,20370
1143.99,1.319305,426786,20460
1147.58,1.332192,428617,19947
1151.17,1.313754,431169,20936
1154.75,1.322001,433579,20657
1158.33,1.328547,436264,20474
1161.91,1.323656,439132,20842
1165.48,1.323875,442389,20986
1169.04,1.317965,446101,21452
1173.79,1.315142,451929,21874
1177.34,1.326935,456026,21481
1180.9,1.322475,461306,21954
1184.44,1.316107,467657,22585
1187.99,1.325327,473969,22409
1191.52,1.330204,479856,22434
1195.06,1.324305,487372,23097
1199.76,1.315617,497347,24046
1203.29,1.329639,504311,23608
1206.81,1.317088,511507,24647
1210.33,1.321166,519078,24778
1213.84,1.323259,527163,25043
1217.35,1.333119,534208,24808
1220.85,1.321642,540472,25771
1225.51,1.325400,549929,25996
1229.01,1.327533,556888,26196
1232.5,1.331690,562180,26193
1235.98,1.324061,567975,26932
1239.46,1.318761,574815,27591
1242.94,1.331640,582782,27156
1246.41,1.331532,591476,27568
1251.03,1.327394,604016,28422
1254.5,1.325743,612289,28921
1257.96,1.328677,619125,29047
1261.41,1.325510,624551,29516
1264.86,1.331664,629900,29350
1268.31,1.327018,634345,29875
1271.75,1.333714,638574,29614
1276.33,1.330404,642499,30024
1279.76,1.332570,645905,30033
1283.19,1.329365,648307,30368
1286.61,1.328015,650446,30563
1290.03,1.331019,652132,30431
1293.44,1.332771,653907,30391
1296.85,1.333149,655963,30460
1301.39,1.329570,657349,30777
1304.8,1.333876,657558,30483
1308.19,1.334266,658515,30500
1311.58,1.329684,658804,30837
1314.97,1.335377,659011,30445
1318.36,1.332939,658272,30582
1321.73,1.335510,658022,30390
1326.23,1.333470,657870,30526
1329.6,1.329886,656482,30714
1332.97,1.335237,654926,30266
1336.33,1.333180,653727,30354
1339.69,1.333193,652497,30296
1343.04,1.336342,649913,29958
1346.39,1.327710,647671,30454
1349.73,1.323470,645338,30642
1354.18,1.331436,641175,29891
1357.52,1.329725,638376,29878
1360.85,1.324902,635805,30090
1364.17,1.327879,633413,29772
1367.49,1.335036,631026,29175
1370.81,1.333669,628050,29129
1374.12,1.332743,625034,29051
1378.54,1.330799,620272,28959
1381.84,1.336555,616892,28422
1385.14,1.329680,613613,28722
1388.43,1.334874,611526,28284
1391.72,1.330804,610663,28510
1395.01,1.327823,610634,28705
1398.29,1.330841,611700,28556
1402.66,1.331065,614051,28651
1405.93,1.325459,616268,29128
1409.2,1.333932,617795,28636
1412.46,1.331289,618872,28861
1415.72,1.339297,619795,28376
1418.98,1.329443,620495,29060
1422.23,1.332886,621087,28858
1426.56,1.331600,621375,28957
1429.8,1.336701,621616,28630
1433.04,1.331363,622129,29008
1436.27,1.333690,621526,28825
1439.5,1.329531,621113,29083
1442.72,1.335790,620921,28658
1445.94,1.336640,620270,28572
1450.23,1.336565,618860,28512
1453.44,1.332833,617697,28704
1456.64,1.335395,616264,28469
1459.85,1.341877,614413,27963
1463.04,1.338974,612307,28054
1466.24,1.334380,610032,28247
1469.43,1.331266,607345,28325
1473.67,1.339017,603789,27661
1476.85,1.338533,601175,27572
1480.02,1.341207,597737,27246
1483.19,1.336751,594479,27377
1486.36,1.340813,591232,26974
1489.52,1.339872,587853,26878
1492.68,1.340639,583875,26649
1496.89,1.343739,578062,26196
1500.03,1.342941,574159,26067
1503.18,1.343144,570285,25879
1506.32,1.340804,565444,25798
1509.45,1.342022,560571,25504
1512.58,1.337221,555821,25569
1515.71,1.339354,550344,25193
1519.87,1.339351,543983,24902
1522.99,1.337736,538764,24755
1526.1,1.336691,533692,24581
1529.21,1.334150,527902,24457
1532.32,1.343947,521886,23639
1535.42,1.333722,515888,23924
1538.51,1.342034,509987,23202
1541.6,1.337749,503936,23154
1545.72,1.334615,494694,22894
1548.8,1.338237,488378,22414
1551.88,1.343245,481832,21860
1554.95,1.334281,474989,21999
1558.02,1.337053,467818,21529
1561.08,1.339988,460730,21060
1564.15,1.336719,454170,20917
1568.22,1.334748,444181,20550
1571.27,1.336068,436947,20154
1574.32,1.330688,429598,20062
1577.36,1.339053,422039,19333
1580.4,1.327248,414375,19505
1583.43,1.331708,406354,18932
1586.46,1.344454,398475,18028
1590.49,1.337829,388982,17869
1593.51,1.333355,380708,17670
1596.53,1.325755,372727,17605
1599.54,1.331532,365060,17015
1602.55,1.318406,357543,17176
1605.55,1.336669,349495,16098
1608.55,1.324052,341154,16177
1612.54,1.316199,330877,15976
1615.53,1.337172,322904,14856
1618.51,1.328502,315116,14790
1621.49,1.333539,307217,14253
1624.47,1.326904,299481,14108
1627.44,1.327405,292112,13745
1630.41,1.323070,284245,13509
1634.36,1.326950,274079,12910
1637.32,1.338097,266916,12254
1640.27,1.320763,259612,12404
1643.22,1.325187,251804,11909
1646.16,1.323214,244348,11609
1649.1,1.328216,236703,11117
1652.04,1.319243,228171,10940
1655.95,1.311494,215408,10514
1658.88,1.314715,204937,9929
1661.8,1.299629,193395,9701
1664.72,1.289179,179728,9235
1667.63,1.291689,163642,8360
1670.54,1.290972,146312,7487
1673.44,1.284091,128451,6678
1677.31,1.266179,105080,5693
1680.21,1.242128,88906,5091
1683.1,1.249015,75033,4229
1685.99,1.250607,63520,3567
1688.87,1.279684,53714,2821
1691.75,1.270658,45653,2448
1694.62,1.275988,39137,2073
1697.49,1.259796,33776,1857
1701.31,1.163407,28175,1934