File: ML/samples/unknown/Column 1_078861_20241121_172543.csv
Method:,Column 1,,
Host Date-Time:,21/11/24 @ 17:25:43,,
Header Version:,1,,
System Temp (C):,37.61,,
Detector Temp (C):,35.96,,
Humidity (%):,0.78,,
Lamp PD:,3796,,
Shift Vector Coefficients:,-10.5391,0.0761263,-0.000134223,,
Pixel to Wavelength Coefficients:,1775.68,-0.916766,-0.000235065,,
Serial Number:,5510004,,
Scan Config Name:,Column 1,,
Scan Config Type:,Slew,,
Section 1,,
Start wavelength (nm):,900,,
End wavelength (nm):,1700,,
Pattern Pixel Width (nm):,   7.03,,,,
Exposure (ms):,  0.635,,,,
Digital Resolution:,228,,
Num Repeats:,6,,
PGA Gain:,64,,
Total Measurement Time in sec:,  2.725,,
Wavelength (nm),Absorbance (AU),Reference Signal (unitless),Sample Signal (unitless)
901.51,1.297859,108485,5464
905.376,1.326942,121306,5714
909.237,1.344591,131909,5966
913.095,1.319097,143299,6873
916.948,1.317271,156982,7561
922.079,1.298952,179937,9040
925.923,1.325269,200504,9481
929.762,1.326950,222660,10488
933.597,1.326469,244426,11526
937.427,1.323468,263972,12534
941.254,1.314242,281845,13670
945.076,1.310051,297271,14558
950.165,1.311821,315605,15393
953.978,1.314051,328029,15917
957.786,1.307442,340470,16774
961.59,1.313785,352317,17106
965.389,1.308384,363056,17848
969.185,1.301941,373162,18619
972.976,1.302567,382632,19064
976.763,1.305832,391202,19345
981.806,1.310165,400190,19593
985.583,1.300461,406088,20331
989.355,1.301117,410162,20504
993.124,1.297247,412868,20824
996.888,1.296341,414263,20938
1000.65,1.303500,415476,20656
1004.4,1.301971,415479,20729
1009.41,1.309174,414358,20333
1013.15,1.307027,412923,20363
1016.89,1.300193,411526,20616
1020.63,1.303272,409066,20348
1024.36,1.306204,406777,20098
1028.09,1.297359,404427,20393
1031.82,1.303382,401911,19987
1036.78,1.305952,398410,19696
1040.49,1.300268,396204,19845
1044.2,1.303833,394236,19585
1047.91,1.297304,392042,19771
1051.61,1.311566,389823,19024
1055.31,1.300397,388234,19440
1059,1.307508,387599,19093
1063.92,1.304376,386688,19186
1067.61,1.318775,386598,18556
1071.29,1.314068,387377,18796
1074.96,1.309582,388536,19048
1078.63,1.299601,389855,19557
1082.3,1.312840,391215,19036
1085.96,1.309681,393215,19273
1090.84,1.306667,396270,19558
1094.49,1.304639,398760,19773
1098.14,1.319241,400987,19226
1101.79,1.313585,403477,19599
1105.43,1.310277,406116,19878
1109.06,1.314137,407701,19779
1112.7,1.305395,409859,20288
1117.53,1.305383,412494,20419
1121.15,1.306008,414909,20509
1124.77,1.311027,416559,20354
1128.38,1.312226,418532,20394
1131.99,1.313914,419956,20384
1135.6,1.317119,421946,20330
1139.2,1.315893,423881,20481
1143.99,1.317715,426786,20535
1147.58,1.321992,428617,20421
1151.17,1.314668,431169,20892
1154.75,1.320574,433579,20725
1158.33,1.311044,436264,21316
1161.91,1.323614,439132,20844
1165.48,1.319325,442389,21207
1169.04,1.316692,446101,21515
1173.79,1.310030,451929,22133
1177.34,1.322270,456026,21713
1180.9,1.315567,461306,22306
1184.44,1.312526,467657,22772
1187.99,1.316712,473969,22858
1191.52,1.314725,479856,23248
1195.06,1.311740,487372,23775
1199.76,1.320941,497347,23753
1203.29,1.317700,504311,24266
1206.81,1.318181,511507,24585
1210.33,1.320343,519078,24825
1213.84,1.316581,527163,25431
1217.35,1.319793,534208,25581
1220.85,1.315069,540472,26164
1225.51,1.321956,549929,26203
1229.01,1.314758,556888,26978
1232.5,1.324227,562180,26647
1235.98,1.320399,567975,27160
1239.46,1.321952,574815,27389
1242.94,1.326458,582782,27482
1246.41,1.320273,591476,28292
1251.03,1.322667,604016,28733
1254.5,1.321901,612289,29178
1257.96,1.324067,619125,29357
1261.41,1.319606,624551,29920
1264.86,1.324487,629900,29839
1268.31,1.320138,634345,30352
1271.75,1.321581,638574,30453
1276.33,1.314805,642499,31122
1279.76,1.317185,645905,31116
1283.19,1.323950,648307,30749
1286.61,1.317209,650446,31333
1290.03,1.320223,652132,31197
1293.44,1.325811,653907,30882
1296.85,1.327596,655963,30852
1301.39,1.330488,657349,30712
1304.8,1.329948,657558,30760
1308.19,1.324397,658515,31201
1311.58,1.326429,658804,31069
1314.97,1.333342,659011,30588
1318.36,1.323472,658272,31256
1321.73,1.323502,658022,31242
1326.23,1.331766,657870,30646
1329.6,1.331856,656482,30575
1332.97,1.322455,654926,31170
1336.33,1.324007,653727,31002
1339.69,1.330108,652497,30512
1343.04,1.328541,649913,30501
1346.39,1.328495,647671,30399
1349.73,1.325103,645338,30527
1354.18,1.327070,641175,30193
1357.52,1.323118,638376,30336
1360.85,1.323691,635805,30174
1364.17,1.329048,633413,29692
1367.49,1.322969,631026,29997
1370.81,1.320569,628050,30021
1374.12,1.332011,625034,29100
1378.54,1.320206,620272,29674
1381.84,1.322335,616892,29368
1385.14,1.319060,613613,29433
1388.43,1.320943,611526,29206
1391.72,1.320850,610663,29171
1395.01,1.323862,610634,28968
1398.29,1.323736,611700,29027
1402.66,1.327547,614051,28884
1405.93,1.326609,616268,29051
1409.2,1.327878,617795,29038
1412.46,1.328096,618872,29074
1415.72,1.325188,619795,29313
1418.98,1.326746,620495,29241
1422.23,1.329095,621087,29111
1426.56,1.329118,621375,29123
1429.8,1.329764,621616,29091
1433.04,1.327784,622129,29248
1436.27,1.330672,621526,29026
1439.5,1.332288,621113,28899
1442.72,1.324541,620921,29410
1445.94,1.334124,620270,28738
1450.23,1.329599,618860,28973
1453.44,1.333878,617697,28635
1456.64,1.328869,616264,28900
1459.85,1.333098,614413,28534
1463.04,1.333330,612307,28421
1466.24,1.335211,610032,28193
1469.43,1.328941,607345,28477
1473.67,1.332040,603789,28109
1476.85,1.331238,601175,28039
1480.02,1.332528,597737,27796
1483.19,1.331014,594479,27741
1486.36,1.330943,591232,27594
1489.52,1.336572,587853,27083
1492.68,1.328680,583875,27393
1496.89,1.329743,578062,27054
1500.03,1.333058,574159,26667
1503.18,1.332175,570285,26541
1506.32,1.326627,565444,26654
1509.45,1.328956,560571,26283
1512.58,1.324897,555821,26305
1515.71,1.331784,550344,25636
1519.87,1.338010,543983,24979
1522.99,1.328398,538764,25293
1526.1,1.330220,533692,24950
1529.21,1.328364,527902,24785
1532.32,1.325688,521886,24654
1535.42,1.325949,515888,24356
1538.51,1.336917,509987,23477
1541.6,1.329427,503936,23602
1545.72,1.335679,494694,22838
1548.8,1.330155,488378,22835
1551.88,1.338346,481832,22108
1554.95,1.322479,474989,22605
1558.02,1.332039,467818,21779
1561.08,1.328149,460730,21642
1564.15,1.331949,454170,21148
1568.22,1.325548,444181,20990
1571.27,1.322616,436947,20788
1574.32,1.327088,429598,20229
1577.36,1.323607,422039,20033
1580.4,1.325226,414375,19596
1583.43,1.327371,406354,19122
1586.46,1.330212,398475,18629
1590.49,1.329214,388982,18227
1593.51,1.322530,380708,18116
1596.53,1.322413,372727,17741
1599.54,1.330640,365060,17050
1602.55,1.324261,357543,16946
1605.55,1.320335,349495,16715
1608.55,1.321803,341154,16261
1612.54,1.332626,330877,15383
1615.53,1.316394,322904,15584
1618.51,1.317285,315116,15177
1621.49,1.308152,307217,15111
1624.47,1.313894,299481,14537
1627.44,1.315807,292112,14117
1630.41,1.301190,284245,14207
1634.36,1.314416,274079,13288
1637.32,1.315011,266916,12923
1640.27,1.296656,259612,13112
1643.22,1.307466,251804,12405
1646.16,1.315722,244348,11811
1649.1,1.310570,236703,11578
1652.04,1.304759,228171,11311
1655.95,1.293967,215408,10947
1658.88,1.306440,204937,10120
1661.8,1.281866,193395,10106
1664.72,1.260167,179728,9873
1667.63,1.248834,163642,9227
1670.54,1.223619,146312,8743
1673.44,1.192600,128451,8244
1677.31,1.160045,105080,7269
1680.21,1.137758,88906,6474
1683.1,1.106762,75033,5868
1685.99,1.115114,63520,4873
1688.87,1.106942,53714,4199
1691.75,1.093268,45653,3683
1694.62,1.154837,39137,2740
1697.49,1.107333,33776,2638
1701.31,1.115812,28175,2158