File: ML/samples/unknown/Column 1_078912_20241121_172811.csv
Method:,Column 1,,
Host Date-Time:,21/11/24 @ 17:28:11,,
Header Version:,1,,
System Temp (C):,36.7,,
Detector Temp (C):,36.39,,
Humidity (%):,0.19,,
Lamp PD:,3795,,
Shift Vector Coefficients:,-10.5391,0.0761263,-0.000134223,,
Pixel to Wavelength Coefficients:,1775.68,-0.916766,-0.000235065,,
Serial Number:,5510004,,
Scan Config Name:,Column 1,,
Scan Config Type:,Slew,,
Section 1,,
Start wavelength (nm):,900,,
End wavelength (nm):,1700,,
Pattern Pixel Width (nm):,   7.03,,,,
Exposure (ms):,  0.635,,,,
Digital Resolution:,228,,
Num Repeats:,6,,
PGA Gain:,64,,
Total Measurement Time in sec:,  2.727,,
Wavelength (nm),Absorbance (AU),Reference Signal (unitless),Sample Signal (unitless)
901.51,1.307503,108485,5344
905.376,1.323309,121306,5762
909.237,1.337587,131909,6063
913.095,1.327390,143299,6743
916.948,1.323927,156982,7446
922.079,1.323408,179937,8545
925.923,1.329041,200504,9399
929.762,1.326412,222660,10501
933.597,1.317371,244426,11770
937.427,1.324335,263972,12509
941.254,1.313734,281845,13686
945.076,1.320375,297271,14216
950.165,1.313064,315605,15349
953.978,1.309167,328029,16097
957.786,1.308687,340470,16726
961.59,1.303053,352317,17534
965.389,1.314634,363056,17593
969.185,1.310706,373162,18247
972.976,1.300885,382632,19138
976.763,1.316330,391202,18883
981.806,1.307227,400190,19726
985.583,1.311692,406088,19812
989.355,1.301604,410162,20481
993.124,1.311579,412868,20148
996.888,1.308264,414263,20371
1000.65,1.304847,415476,20592
1004.4,1.296640,415479,20985
1009.41,1.301741,414358,20684
1013.15,1.303522,412923,20528
1016.89,1.307672,411526,20264
1020.63,1.308101,409066,20123
1024.36,1.310569,406777,19897
1028.09,1.304769,404427,20048
1031.82,1.313784,401911,19514
1036.78,1.299257,398410,20002
1040.49,1.311350,396204,19345
1044.2,1.309030,394236,19352
1047.91,1.304301,392042,19455
1051.61,1.306482,389823,19248
1055.31,1.301628,388234,19385
1059,1.318100,387599,18633
1063.92,1.311773,386688,18862
1067.61,1.318074,386598,18586
1071.29,1.318878,387377,18589
1074.96,1.310541,388536,19006
1078.63,1.310461,389855,19074
1082.3,1.319113,391215,18763
1085.96,1.306896,393215,19397
1090.84,1.312231,396270,19309
1094.49,1.312105,398760,19436
1098.14,1.311739,400987,19561
1101.79,1.308759,403477,19818
1105.43,1.310430,406116,19871
1109.06,1.306412,407701,20134
1112.7,1.306724,409859,20226
1117.53,1.309486,412494,20227
1121.15,1.320127,414909,19853
1124.77,1.315121,416559,20163
1128.38,1.318446,418532,20104
1131.99,1.311365,419956,20504
1135.6,1.320314,421946,20181
1139.2,1.311630,423881,20683
1143.99,1.322564,426786,20307
1147.58,1.317507,428617,20633
1151.17,1.311127,431169,21063
1154.75,1.318713,433579,20814
1158.33,1.318773,436264,20940
1161.91,1.318395,439132,21096
1165.48,1.323399,442389,21009
1169.04,1.312014,446101,21748
1173.79,1.310717,451929,22098
1177.34,1.316843,456026,21986
1180.9,1.312386,461306,22470
1184.44,1.318344,467657,22469
1187.99,1.313890,473969,23007
1191.52,1.318308,479856,23057
1195.06,1.314195,487372,23641
1199.76,1.317826,497347,23924
1203.29,1.322324,504311,24009
1206.81,1.322549,511507,24339
1210.33,1.315628,519078,25096
1213.84,1.318945,527163,25293
1217.35,1.322842,534208,25402
1220.85,1.321238,540472,25795
1225.51,1.325367,549929,25998
1229.01,1.326903,556888,26234
1232.5,1.320575,562180,26872
1235.98,1.323271,567975,26981
1239.46,1.316343,574815,27745
1242.94,1.325448,582782,27546
1246.41,1.321488,591476,28213
1251.03,1.327455,604016,28418
1254.5,1.316267,612289,29559
1257.96,1.323269,619125,29411
1261.41,1.327221,624551,29400
1264.86,1.327657,629900,29622
1268.31,1.323716,634345,30103
1271.75,1.329192,638574,29924
1276.33,1.325399,642499,30372
1279.76,1.325726,645905,30510
1283.19,1.322695,648307,30838
1286.61,1.324886,650446,30784
1290.03,1.324237,652132,30910
1293.44,1.325192,653907,30926
1296.85,1.327455,655963,30862
1301.39,1.326350,657349,31006
1304.8,1.331433,657558,30655
1308.19,1.329071,658515,30867
1311.58,1.326177,658804,31087
1314.97,1.321604,659011,31426
1318.36,1.331111,658272,30711
1321.73,1.335481,658022,30392
1326.23,1.327788,657870,30928
1329.6,1.325833,656482,31002
1332.97,1.329309,654926,30682
1336.33,1.323363,653727,31048
1339.69,1.325774,652497,30818
1343.04,1.329439,649913,30438
1346.39,1.329525,647671,30327
1349.73,1.321999,645338,30746
1354.18,1.328800,641175,30073
1357.52,1.331210,638376,29776
1360.85,1.326290,635805,29994
1364.17,1.321522,633413,30211
1367.49,1.322738,631026,30013
1370.81,1.324070,628050,29780
1374.12,1.326141,625034,29496
1378.54,1.324250,620272,29399
1381.84,1.318859,616892,29604
1385.14,1.320553,613613,29332
1388.43,1.322268,611526,29117
1391.72,1.325550,610663,28857
1395.01,1.327234,610634,28744
1398.29,1.323647,611700,29033
1402.66,1.322628,614051,29213
1405.93,1.331117,616268,28751
1409.2,1.326728,617795,29115
1412.46,1.331816,618872,28826
1415.72,1.333625,619795,28749
1418.98,1.326627,620495,29249
1422.23,1.327071,621087,29247
1426.56,1.336821,621375,28611
1429.8,1.331874,621616,28950
1433.04,1.334639,622129,28790
1436.27,1.331526,621526,28969
1439.5,1.332724,621113,28870
1442.72,1.331493,620921,28943
1445.94,1.337919,620270,28488
1450.23,1.335439,618860,28586
1453.44,1.334501,617697,28594
1456.64,1.327294,616264,29005
1459.85,1.334195,614413,28462
1463.04,1.335828,612307,28258
1466.24,1.338427,610032,27985
1469.43,1.330653,607345,28365
1473.67,1.333030,603789,28045
1476.85,1.341441,601175,27388
1480.02,1.326985,597737,28153
1483.19,1.331547,594479,27707
1486.36,1.332315,591232,27507
1489.52,1.331661,587853,27391
1492.68,1.334602,583875,27022
1496.89,1.330965,578062,26978
1500.03,1.337231,574159,26412
1503.18,1.332862,570285,26499
1506.32,1.332797,565444,26278
1509.45,1.335012,560571,25919
1512.58,1.343259,555821,25216
1515.71,1.337205,550344,25318
1519.87,1.337663,543983,24999
1522.99,1.335670,538764,24873
1526.1,1.338728,533692,24466
1529.21,1.333139,527902,24514
1532.32,1.333061,521886,24239
1535.42,1.330070,515888,24126
1538.51,1.331914,509987,23749
1541.6,1.332603,503936,23430
1545.72,1.334653,494694,22892
1548.8,1.337966,488378,22428
1551.88,1.338621,481832,22094
1554.95,1.332154,474989,22107
1558.02,1.331760,467818,21793
1561.08,1.334741,460730,21316
1564.15,1.325649,454170,21457
1568.22,1.336888,444181,20449
1571.27,1.323934,436947,20725
1574.32,1.330688,429598,20062
1577.36,1.324344,422039,19999
1580.4,1.326002,414375,19561
1583.43,1.331066,406354,18960
1586.46,1.335111,398475,18420
1590.49,1.329190,388982,18228
1593.51,1.329416,380708,17831
1596.53,1.325015,372727,17635
1599.54,1.317642,365060,17568
1602.55,1.328045,357543,16799
1605.55,1.322496,349495,16632
1608.55,1.320417,341154,16313
1612.54,1.326988,330877,15584
1615.53,1.317371,322904,15549
1618.51,1.332336,315116,14660
1621.49,1.321934,307217,14639
1624.47,1.321185,299481,14295
1627.44,1.314701,292112,14153
1630.41,1.319261,284245,13628
1634.36,1.310317,274079,13414
1637.32,1.317100,266916,12861
1640.27,1.321780,259612,12375
1643.22,1.319643,251804,12062
1646.16,1.317159,244348,11772
1649.1,1.319055,236703,11354
1652.04,1.302729,228171,11364
1655.95,1.307465,215408,10612
1658.88,1.275591,204937,10865
1661.8,1.295352,193395,9797
1664.72,1.246911,179728,10179
1667.63,1.241785,163642,9378
1670.54,1.226660,146312,8682
1673.44,1.186895,128451,8353
1677.31,1.156594,105080,7327
1680.21,1.125587,88906,6658
1683.1,1.120216,75033,5689
1685.99,1.164421,63520,4350
1688.87,1.114243,53714,4129
1691.75,1.116768,45653,3489
1694.62,1.107576,39137,3055
1697.49,1.065761,33776,2903
1701.31,1.140447,28175,2039