File: ML/samples/unknown/Column 1_078138_20241121_164720.csv
Method:,Column 1,,
Host Date-Time:,21/11/24 @ 16:47:20,,
Header Version:,1,,
System Temp (C):,33.13,,
Detector Temp (C):,28.87,,
Humidity (%):,3.42,,
Lamp PD:,3806,,
Shift Vector Coefficients:,-10.5391,0.0761263,-0.000134223,,
Pixel to Wavelength Coefficients:,1775.68,-0.916766,-0.000235065,,
Serial Number:,5510004,,
Scan Config Name:,Column 1,,
Scan Config Type:,Slew,,
Section 1,,
Start wavelength (nm):,900,,
End wavelength (nm):,1700,,
Pattern Pixel Width (nm):,   7.03,,,,
Exposure (ms):,  0.635,,,,
Digital Resolution:,228,,
Num Repeats:,6,,
PGA Gain:,64,,
Total Measurement Time in sec:,  2.702,,
Wavelength (nm),Absorbance (AU),Reference Signal (unitless),Sample Signal (unitless)
901.51,1.303137,108485,5398
905.376,1.321804,121306,5782
909.237,1.310042,131909,6460
913.095,1.320553,143299,6850
916.948,1.322995,156982,7462
922.079,1.342367,179937,8180
925.923,1.319174,200504,9615
929.762,1.310415,222660,10895
933.597,1.324214,244426,11586
937.427,1.303790,263972,13115
941.254,1.326289,281845,13296
945.076,1.314639,297271,14405
950.165,1.319650,315605,15118
953.978,1.316953,328029,15811
957.786,1.314016,340470,16522
961.59,1.310371,352317,17241
965.389,1.314288,363056,17607
969.185,1.314411,373162,18092
972.976,1.310499,382632,18719
976.763,1.301855,391202,19523
981.806,1.317407,400190,19269
985.583,1.324912,406088,19218
989.355,1.310711,410162,20056
993.124,1.320002,412868,19761
996.888,1.308733,414263,20349
1000.65,1.314443,415476,20142
1004.4,1.321511,415479,19817
1009.41,1.310265,414358,20282
1013.15,1.325567,412923,19512
1016.89,1.318742,411526,19754
1020.63,1.312068,409066,19940
1024.36,1.314273,406777,19728
1028.09,1.318010,404427,19446
1031.82,1.312939,401911,19552
1036.78,1.313290,398410,19366
1040.49,1.323715,396204,18802
1044.2,1.314450,394236,19112
1047.91,1.313574,392042,19044
1051.61,1.313189,389823,18953
1055.31,1.306041,388234,19189
1059,1.321375,387599,18493
1063.92,1.319251,386688,18540
1067.61,1.315790,386598,18684
1071.29,1.320798,387377,18507
1074.96,1.329097,388536,18211
1078.63,1.319433,389855,18684
1082.3,1.318651,391215,18783
1085.96,1.311781,393215,19180
1090.84,1.323118,396270,18831
1094.49,1.321821,398760,19006
1098.14,1.318181,400987,19273
1101.79,1.324263,403477,19123
1105.43,1.321834,406116,19356
1109.06,1.324672,407701,19305
1112.7,1.320002,409859,19617
1117.53,1.324560,412494,19537
1121.15,1.319536,414909,19880
1124.77,1.320017,416559,19937
1128.38,1.331850,418532,19493
1131.99,1.321978,419956,20009
1135.6,1.319476,421946,20220
1139.2,1.328500,423881,19895
1143.99,1.333348,426786,19809
1147.58,1.319575,428617,20535
1151.17,1.326147,431169,20347
1154.75,1.321056,433579,20702
1158.33,1.319728,436264,20894
1161.91,1.325493,439132,20754
1165.48,1.319571,442389,21195
1169.04,1.327938,446101,20965
1173.79,1.327568,451929,21257
1177.34,1.318070,456026,21924
1180.9,1.325652,461306,21794
1184.44,1.328394,467657,21955
1187.99,1.326531,473969,22347
1191.52,1.325640,479856,22671
1195.06,1.324249,487372,23100
1199.76,1.322590,497347,23663
1203.29,1.321367,504311,24062
1206.81,1.329764,511507,23938
1210.33,1.332387,519078,24146
1213.84,1.324822,527163,24953
1217.35,1.322518,534208,25421
1220.85,1.323364,540472,25669
1225.51,1.328081,549929,25836
1229.01,1.330544,556888,26015
1232.5,1.327893,562180,26423
1235.98,1.321312,567975,27103
1239.46,1.328341,574815,26989
1242.94,1.321477,582782,27799
1246.41,1.333347,591476,27453
1251.03,1.325427,604016,28551
1254.5,1.325878,612289,28912
1257.96,1.334927,619125,28632
1261.41,1.331049,624551,29142
1264.86,1.330201,629900,29449
1268.31,1.330828,634345,29614
1271.75,1.330049,638574,29865
1276.33,1.331461,642499,29951
1279.76,1.331501,645905,30107
1283.19,1.332177,648307,30172
1286.61,1.331726,650446,30303
1290.03,1.335293,652132,30133
1293.44,1.336445,653907,30135
1296.85,1.335838,655963,30272
1301.39,1.339446,657349,30085
1304.8,1.334347,657558,30450
1308.19,1.335721,658515,30398
1311.58,1.337572,658804,30282
1314.97,1.329075,659011,30890
1318.36,1.336891,658272,30305
1321.73,1.331527,658022,30670
1326.23,1.338104,657870,30202
1329.6,1.343356,656482,29776
1332.97,1.332790,654926,30437
1336.33,1.330286,653727,30557
1339.69,1.333954,652497,30243
1343.04,1.336096,649913,29975
1346.39,1.327682,647671,30456
1349.73,1.335935,645338,29775
1354.18,1.336302,641175,29558
1357.52,1.337602,638376,29341
1360.85,1.334121,635805,29458
1364.17,1.338287,633413,29067
1367.49,1.329504,631026,29549
1370.81,1.325413,628050,29688
1374.12,1.335637,625034,28858
1378.54,1.334307,620272,28726
1381.84,1.329386,616892,28895
1385.14,1.334790,613613,28386
1388.43,1.324751,611526,28951
1391.72,1.330363,610663,28539
1395.01,1.335439,610634,28206
1398.29,1.333465,611700,28384
1402.66,1.336986,614051,28263
1405.93,1.328496,616268,28925
1409.2,1.329361,617795,28939
1412.46,1.333447,618872,28718
1415.72,1.332449,619795,28827
1418.98,1.344480,620495,28071
1422.23,1.335649,621087,28675
1426.56,1.331510,621375,28963
1429.8,1.331319,621616,28987
1433.04,1.332697,622129,28919
1436.27,1.337245,621526,28590
1439.5,1.336865,621113,28596
1442.72,1.338298,620921,28493
1445.94,1.336625,620270,28573
1450.23,1.338549,618860,28382
1453.44,1.342208,617697,28091
1456.64,1.339857,616264,28178
1459.85,1.338257,614413,28197
1463.04,1.340122,612307,27980
1466.24,1.333290,610032,28318
1469.43,1.335518,607345,28049
1473.67,1.336684,603789,27810
1476.85,1.346625,601175,27063
1480.02,1.343525,597737,27101
1483.19,1.337243,594479,27346
1486.36,1.345849,591232,26663
1489.52,1.338936,587853,26936
1492.68,1.346827,583875,26272
1496.89,1.346684,578062,26019
1500.03,1.340433,574159,26218
1503.18,1.338438,570285,26161
1506.32,1.340972,565444,25788
1509.45,1.344550,560571,25356
1512.58,1.346717,555821,25016
1515.71,1.343059,550344,24979
1519.87,1.340591,543983,24831
1522.99,1.341117,538764,24563
1526.1,1.344230,533692,24158
1529.21,1.343665,527902,23927
1532.32,1.339541,521886,23880
1535.42,1.341303,515888,23510
1538.51,1.347155,509987,22930
1541.6,1.338914,503936,23092
1545.72,1.345837,494694,22310
1548.8,1.334168,488378,22625
1551.88,1.337698,481832,22141
1554.95,1.335209,474989,21952
1558.02,1.342330,467818,21269
1561.08,1.342989,460730,20915
1564.15,1.342004,454170,20664
1568.22,1.336845,444181,20451
1571.27,1.343522,436947,19811
1574.32,1.344657,429598,19427
1577.36,1.346439,422039,19007
1580.4,1.337932,414375,19031
1583.43,1.336970,406354,18704
1586.46,1.335630,398475,18398
1590.49,1.334006,388982,18027
1593.51,1.330514,380708,17786
1596.53,1.335913,372727,17198
1599.54,1.333323,365060,16945
1602.55,1.337664,357543,16431
1605.55,1.332882,349495,16239
1608.55,1.330271,341154,15947
1612.54,1.336881,330877,15233
1615.53,1.328862,322904,15143
1618.51,1.331597,315116,14685
1621.49,1.335065,307217,14203
1624.47,1.336711,299481,13793
1627.44,1.325324,292112,13811
1630.41,1.333580,284245,13186
1634.36,1.322665,274079,13038
1637.32,1.332638,266916,12409
1640.27,1.324420,259612,12300
1643.22,1.326173,251804,11882
1646.16,1.333971,244348,11325
1649.1,1.313091,236703,11511
1652.04,1.319124,228171,10943
1655.95,1.325471,215408,10181
1658.88,1.306654,204937,10115
1661.8,1.308310,193395,9509
1664.72,1.311765,179728,8767
1667.63,1.310642,163642,8003
1670.54,1.321611,146312,6977
1673.44,1.273554,128451,6842
1677.31,1.284487,105080,5458
1680.21,1.317589,88906,4279
1683.1,1.325146,75033,3549
1685.99,1.322904,63520,3020
1688.87,1.267689,53714,2900
1691.75,1.183218,45653,2994
1694.62,1.339977,39137,1789
1697.49,1.339680,33776,1545
1701.31,1.218904,28175,1702