File: ML/samples/unknown/Column 1_078086_20241121_164447.csv
Method:,Column 1,,
Host Date-Time:,21/11/24 @ 16:44:47,,
Header Version:,1,,
System Temp (C):,31.95,,
Detector Temp (C):,26.85,,
Humidity (%):,4.54,,
Lamp PD:,3808,,
Shift Vector Coefficients:,-10.5391,0.0761263,-0.000134223,,
Pixel to Wavelength Coefficients:,1775.68,-0.916766,-0.000235065,,
Serial Number:,5510004,,
Scan Config Name:,Column 1,,
Scan Config Type:,Slew,,
Section 1,,
Start wavelength (nm):,900,,
End wavelength (nm):,1700,,
Pattern Pixel Width (nm):,   7.03,,,,
Exposure (ms):,  0.635,,,,
Digital Resolution:,228,,
Num Repeats:,6,,
PGA Gain:,64,,
Total Measurement Time in sec:,  2.708,,
Wavelength (nm),Absorbance (AU),Reference Signal (unitless),Sample Signal (unitless)
901.51,1.301050,108485,5424
905.376,1.306673,121306,5987
909.237,1.315454,131909,6380
913.095,1.300906,143299,7167
916.948,1.316295,156982,7578
922.079,1.310194,179937,8809
925.923,1.303907,200504,9959
929.762,1.318177,222660,10702
933.597,1.299515,244426,12264
937.427,1.322914,263972,12550
941.254,1.322161,281845,13423
945.076,1.316664,297271,14338
950.165,1.304408,315605,15658
953.978,1.302687,328029,16339
957.786,1.302116,340470,16981
961.59,1.322737,352317,16757
965.389,1.301576,363056,18130
969.185,1.307198,373162,18395
972.976,1.313572,382632,18587
976.763,1.307091,391202,19289
981.806,1.314420,400190,19402
985.583,1.317007,406088,19571
989.355,1.314146,410162,19898
993.124,1.309215,412868,20258
996.888,1.303957,414263,20574
1000.65,1.305734,415476,20550
1004.4,1.310625,415479,20320
1009.41,1.299438,414358,20794
1013.15,1.309337,412923,20255
1016.89,1.314585,411526,19944
1020.63,1.305733,409066,20233
1024.36,1.305772,406777,20118
1028.09,1.300051,404427,20267
1031.82,1.316418,401911,19396
1036.78,1.306791,398410,19658
1040.49,1.307840,396204,19502
1044.2,1.312138,394236,19214
1047.91,1.310869,392042,19163
1051.61,1.312000,389823,19005
1055.31,1.315768,388234,18764
1059,1.310201,387599,18975
1063.92,1.313110,386688,18804
1067.61,1.315348,386598,18703
1071.29,1.305059,387377,19190
1074.96,1.310838,388536,18993
1078.63,1.318110,389855,18741
1082.3,1.323019,391215,18595
1085.96,1.320888,393215,18782
1090.84,1.316367,396270,19126
1094.49,1.313784,398760,19361
1098.14,1.309127,400987,19679
1101.79,1.308387,403477,19835
1105.43,1.317326,406116,19558
1109.06,1.316228,407701,19684
1112.7,1.316298,409859,19785
1117.53,1.321680,412494,19667
1121.15,1.322034,414909,19766
1124.77,1.320845,416559,19899
1128.38,1.313527,418532,20333
1131.99,1.312723,419956,20440
1135.6,1.313143,421946,20517
1139.2,1.317720,423881,20395
1143.99,1.320261,426786,20415
1147.58,1.316792,428617,20667
1151.17,1.315854,431169,20835
1154.75,1.321896,433579,20662
1158.33,1.313987,436264,21172
1161.91,1.315441,439132,21240
1165.48,1.320761,442389,21137
1169.04,1.317278,446101,21486
1173.79,1.317012,451929,21780
1177.34,1.323492,456026,21652
1180.9,1.317284,461306,22218
1184.44,1.320339,467657,22366
1187.99,1.313531,473969,23026
1191.52,1.319157,479856,23012
1195.06,1.316904,487372,23494
1199.76,1.318189,497347,23904
1203.29,1.323974,504311,23918
1206.81,1.321925,511507,24374
1210.33,1.325570,519078,24528
1213.84,1.323814,527163,25011
1217.35,1.314243,534208,25910
1220.85,1.327786,540472,25409
1225.51,1.321956,549929,26203
1229.01,1.317860,556888,26786
1232.5,1.322016,562180,26783
1235.98,1.318660,567975,27269
1239.46,1.322761,574815,27338
1242.94,1.321790,582782,27779
1246.41,1.320857,591476,28254
1251.03,1.321189,604016,28831
1254.5,1.326510,612289,28870
1257.96,1.323815,619125,29374
1261.41,1.325260,624551,29533
1264.86,1.328288,629900,29579
1268.31,1.332386,634345,29508
1271.75,1.327208,638574,30061
1276.33,1.329652,642499,30076
1279.76,1.328855,645905,30291
1283.19,1.329236,648307,30377
1286.61,1.326342,650446,30681
1290.03,1.330150,652132,30492
1293.44,1.329454,653907,30624
1296.85,1.331059,655963,30607
1301.39,1.331819,657349,30618
1304.8,1.330753,657558,30703
1308.19,1.328467,658515,30910
1311.58,1.327871,658804,30966
1314.97,1.335462,659011,30439
1318.36,1.332258,658272,30630
1321.73,1.332491,658022,30602
1326.23,1.335338,657870,30395
1329.6,1.329646,656482,30731
1332.97,1.330003,654926,30633
1336.33,1.323027,653727,31072
1339.69,1.326395,652497,30774
1343.04,1.326085,649913,30674
1346.39,1.335291,647671,29927
1349.73,1.332261,645338,30028
1354.18,1.331712,641175,29872
1357.52,1.333682,638376,29607
1360.85,1.324671,635805,30106
1364.17,1.330527,633413,29591
1367.49,1.327320,631026,29698
1370.81,1.328968,628050,29446
1374.12,1.323894,625034,29649
1378.54,1.332376,620272,28854
1381.84,1.326854,616892,29064
1385.14,1.328562,613613,28796
1388.43,1.333372,611526,28382
1391.72,1.328647,610663,28652
1395.01,1.324703,610634,28912
1398.29,1.327282,611700,28791
1402.66,1.331110,614051,28648
1405.93,1.334620,616268,28520
1409.2,1.327713,617795,29049
1412.46,1.335508,618872,28582
1415.72,1.332162,619795,28846
1418.98,1.329562,620495,29052
1422.23,1.331849,621087,28927
1426.56,1.333780,621375,28812
1429.8,1.330541,621616,29039
1433.04,1.333238,622129,28883
1436.27,1.331256,621526,28987
1439.5,1.327922,621113,29191
1442.72,1.332169,620921,28898
1445.94,1.337782,620270,28497
1450.23,1.337251,618860,28467
1453.44,1.329863,617697,28901
1456.64,1.335578,616264,28457
1459.85,1.331018,614413,28671
1463.04,1.335782,612307,28261
1466.24,1.333290,610032,28318
1469.43,1.336169,607345,28007
1473.67,1.339284,603789,27644
1476.85,1.334800,601175,27810
1480.02,1.330517,597737,27925
1483.19,1.331516,594479,27709
1486.36,1.336822,591232,27223
1489.52,1.327165,587853,27676
1492.68,1.332630,583875,27145
1496.89,1.335642,578062,26689
1500.03,1.337543,574159,26393
1503.18,1.338471,570285,26159
1506.32,1.337333,565444,26005
1509.45,1.341206,560571,25552
1512.58,1.338173,555821,25513
1515.71,1.342069,550344,25036
1519.87,1.335341,543983,25133
1522.99,1.342658,538764,24476
1526.1,1.345039,533692,24113
1529.21,1.335751,527902,24367
1532.32,1.339141,521886,23902
1535.42,1.343544,515888,23389
1538.51,1.336584,509987,23495
1541.6,1.341725,503936,22943
1545.72,1.341075,494694,22556
1548.8,1.325313,488378,23091
1551.88,1.337895,481832,22131
1554.95,1.333413,474989,22043
1558.02,1.338002,467818,21482
1561.08,1.336803,460730,21215
1564.15,1.329206,454170,21282
1568.22,1.341135,444181,20250
1571.27,1.339898,436947,19977
1574.32,1.338949,429598,19684
1577.36,1.335296,422039,19501
1580.4,1.333211,414375,19239
1583.43,1.337830,406354,18667
1586.46,1.336528,398475,18360
1590.49,1.324310,388982,18434
1593.51,1.327593,380708,17906
1596.53,1.326520,372727,17574
1599.54,1.333451,365060,16940
1602.55,1.329002,357543,16762
1605.55,1.330987,349495,16310
1608.55,1.324294,341154,16168
1612.54,1.319829,330877,15843
1615.53,1.317930,322904,15529
1618.51,1.334177,315116,14598
1621.49,1.325479,307217,14520
1624.47,1.337467,299481,13769
1627.44,1.330385,292112,13651
1630.41,1.324874,284245,13453
1634.36,1.325539,274079,12952
1637.32,1.324971,266916,12630
1640.27,1.315128,259612,12566
1643.22,1.320905,251804,12027
1646.16,1.316790,244348,11782
1649.1,1.325607,236703,11184
1652.04,1.314662,228171,11056
1655.95,1.313689,215408,10461
1658.88,1.305197,204937,10149
1661.8,1.317076,193395,9319
1664.72,1.301291,179728,8981
1667.63,1.305839,163642,8092
1670.54,1.303089,146312,7281
1673.44,1.314180,128451,6231
1677.31,1.311064,105080,5134
1680.21,1.335195,88906,4109
1683.1,1.299718,75033,3763
1685.99,1.342313,63520,2888
1688.87,1.349153,53714,2404
1691.75,1.325217,45653,2159
1694.62,1.340949,39137,1785
1697.49,1.268537,33776,1820
1701.31,1.149051,28175,1999