File: ML/samples/unknown/Column 1_078249_20241121_165248.csv
Method:,Column 1,,
Host Date-Time:,21/11/24 @ 16:52:48,,
Header Version:,1,,
System Temp (C):,34.31,,
Detector Temp (C):,31.73,,
Humidity (%):,2.45,,
Lamp PD:,3803,,
Shift Vector Coefficients:,-10.5391,0.0761263,-0.000134223,,
Pixel to Wavelength Coefficients:,1775.68,-0.916766,-0.000235065,,
Serial Number:,5510004,,
Scan Config Name:,Column 1,,
Scan Config Type:,Slew,,
Section 1,,
Start wavelength (nm):,900,,
End wavelength (nm):,1700,,
Pattern Pixel Width (nm):,   7.03,,,,
Exposure (ms):,  0.635,,,,
Digital Resolution:,228,,
Num Repeats:,6,,
PGA Gain:,64,,
Total Measurement Time in sec:,  2.725,,
Wavelength (nm),Absorbance (AU),Reference Signal (unitless),Sample Signal (unitless)
901.51,1.320956,108485,5181
905.376,1.318959,121306,5820
909.237,1.315250,131909,6383
913.095,1.335188,143299,6623
916.948,1.332468,156982,7301
922.079,1.323561,179937,8542
925.923,1.326645,200504,9451
929.762,1.332912,222660,10345
933.597,1.319850,244426,11703
937.427,1.316866,263972,12726
941.254,1.310352,281845,13793
945.076,1.326652,297271,14012
950.165,1.308784,315605,15501
953.978,1.314160,328029,15913
957.786,1.313228,340470,16552
961.59,1.311961,352317,17178
965.389,1.318029,363056,17456
969.185,1.317809,373162,17951
972.976,1.297314,382632,19296
976.763,1.303861,391202,19433
981.806,1.306084,400190,19778
985.583,1.311319,406088,19829
989.355,1.312230,410162,19986
993.124,1.310460,412868,20200
996.888,1.299484,414263,20787
1000.65,1.308980,415476,20397
1004.4,1.319282,415479,19919
1009.41,1.309046,414358,20339
1013.15,1.311680,412923,20146
1016.89,1.306046,411526,20340
1020.63,1.305004,409066,20267
1024.36,1.311574,406777,19851
1028.09,1.305658,404427,20007
1031.82,1.304601,401911,19931
1036.78,1.307720,398410,19616
1040.49,1.308352,396204,19479
1044.2,1.303234,394236,19612
1047.91,1.314305,392042,19012
1051.61,1.323884,389823,18492
1055.31,1.312081,388234,18924
1059,1.313117,387599,18848
1063.92,1.304150,386688,19196
1067.61,1.311603,386598,18865
1071.29,1.309106,387377,19012
1074.96,1.311341,388536,18971
1078.63,1.317208,389855,18780
1082.3,1.304614,391215,19400
1085.96,1.316059,393215,18992
1090.84,1.316799,396270,19107
1094.49,1.314255,398760,19340
1098.14,1.320984,400987,19149
1101.79,1.319205,403477,19347
1105.43,1.314603,406116,19681
1109.06,1.329195,407701,19105
1112.7,1.315443,409859,19824
1117.53,1.318314,412494,19820
1121.15,1.307621,414909,20433
1124.77,1.308431,416559,20476
1128.38,1.317799,418532,20134
1131.99,1.317874,419956,20199
1135.6,1.314840,421946,20437
1139.2,1.323918,423881,20106
1143.99,1.318838,426786,20482
1147.58,1.312880,428617,20854
1151.17,1.317713,431169,20746
1154.75,1.317400,433579,20877
1158.33,1.317323,436264,21010
1161.91,1.313380,439132,21341
1165.48,1.318875,442389,21229
1169.04,1.312533,446101,21722
1173.79,1.315400,451929,21861
1177.34,1.316330,456026,22012
1180.9,1.317480,461306,22208
1184.44,1.317977,467657,22488
1187.99,1.319074,473969,22734
1191.52,1.314725,479856,23248
1195.06,1.316534,487372,23514
1199.76,1.324171,497347,23577
1203.29,1.318937,504311,24197
1206.81,1.318305,511507,24578
1210.33,1.313832,519078,25200
1213.84,1.322704,527163,25075
1217.35,1.330518,534208,24957
1220.85,1.322300,540472,25732
1225.51,1.320285,549929,26304
1229.01,1.323194,556888,26459
1232.5,1.324782,562180,26613
1235.98,1.327850,567975,26698
1239.46,1.327409,574815,27047
1242.94,1.321899,582782,27772
1246.41,1.319399,591476,28349
1251.03,1.322516,604016,28743
1254.5,1.323631,612289,29062
1257.96,1.326217,619125,29212
1261.41,1.327191,624551,29402
1264.86,1.325566,629900,29765
1268.31,1.325450,634345,29983
1271.75,1.330602,638574,29827
1276.33,1.329681,642499,30074
1279.76,1.334541,645905,29897
1283.19,1.330826,648307,30266
1286.61,1.333492,650446,30180
1290.03,1.335783,652132,30099
1293.44,1.330789,653907,30530
1296.85,1.328456,655963,30791
1301.39,1.326294,657349,31010
1304.8,1.332497,657558,30580
1308.19,1.327344,658515,30990
1311.58,1.333361,658804,30577
1314.97,1.334422,659011,30512
1318.36,1.333380,658272,30551
1321.73,1.333357,658022,30541
1326.23,1.332220,657870,30614
1329.6,1.329929,656482,30711
1332.97,1.332477,654926,30459
1336.33,1.339958,653727,29884
1339.69,1.331948,652497,30383
1343.04,1.333481,649913,30156
1346.39,1.330557,647671,30255
1349.73,1.337279,645338,29683
1354.18,1.330507,641175,29955
1357.52,1.323505,638376,30309
1360.85,1.322972,635805,30224
1364.17,1.327019,633413,29831
1367.49,1.328316,631026,29630
1370.81,1.329219,628050,29429
1374.12,1.330744,625034,29185
1378.54,1.324811,620272,29361
1381.84,1.329161,616892,28910
1385.14,1.323808,613613,29113
1388.43,1.325818,611526,28880
1391.72,1.332682,610663,28387
1395.01,1.324868,610634,28901
1398.29,1.330598,611700,28572
1402.66,1.334351,614051,28435
1405.93,1.329759,616268,28841
1409.2,1.328671,617795,28985
1412.46,1.327738,618872,29098
1415.72,1.334064,619795,28720
1418.98,1.333949,620495,28760
1422.23,1.327279,621087,29233
1426.56,1.332456,621375,28900
1429.8,1.337293,621616,28591
1433.04,1.336210,622129,28686
1436.27,1.329581,621526,29099
1439.5,1.334759,621113,28735
1442.72,1.329546,620921,29073
1445.94,1.339997,620270,28352
1450.23,1.331582,618860,28841
1453.44,1.331504,617697,28792
1456.64,1.334739,616264,28512
1459.85,1.331457,614413,28642
1463.04,1.335951,612307,28250
1466.24,1.333889,610032,28279
1469.43,1.335688,607345,28038
1473.67,1.333030,603789,28045
1476.85,1.332541,601175,27955
1480.02,1.340395,597737,27297
1483.19,1.335041,594479,27485
1486.36,1.340764,591232,26977
1489.52,1.340810,587853,26820
1492.68,1.338136,583875,26803
1496.89,1.331222,578062,26962
1500.03,1.334902,574159,26554
1503.18,1.340034,570285,26065
1506.32,1.332516,565444,26295
1509.45,1.342380,560571,25483
1512.58,1.338071,555821,25519
1515.71,1.338287,550344,25255
1519.87,1.340504,543983,24836
1522.99,1.341701,538764,24530
1526.1,1.341095,533692,24333
1529.21,1.340590,527902,24097
1532.32,1.341528,521886,23771
1535.42,1.333504,515888,23936
1538.51,1.332646,509987,23709
1541.6,1.331418,503936,23494
1545.72,1.334615,494694,22894
1548.8,1.328636,488378,22915
1551.88,1.337012,481832,22176
1554.95,1.329080,474989,22264
1558.02,1.332797,467818,21741
1561.08,1.339411,460730,21088
1564.15,1.336761,454170,20915
1568.22,1.339829,444181,20311
1571.27,1.332035,436947,20342
1574.32,1.341960,429598,19548
1577.36,1.325889,422039,19928
1580.4,1.326269,414375,19549
1583.43,1.326963,406354,19140
1586.46,1.336103,398475,18378
1590.49,1.321726,388982,18544
1593.51,1.330734,380708,17777
1596.53,1.328080,372727,17511
1599.54,1.335326,365060,16867
1602.55,1.333665,357543,16583
1605.55,1.326826,349495,16467
1608.55,1.336084,341154,15735
1612.54,1.325152,330877,15650
1615.53,1.327716,322904,15183
1618.51,1.315258,315116,15248
1621.49,1.341534,307217,13993
1624.47,1.327212,299481,14098
1627.44,1.326931,292112,13760
1630.41,1.316307,284245,13721
1634.36,1.315922,274079,13242
1637.32,1.317607,266916,12846
1640.27,1.313300,259612,12619
1643.22,1.315487,251804,12178
1646.16,1.308900,244348,11998
1649.1,1.320626,236703,11313
1652.04,1.320276,228171,10914
1655.95,1.301773,215408,10752
1658.88,1.289274,204937,10528
1661.8,1.312072,193395,9427
1664.72,1.282923,179728,9369
1667.63,1.276728,163642,8653
1670.54,1.276820,146312,7735
1673.44,1.221458,128451,7714
1677.31,1.229970,105080,6188
1680.21,1.199581,88906,5615
1683.1,1.196188,75033,4776
1685.99,1.182358,63520,4174
1688.87,1.163297,53714,3688
1691.75,1.188471,45653,2958
1694.62,1.233891,39137,2284
1697.49,1.155696,33776,2360
1701.31,1.246831,28175,1596