File: ML/samples/unknown/Column 1_078964_20241121_173041.csv
Method:,Column 1,,
Host Date-Time:,21/11/24 @ 17:30:41,,
Header Version:,1,,
System Temp (C):,37.87,,
Detector Temp (C):,36.83,,
Humidity (%):,0.68,,
Lamp PD:,3795,,
Shift Vector Coefficients:,-10.5391,0.0761263,-0.000134223,,
Pixel to Wavelength Coefficients:,1775.68,-0.916766,-0.000235065,,
Serial Number:,5510004,,
Scan Config Name:,Column 1,,
Scan Config Type:,Slew,,
Section 1,,
Start wavelength (nm):,900,,
End wavelength (nm):,1700,,
Pattern Pixel Width (nm):,   7.03,,,,
Exposure (ms):,  0.635,,,,
Digital Resolution:,228,,
Num Repeats:,6,,
PGA Gain:,64,,
Total Measurement Time in sec:,  2.706,,
Wavelength (nm),Absorbance (AU),Reference Signal (unitless),Sample Signal (unitless)
901.51,1.327034,108485,5109
905.376,1.293879,121306,6166
909.237,1.318802,131909,6331
913.095,1.341263,143299,6531
916.948,1.317558,156982,7556
922.079,1.319210,179937,8628
925.923,1.334201,200504,9288
929.762,1.328859,222660,10442
933.597,1.327827,244426,11490
937.427,1.321705,263972,12585
941.254,1.332938,281845,13094
945.076,1.312714,297271,14469
950.165,1.326599,315605,14878
953.978,1.316459,328029,15829
957.786,1.312861,340470,16566
961.59,1.307209,352317,17367
965.389,1.304243,363056,18019
969.185,1.302548,373162,18593
972.976,1.309479,382632,18763
976.763,1.303147,391202,19465
981.806,1.298056,400190,20147
985.583,1.301531,406088,20281
989.355,1.299447,410162,20583
993.124,1.302788,412868,20560
996.888,1.310080,414263,20286
1000.65,1.308108,415476,20438
1004.4,1.304197,415479,20623
1009.41,1.299521,414358,20790
1013.15,1.312327,412923,20116
1016.89,1.308401,411526,20230
1020.63,1.305755,409066,20232
1024.36,1.321107,406777,19420
1028.09,1.307420,404427,19926
1031.82,1.315635,401911,19431
1036.78,1.306371,398410,19677
1040.49,1.314233,396204,19217
1044.2,1.299289,394236,19791
1047.91,1.316572,392042,18913
1051.61,1.324377,389823,18471
1055.31,1.308652,388234,19074
1059,1.316564,387599,18699
1063.92,1.306964,386688,19072
1067.61,1.311971,386598,18849
1071.29,1.313007,387377,18842
1074.96,1.312235,388536,18932
1078.63,1.316307,389855,18819
1082.3,1.305263,391215,19371
1085.96,1.309163,393215,19296
1090.84,1.310682,396270,19378
1094.49,1.318588,398760,19148
1098.14,1.310741,400987,19606
1101.79,1.312191,403477,19662
1105.43,1.314802,406116,19672
1109.06,1.316339,407701,19679
1112.7,1.311952,409859,19984
1117.53,1.318007,412494,19834
1121.15,1.312580,414909,20201
1124.77,1.318690,416559,19998
1128.38,1.318619,418532,20096
1131.99,1.326100,419956,19820
1135.6,1.317804,421946,20298
1139.2,1.324891,423881,20061
1143.99,1.312648,426786,20776
1147.58,1.317718,428617,20623
1151.17,1.316709,431169,20794
1154.75,1.318337,433579,20832
1158.33,1.310453,436264,21345
1161.91,1.311188,439132,21449
1165.48,1.323172,442389,21020
1169.04,1.315865,446101,21556
1173.79,1.314686,451929,21897
1177.34,1.318585,456026,21898
1180.9,1.318753,461306,22143
1184.44,1.318788,467657,22446
1187.99,1.312834,473969,23063
1191.52,1.316691,479856,23143
1195.06,1.324249,487372,23100
1199.76,1.320028,497347,23803
1203.29,1.316860,504311,24313
1206.81,1.324122,511507,24251
1210.33,1.316754,519078,25031
1213.84,1.323831,527163,25010
1217.35,1.320847,534208,25519
1220.85,1.323381,540472,25668
1225.51,1.318719,549929,26399
1229.01,1.320315,556888,26635
1232.5,1.325255,562180,26584
1235.98,1.315471,567975,27470
1239.46,1.322222,574815,27372
1242.94,1.324424,582782,27611
1246.41,1.318176,591476,28429
1251.03,1.322124,604016,28769
1254.5,1.325218,612289,28956
1257.96,1.323860,619125,29371
1261.41,1.325510,624551,29516
1264.86,1.322933,629900,29946
1268.31,1.324221,634345,30068
1271.75,1.329235,638574,29921
1276.33,1.324542,642499,30432
1279.76,1.323200,645905,30688
1283.19,1.325180,648307,30662
1286.61,1.327164,650446,30623
1290.03,1.327523,652132,30677
1293.44,1.327544,653907,30759
1296.85,1.328131,655963,30814
1301.39,1.326743,657349,30978
1304.8,1.329369,657558,30801
1308.19,1.328270,658515,30924
1311.58,1.323420,658804,31285
1314.97,1.330243,659011,30807
1318.36,1.332585,658272,30607
1321.73,1.331725,658022,30656
1326.23,1.332248,657870,30612
1329.6,1.336325,656482,30262
1332.97,1.332263,654926,30474
1336.33,1.331952,653727,30440
1339.69,1.333380,652497,30283
1343.04,1.327049,649913,30606
1346.39,1.327625,647671,30460
1349.73,1.329349,645338,30230
1354.18,1.326840,641175,30209
1357.52,1.329042,638376,29925
1360.85,1.324974,635805,30085
1364.17,1.324218,633413,30024
1367.49,1.328917,631026,29589
1370.81,1.330401,628050,29349
1374.12,1.334315,625034,28946
1378.54,1.323261,620272,29466
1381.84,1.324425,616892,29227
1385.14,1.327327,613613,28878
1388.43,1.325112,611526,28927
1391.72,1.325611,610663,28853
1395.01,1.319893,610634,29234
1398.29,1.323482,611700,29044
1402.66,1.328029,614051,28852
1405.93,1.330061,616268,28821
1409.2,1.331889,617795,28771
1412.46,1.330974,618872,28882
1415.72,1.327461,619795,29160
1418.98,1.333285,620495,28804
1422.23,1.329573,621087,29079
1426.56,1.330417,621375,29036
1429.8,1.334100,621616,28802
1433.04,1.330137,622129,29090
1436.27,1.333901,621526,28811
1439.5,1.331807,621113,28931
1442.72,1.332289,620921,28890
1445.94,1.335744,620270,28631
1450.23,1.332728,618860,28765
1453.44,1.330043,617697,28889
1456.64,1.333082,616264,28621
1459.85,1.329732,614413,28756
1463.04,1.336612,612307,28207
1466.24,1.335797,610032,28155
1469.43,1.332571,607345,28240
1473.67,1.339017,603789,27661
1476.85,1.332790,601175,27939
1480.02,1.341494,597737,27228
1483.19,1.341777,594479,27062
1486.36,1.337844,591232,27159
1489.52,1.337551,587853,27022
1492.68,1.333816,583875,27071
1496.89,1.333224,578062,26838
1500.03,1.334919,574159,26553
1503.18,1.335691,570285,26327
1506.32,1.337667,565444,25985
1509.45,1.341359,560571,25543
1512.58,1.338804,555821,25476
1515.71,1.337874,550344,25279
1519.87,1.335151,543983,25144
1522.99,1.335042,538764,24909
1526.1,1.329924,533692,24967
1529.21,1.332820,527902,24532
1532.32,1.335396,521886,24109
1535.42,1.332055,515888,24016
1538.51,1.342427,509987,23181
1541.6,1.332455,503936,23438
1545.72,1.344457,494694,22381
1548.8,1.332386,488378,22718
1551.88,1.332415,481832,22412
1554.95,1.332449,474989,22092
1558.02,1.335121,467818,21625
1561.08,1.339123,460730,21102
1564.15,1.334937,454170,21003
1568.22,1.323710,444181,21079
1571.27,1.329035,436947,20483
1574.32,1.332880,429598,19961
1577.36,1.331305,422039,19681
1580.4,1.331229,414375,19327
1583.43,1.328918,406354,19054
1586.46,1.332455,398475,18533
1590.49,1.340462,388982,17761
1593.51,1.329977,380708,17808
1596.53,1.331216,372727,17385
1599.54,1.318607,365060,17529
1602.55,1.333220,357543,16600
1605.55,1.330242,349495,16338
1608.55,1.322766,341154,16225
1612.54,1.332767,330877,15378
1615.53,1.324354,322904,15301
1618.51,1.319954,315116,15084
1621.49,1.321934,307217,14639
1624.47,1.329869,299481,14012
1627.44,1.319639,292112,13993
1630.41,1.324712,284245,13458
1634.36,1.308379,274079,13474
1637.32,1.318385,266916,12823
1640.27,1.310316,259612,12706
1643.22,1.306836,251804,12423
1646.16,1.312754,244348,11892
1649.1,1.323399,236703,11241
1652.04,1.298735,228171,11469
1655.95,1.306851,215408,10627
1658.88,1.269991,204937,11006
1661.8,1.271337,193395,10354
1664.72,1.274431,179728,9554
1667.63,1.239199,163642,9434
1670.54,1.230378,146312,8608
1673.44,1.219660,128451,7746
1677.31,1.142424,105080,7570
1680.21,1.155630,88906,6213
1683.1,1.168193,75033,5094
1685.99,1.156703,63520,4428
1688.87,1.108600,53714,4183
1691.75,1.176739,45653,3039
1694.62,1.144345,39137,2807
1697.49,1.116484,33776,2583
1701.31,1.111009,28175,2182