File: ML/samples/unknown/Column 1_078484_20241121_170456.csv
Method:,Column 1,,
Host Date-Time:,21/11/24 @ 17:4:56,,
Header Version:,1,,
System Temp (C):,34.76,,
Detector Temp (C):,33.77,,
Humidity (%):,2.05,,
Lamp PD:,3801,,
Shift Vector Coefficients:,-10.5391,0.0761263,-0.000134223,,
Pixel to Wavelength Coefficients:,1775.68,-0.916766,-0.000235065,,
Serial Number:,5510004,,
Scan Config Name:,Column 1,,
Scan Config Type:,Slew,,
Section 1,,
Start wavelength (nm):,900,,
End wavelength (nm):,1700,,
Pattern Pixel Width (nm):,   7.03,,,,
Exposure (ms):,  0.635,,,,
Digital Resolution:,228,,
Num Repeats:,6,,
PGA Gain:,64,,
Total Measurement Time in sec:,  2.726,,
Wavelength (nm),Absorbance (AU),Reference Signal (unitless),Sample Signal (unitless)
901.51,1.317866,108485,5218
905.376,1.304502,121306,6017
909.237,1.309639,131909,6466
913.095,1.334861,143299,6628
916.948,1.329976,156982,7343
922.079,1.328572,179937,8444
925.923,1.316337,200504,9678
929.762,1.341347,222660,10146
933.597,1.319628,244426,11709
937.427,1.323087,263972,12545
941.254,1.325637,281845,13316
945.076,1.313225,297271,14452
950.165,1.313205,315605,15344
953.978,1.316376,328029,15832
957.786,1.314937,340470,16487
961.59,1.309239,352317,17286
965.389,1.315771,363056,17547
969.185,1.312304,373162,18180
972.976,1.309271,382632,18772
976.763,1.313556,391202,19004
981.806,1.302236,400190,19954
985.583,1.312240,406088,19787
989.355,1.315370,410162,19842
993.124,1.309258,412868,20256
996.888,1.304211,414263,20562
1000.65,1.314940,415476,20119
1004.4,1.306329,415479,20522
1009.41,1.308598,414358,20360
1013.15,1.305941,412923,20414
1016.89,1.316571,411526,19853
1020.63,1.305111,409066,20262
1024.36,1.317522,406777,19581
1028.09,1.309978,404427,19809
1031.82,1.317247,401911,19359
1036.78,1.304082,398410,19781
1040.49,1.309513,396204,19427
1044.2,1.313656,394236,19147
1047.91,1.314625,392042,18998
1051.61,1.306189,389823,19261
1055.31,1.311874,388234,18933
1059,1.307463,387599,19095
1063.92,1.314151,386688,18759
1067.61,1.303167,386598,19235
1071.29,1.311442,387377,18910
1074.96,1.313682,388536,18869
1078.63,1.317971,389855,18747
1082.3,1.317911,391215,18815
1085.96,1.308106,393215,19343
1090.84,1.311288,396270,19351
1094.49,1.314120,398760,19346
1098.14,1.311074,400987,19591
1101.79,1.323083,403477,19175
1105.43,1.318348,406116,19512
1109.06,1.318773,407701,19569
1112.7,1.323112,409859,19477
1117.53,1.312351,412494,20094
1121.15,1.327584,414909,19515
1124.77,1.314755,416559,20180
1128.38,1.315282,418532,20251
1131.99,1.311916,419956,20478
1135.6,1.324618,421946,19982
1139.2,1.312850,423881,20625
1143.99,1.324171,426786,20232
1147.58,1.316141,428617,20698
1151.17,1.319202,431169,20675
1154.75,1.321770,433579,20668
1158.33,1.317179,436264,21017
1161.91,1.318498,439132,21091
1165.48,1.316976,442389,21322
1169.04,1.323938,446101,21159
1173.79,1.321381,451929,21562
1177.34,1.324375,456026,21608
1180.9,1.321942,461306,21981
1184.44,1.322168,467657,22272
1187.99,1.316655,473969,22861
1191.52,1.319232,479856,23008
1195.06,1.322316,487372,23203
1199.76,1.326906,497347,23429
1203.29,1.320898,504311,24088
1206.81,1.320164,511507,24473
1210.33,1.321833,519078,24740
1213.84,1.324805,527163,24954
1217.35,1.321920,534208,25456
1220.85,1.320598,540472,25833
1225.51,1.322968,549929,26142
1229.01,1.328396,556888,26144
1232.5,1.321627,562180,26807
1235.98,1.323094,567975,26992
1239.46,1.321778,574815,27400
1242.94,1.322791,582782,27715
1246.41,1.326286,591476,27903
1251.03,1.331709,604016,28141
1254.5,1.328560,612289,28734
1257.96,1.325118,619125,29286
1261.41,1.327945,624551,29351
1264.86,1.326632,629900,29692
1268.31,1.326088,634345,29939
1271.75,1.330165,638574,29857
1276.33,1.326473,642499,30297
1279.76,1.324689,645905,30583
1283.19,1.324600,648307,30703
1286.61,1.327320,650446,30612
1290.03,1.329111,652132,30565
1293.44,1.330491,653907,30551
1296.85,1.332394,655963,30513
1301.39,1.327669,657349,30912
1304.8,1.335675,657558,30357
1308.19,1.332830,658515,30601
1311.58,1.335826,658804,30404
1314.97,1.331429,659011,30723
1318.36,1.327815,658272,30945
1321.73,1.328943,658022,30853
1326.23,1.334125,657870,30480
1329.6,1.336010,656482,30284
1332.97,1.327346,654926,30821
1336.33,1.329789,653727,30592
1339.69,1.328091,652497,30654
1343.04,1.332762,649913,30206
1346.39,1.324542,647671,30677
1349.73,1.335921,645338,29776
1354.18,1.332600,641175,29811
1357.52,1.327463,638376,30034
1360.85,1.327522,635805,29909
1364.17,1.327092,633413,29826
1367.49,1.326779,631026,29735
1370.81,1.323589,628050,29813
1374.12,1.322081,625034,29773
1378.54,1.325981,620272,29282
1381.84,1.323623,616892,29281
1385.14,1.326982,613613,28901
1388.43,1.328609,611526,28695
1391.72,1.332590,610663,28393
1395.01,1.324523,610634,28924
1398.29,1.333894,611700,28356
1402.66,1.327908,614051,28860
1405.93,1.328962,616268,28894
1409.2,1.327624,617795,29055
1412.46,1.328993,618872,29014
1415.72,1.336262,619795,28575
1418.98,1.330850,620495,28966
1422.23,1.337364,621087,28562
1426.56,1.331885,621375,28938
1429.8,1.331379,621616,28983
1433.04,1.340807,622129,28384
1436.27,1.335789,621526,28686
1439.5,1.334246,621113,28769
1442.72,1.330593,620921,29003
1445.94,1.339645,620270,28375
1450.23,1.332049,618860,28810
1453.44,1.333863,617697,28636
1456.64,1.341122,616264,28096
1459.85,1.340079,614413,28079
1463.04,1.331622,612307,28533
1466.24,1.331759,610032,28418
1469.43,1.333880,607345,28155
1473.67,1.333123,603789,28039
1476.85,1.339321,601175,27522
1480.02,1.336751,597737,27527
1483.19,1.333495,594479,27583
1486.36,1.336806,591232,27224
1489.52,1.338227,587853,26980
1492.68,1.335214,583875,26984
1496.89,1.340864,578062,26370
1500.03,1.336163,574159,26477
1503.18,1.335509,570285,26338
1506.32,1.340383,565444,25823
1509.45,1.346834,560571,25223
1512.58,1.335137,555821,25692
1515.71,1.340183,550344,25145
1519.87,1.338602,543983,24945
1522.99,1.337105,538764,24791
1526.1,1.339687,533692,24412
1529.21,1.339906,527902,24135
1532.32,1.338742,521886,23924
1535.42,1.333794,515888,23920
1538.51,1.335458,509987,23556
1541.6,1.342919,503936,22880
1545.72,1.337756,494694,22729
1548.8,1.332577,488378,22708
1551.88,1.340552,481832,21996
1554.95,1.331722,474989,22129
1558.02,1.332558,467818,21753
1561.08,1.334456,460730,21330
1564.15,1.332751,454170,21109
1568.22,1.336506,444181,20467
1571.27,1.330437,436947,20417
1574.32,1.335170,429598,19856
1577.36,1.336835,422039,19432
1580.4,1.331319,414375,19323
1583.43,1.342156,406354,18482
1586.46,1.324123,398475,18892
1590.49,1.328643,388982,18251
1593.51,1.326794,380708,17939
1596.53,1.325360,372727,17621
1599.54,1.333938,365060,16921
1602.55,1.335423,357543,16516
1605.55,1.329021,349495,16384
1608.55,1.329374,341154,15980
1612.54,1.320570,330877,15816
1615.53,1.331162,322904,15063
1618.51,1.335249,315116,14562
1621.49,1.319419,307217,14724
1624.47,1.320639,299481,14313
1627.44,1.324006,292112,13853
1630.41,1.314948,284245,13764
1634.36,1.317631,274079,13190
1637.32,1.316931,266916,12866
1640.27,1.323961,259612,12313
1643.22,1.322171,251804,11992
1646.16,1.314620,244348,11841
1649.1,1.307878,236703,11650
1652.04,1.321392,228171,10886
1655.95,1.286143,215408,11146
1658.88,1.289068,204937,10533
1661.8,1.268995,193395,10410
1664.72,1.267352,179728,9711
1667.63,1.258544,163642,9023
1670.54,1.236987,146312,8478
1673.44,1.224282,128451,7664
1677.31,1.210213,105080,6476
1680.21,1.176609,88906,5920
1683.1,1.107503,75033,5858
1685.99,1.182774,63520,4170
1688.87,1.190008,53714,3468
1691.75,1.243662,45653,2605
1694.62,1.216741,39137,2376
1697.49,1.221326,33776,2029
1701.31,1.091929,28175,2280