File: ML/samples/unknown/Column 1_078257_20241121_165312.csv
Method:,Column 1,,
Host Date-Time:,21/11/24 @ 16:53:12,,
Header Version:,1,,
System Temp (C):,34.3,,
Detector Temp (C):,31.8,,
Humidity (%):,2.45,,
Lamp PD:,3802,,
Shift Vector Coefficients:,-10.5391,0.0761263,-0.000134223,,
Pixel to Wavelength Coefficients:,1775.68,-0.916766,-0.000235065,,
Serial Number:,5510004,,
Scan Config Name:,Column 1,,
Scan Config Type:,Slew,,
Section 1,,
Start wavelength (nm):,900,,
End wavelength (nm):,1700,,
Pattern Pixel Width (nm):,   7.03,,,,
Exposure (ms):,  0.635,,,,
Digital Resolution:,228,,
Num Repeats:,6,,
PGA Gain:,64,,
Total Measurement Time in sec:,  2.719,,
Wavelength (nm),Absorbance (AU),Reference Signal (unitless),Sample Signal (unitless)
901.51,1.307991,108485,5338
905.376,1.378703,121306,5072
909.237,1.321624,131909,6290
913.095,1.338281,143299,6576
916.948,1.333599,156982,7282
922.079,1.330634,179937,8404
925.923,1.325544,200504,9475
929.762,1.337470,222660,10237
933.597,1.322157,244426,11641
937.427,1.317994,263972,12693
941.254,1.325376,281845,13324
945.076,1.322304,297271,14153
950.165,1.320541,315605,15087
953.978,1.312580,328029,15971
957.786,1.317500,340470,16390
961.59,1.322038,352317,16784
965.389,1.314584,363056,17595
969.185,1.303202,373162,18565
972.976,1.311567,382632,18673
976.763,1.313785,391202,18994
981.806,1.315608,400190,19349
985.583,1.316453,406088,19596
989.355,1.315151,410162,19852
993.124,1.317548,412868,19873
996.888,1.316203,414263,20002
1000.65,1.321464,415476,19819
1004.4,1.310262,415479,20337
1009.41,1.307384,414358,20417
1013.15,1.317475,412923,19879
1016.89,1.317864,411526,19794
1020.63,1.307195,409066,20165
1024.36,1.316967,406777,19606
1028.09,1.315005,404427,19581
1031.82,1.313873,401911,19510
1036.78,1.314548,398410,19310
1040.49,1.321388,396204,18903
1044.2,1.318789,394236,18922
1047.91,1.304949,392042,19426
1051.61,1.314796,389823,18883
1055.31,1.311805,388234,18936
1059,1.317448,387599,18661
1063.92,1.305555,386688,19134
1067.61,1.310683,386598,18905
1071.29,1.316641,387377,18685
1074.96,1.319848,388536,18603
1078.63,1.317994,389855,18746
1082.3,1.309250,391215,19194
1085.96,1.322324,393215,18720
1090.84,1.318073,396270,19051
1094.49,1.317931,398760,19177
1098.14,1.310985,400987,19595
1101.79,1.317793,403477,19410
1105.43,1.317926,406116,19531
1109.06,1.316825,407701,19657
1112.7,1.323313,409859,19468
1117.53,1.332388,412494,19188
1121.15,1.321288,414909,19800
1124.77,1.328863,416559,19535
1128.38,1.325678,418532,19772
1131.99,1.325531,419956,19846
1135.6,1.318210,421946,20279
1139.2,1.321957,423881,20197
1143.99,1.325246,426786,20182
1147.58,1.329630,428617,20065
1151.17,1.323296,431169,20481
1154.75,1.322548,433579,20631
1158.33,1.325861,436264,20601
1161.91,1.328981,439132,20588
1165.48,1.321851,442389,21084
1169.04,1.324678,446101,21123
1173.79,1.330644,451929,21107
1177.34,1.327279,456026,21464
1180.9,1.322297,461306,21963
1184.44,1.321078,467657,22328
1187.99,1.325832,473969,22383
1191.52,1.315548,479856,23204
1195.06,1.330269,487372,22782
1199.76,1.322443,497347,23671
1203.29,1.321728,504311,24042
1206.81,1.324695,511507,24219
1210.33,1.333504,519078,24084
1213.84,1.328984,527163,24715
1217.35,1.326000,534208,25218
1220.85,1.321996,540472,25750
1225.51,1.328317,549929,25822
1229.01,1.332418,556888,25903
1232.5,1.325386,562180,26576
1235.98,1.322451,567975,27032
1239.46,1.323079,574815,27318
1242.94,1.326426,582782,27484
1246.41,1.326598,591476,27883
1251.03,1.323000,604016,28711
1254.5,1.330090,612289,28633
1257.96,1.327885,619125,29100
1261.41,1.331093,624551,29139
1264.86,1.326764,629900,29683
1268.31,1.329408,634345,29711
1271.75,1.326472,638574,30112
1276.33,1.327477,642499,30227
1279.76,1.333438,645905,29973
1283.19,1.335877,648307,29916
1286.61,1.335150,650446,30065
1290.03,1.332635,652132,30318
1293.44,1.332257,653907,30427
1296.85,1.333135,655963,30461
1301.39,1.336067,657349,30320
1304.8,1.330357,657558,30731
1308.19,1.330876,658515,30739
1311.58,1.334186,658804,30519
1314.97,1.334294,659011,30521
1318.36,1.330984,658272,30720
1321.73,1.331640,658022,30662
1326.23,1.335681,657870,30371
1329.6,1.332923,656482,30500
1332.97,1.332648,654926,30447
1336.33,1.336498,653727,30123
1339.69,1.340683,652497,29778
1343.04,1.331040,649913,30326
1346.39,1.335741,647671,29896
1349.73,1.332348,645338,30022
1354.18,1.333081,641175,29778
1357.52,1.338120,638376,29306
1360.85,1.335642,635805,29355
1364.17,1.331071,633413,29554
1367.49,1.338084,631026,28971
1370.81,1.333102,628050,29167
1374.12,1.328296,625034,29350
1378.54,1.330139,620272,29003
1381.84,1.332736,616892,28673
1385.14,1.333751,613613,28454
1388.43,1.330231,611526,28588
1391.72,1.332483,610663,28400
1395.01,1.330008,610634,28561
1398.29,1.329854,611700,28621
1402.66,1.327652,614051,28877
1405.93,1.330513,616268,28791
1409.2,1.336594,617795,28461
1412.46,1.336634,618872,28508
1415.72,1.331531,619795,28888
1418.98,1.330895,620495,28963
1422.23,1.330021,621087,29049
1426.56,1.335351,621375,28708
1429.8,1.335958,621616,28679
1433.04,1.334006,622129,28832
1436.27,1.329865,621526,29080
1439.5,1.344650,621113,28088
1442.72,1.337567,620921,28541
1445.94,1.336048,620270,28611
1450.23,1.333091,618860,28741
1453.44,1.330253,617697,28875
1456.64,1.335471,616264,28464
1459.85,1.334073,614413,28470
1463.04,1.338572,612307,28080
1466.24,1.339966,610032,27886
1469.43,1.335580,607345,28045
1473.67,1.337044,603789,27787
1476.85,1.338722,601175,27560
1480.02,1.339045,597737,27382
1483.19,1.343304,594479,26967
1486.36,1.342490,591232,26870
1489.52,1.341037,587853,26806
1492.68,1.340492,583875,26658
1496.89,1.342217,578062,26288
1500.03,1.347194,574159,25813
1503.18,1.343312,570285,25869
1506.32,1.340652,565444,25807
1509.45,1.340951,560571,25567
1512.58,1.341797,555821,25301
1515.71,1.340597,550344,25121
1519.87,1.346774,543983,24480
1522.99,1.339423,538764,24659
1526.1,1.337487,533692,24536
1529.21,1.336804,527902,24308
1532.32,1.342681,521886,23708
1535.42,1.343655,515888,23383
1538.51,1.336380,509987,23506
1541.6,1.334833,503936,23310
1545.72,1.333100,494694,22974
1548.8,1.338392,488378,22406
1551.88,1.338464,481832,22102
1554.95,1.340905,474989,21666
1558.02,1.336368,467818,21563
1561.08,1.346994,460730,20723
1564.15,1.337301,454170,20889
1568.22,1.336251,444181,20479
1571.27,1.333768,436947,20261
1574.32,1.338684,429598,19696
1577.36,1.330270,422039,19728
1580.4,1.338594,414375,19002
1583.43,1.332351,406354,18904
1586.46,1.348641,398475,17855
1590.49,1.339314,388982,17808
1593.51,1.335301,380708,17591
1596.53,1.335812,372727,17202
1599.54,1.332452,365060,16979
1602.55,1.350078,357543,15968
1605.55,1.332882,349495,16239
1608.55,1.332620,341154,15861
1612.54,1.324986,330877,15656
1615.53,1.327945,322904,15175
1618.51,1.322756,315116,14987
1621.49,1.323598,307217,14583
1624.47,1.326227,299481,14130
1627.44,1.326836,292112,13763
1630.41,1.318083,284245,13665
1634.36,1.325941,274079,12940
1637.32,1.318690,266916,12814
1640.27,1.327147,259612,12223
1643.22,1.319283,251804,12072
1646.16,1.315906,244348,11806
1649.1,1.328177,236703,11118
1652.04,1.317856,228171,10975
1655.95,1.294801,215408,10926
1658.88,1.315897,204937,9902
1661.8,1.301198,193395,9666
1664.72,1.288145,179728,9257
1667.63,1.284680,163642,8496
1670.54,1.263059,146312,7984
1673.44,1.273301,128451,6846
1677.31,1.218063,105080,6360
1680.21,1.237293,88906,5148
1683.1,1.242795,75033,4290
1685.99,1.217675,63520,3848
1688.87,1.187013,53714,3492
1691.75,1.289326,45653,2345
1694.62,1.271611,39137,2094
1697.49,1.293585,33776,1718
1701.31,1.246015,28175,1599