File: ML/samples/unknown/Column 1_078453_20241121_170325.csv
Method:,Column 1,,
Host Date-Time:,21/11/24 @ 17:3:25,,
Header Version:,1,,
System Temp (C):,34.77,,
Detector Temp (C):,33.8,,
Humidity (%):,1.86,,
Lamp PD:,3802,,
Shift Vector Coefficients:,-10.5391,0.0761263,-0.000134223,,
Pixel to Wavelength Coefficients:,1775.68,-0.916766,-0.000235065,,
Serial Number:,5510004,,
Scan Config Name:,Column 1,,
Scan Config Type:,Slew,,
Section 1,,
Start wavelength (nm):,900,,
End wavelength (nm):,1700,,
Pattern Pixel Width (nm):,   7.03,,,,
Exposure (ms):,  0.635,,,,
Digital Resolution:,228,,
Num Repeats:,6,,
PGA Gain:,64,,
Total Measurement Time in sec:,  2.701,,
Wavelength (nm),Absorbance (AU),Reference Signal (unitless),Sample Signal (unitless)
901.51,1.324660,108485,5137
905.376,1.296634,121306,6127
909.237,1.312469,131909,6424
913.095,1.309411,143299,7028
916.948,1.337132,156982,7223
922.079,1.308914,179937,8835
925.923,1.333360,200504,9306
929.762,1.314621,222660,10790
933.597,1.321114,244426,11669
937.427,1.330208,263972,12341
941.254,1.322258,281845,13420
945.076,1.307315,297271,14650
950.165,1.316187,315605,15239
953.978,1.323233,328029,15584
957.786,1.310378,340470,16661
961.59,1.310044,352317,17254
965.389,1.293319,363056,18478
969.185,1.305948,373162,18448
972.976,1.303228,382632,19035
976.763,1.307226,391202,19283
981.806,1.301627,400190,19982
985.583,1.318296,406088,19513
989.355,1.310646,410162,20059
993.124,1.303570,412868,20523
996.888,1.308605,414263,20355
1000.65,1.311093,415476,20298
1004.4,1.307325,415479,20475
1009.41,1.307320,414358,20420
1013.15,1.302149,412923,20593
1016.89,1.308681,411526,20217
1020.63,1.312373,409066,19926
1024.36,1.312647,406777,19802
1028.09,1.310921,404427,19766
1031.82,1.310591,401911,19658
1036.78,1.309295,398410,19545
1040.49,1.310632,396204,19377
1044.2,1.306859,394236,19449
1047.91,1.310122,392042,19196
1051.61,1.314636,389823,18890
1055.31,1.308697,388234,19072
1059,1.313717,387599,18822
1063.92,1.314244,386688,18755
1067.61,1.315534,386598,18695
1071.29,1.306737,387377,19116
1074.96,1.309035,388536,19072
1078.63,1.309824,389855,19102
1082.3,1.309024,391215,19204
1085.96,1.312597,393215,19144
1090.84,1.316004,396270,19142
1094.49,1.308013,398760,19620
1098.14,1.310697,400987,19608
1101.79,1.309022,403477,19806
1105.43,1.311305,406116,19831
1109.06,1.321847,407701,19431
1112.7,1.308985,409859,20121
1117.53,1.316674,412494,19895
1121.15,1.320367,414909,19842
1124.77,1.320344,416559,19922
1128.38,1.324362,418532,19832
1131.99,1.313510,419956,20403
1135.6,1.323468,421946,20035
1139.2,1.316699,423881,20443
1143.99,1.316638,426786,20586
1147.58,1.313401,428617,20829
1151.17,1.321519,431169,20565
1154.75,1.316507,433579,20920
1158.33,1.321269,436264,20820
1161.91,1.316526,439132,21187
1165.48,1.319427,442389,21202
1169.04,1.313514,446101,21673
1173.79,1.317591,451929,21751
1177.34,1.310043,456026,22333
1180.9,1.311132,461306,22535
1184.44,1.327090,467657,22021
1187.99,1.311725,473969,23122
1191.52,1.312954,479856,23343
1195.06,1.323835,487372,23122
1199.76,1.315870,497347,24032
1203.29,1.315273,504311,24402
1206.81,1.329220,511507,23968
1210.33,1.317988,519078,24960
1213.84,1.318087,527163,25343
1217.35,1.324435,534208,25309
1220.85,1.317850,540472,25997
1225.51,1.324149,549929,26071
1229.01,1.323112,556888,26464
1232.5,1.327762,562180,26431
1235.98,1.319266,567975,27231
1239.46,1.321762,574815,27401
1242.94,1.321258,582782,27813
1246.41,1.319752,591476,28326
1251.03,1.327531,604016,28413
1254.5,1.319600,612289,29333
1257.96,1.325474,619125,29262
1261.41,1.325672,624551,29505
1264.86,1.324167,629900,29861
1268.31,1.327119,634345,29868
1271.75,1.327251,638574,30058
1276.33,1.323530,642499,30503
1279.76,1.323710,645905,30652
1283.19,1.326983,648307,30535
1286.61,1.328001,650446,30564
1290.03,1.325926,652132,30790
1293.44,1.330675,653907,30538
1296.85,1.328724,655963,30772
1301.39,1.328034,657349,30886
1304.8,1.326993,657558,30970
1308.19,1.330128,658515,30792
1311.58,1.327619,658804,30984
1314.97,1.327755,659011,30984
1318.36,1.330786,658272,30734
1321.73,1.332093,658022,30630
1326.23,1.328027,657870,30911
1329.6,1.333850,656482,30435
1332.97,1.330414,654926,30604
1336.33,1.333796,653727,30311
1339.69,1.332434,652497,30349
1343.04,1.326184,649913,30667
1346.39,1.335117,647671,29939
1349.73,1.331076,645338,30110
1354.18,1.324932,641175,30342
1357.52,1.331137,638376,29781
1360.85,1.330071,635805,29734
1364.17,1.325856,633413,29911
1367.49,1.324245,631026,29909
1370.81,1.330667,628050,29331
1374.12,1.329466,625034,29271
1378.54,1.326917,620272,29219
1381.84,1.326077,616892,29116
1385.14,1.329544,613613,28731
1388.43,1.320824,611526,29214
1391.72,1.324964,610663,28896
1395.01,1.323203,610634,29012
1398.29,1.323422,611700,29048
1402.66,1.327442,614051,28891
1405.93,1.328316,616268,28937
1409.2,1.331030,617795,28828
1412.46,1.330598,618872,28907
1415.72,1.328579,619795,29085
1418.98,1.330071,620495,29018
1422.23,1.335482,621087,28686
1426.56,1.328760,621375,29147
1429.8,1.325722,621616,29363
1433.04,1.330480,622129,29067
1436.27,1.334565,621526,28767
1439.5,1.330354,621113,29028
1442.72,1.338771,620921,28462
1445.94,1.334049,620270,28743
1450.23,1.335500,618860,28582
1453.44,1.334683,617697,28582
1456.64,1.338841,616264,28244
1459.85,1.332246,614413,28590
1463.04,1.331972,612307,28510
1466.24,1.335396,610032,28181
1469.43,1.328636,607345,28497
1473.67,1.334255,603789,27966
1476.85,1.334831,601175,27808
1480.02,1.336546,597737,27540
1483.19,1.335136,594479,27479
1486.36,1.333326,591232,27443
1489.52,1.336588,587853,27082
1492.68,1.335294,583875,26979
1496.89,1.335333,578062,26708
1500.03,1.330849,574159,26803
1503.18,1.332207,570285,26539
1506.32,1.335416,565444,26120
1509.45,1.341580,560571,25530
1512.58,1.332390,555821,25855
1515.71,1.328930,550344,25805
1519.87,1.338933,543983,24926
1522.99,1.331725,538764,25100
1526.1,1.335157,533692,24668
1529.21,1.331901,527902,24584
1532.32,1.340944,521886,23803
1535.42,1.334958,515888,23856
1538.51,1.335347,509987,23562
1541.6,1.335392,503936,23280
1545.72,1.339403,494694,22643
1548.8,1.331851,488378,22746
1551.88,1.330829,481832,22494
1554.95,1.332173,474989,22106
1558.02,1.336247,467818,21569
1561.08,1.333073,460730,21398
1564.15,1.334090,454170,21044
1568.22,1.334368,444181,20568
1571.27,1.334948,436947,20206
1574.32,1.339987,429598,19637
1577.36,1.323672,422039,20030
1580.4,1.337134,414375,19066
1583.43,1.335186,406354,18781
1586.46,1.333864,398475,18473
1590.49,1.327811,388982,18286
1593.51,1.319472,380708,18244
1596.53,1.323025,372727,17716
1599.54,1.325072,365060,17270
1602.55,1.317194,357543,17224
1605.55,1.314169,349495,16954
1608.55,1.327205,341154,16060
1612.54,1.336824,330877,15235
1615.53,1.316032,322904,15597
1618.51,1.321454,315116,15032
1621.49,1.307147,307217,15146
1624.47,1.303154,299481,14901
1627.44,1.330640,292112,13643
1630.41,1.323713,284245,13489
1634.36,1.317960,274079,13180
1637.32,1.322024,266916,12716
1640.27,1.302156,259612,12947
1643.22,1.300933,251804,12593
1646.16,1.311478,244348,11927
1649.1,1.317985,236703,11382
1652.04,1.303073,228171,11355
1655.95,1.293768,215408,10952
1658.88,1.278076,204937,10803
1661.8,1.308813,193395,9498
1664.72,1.247679,179728,10161
1667.63,1.245552,163642,9297
1670.54,1.233365,146312,8549
1673.44,1.204780,128451,8016
1677.31,1.206740,105080,6528
1680.21,1.168902,88906,6026
1683.1,1.176195,75033,5001
1685.99,1.168836,63520,4306
1688.87,1.147229,53714,3827
1691.75,1.151074,45653,3224
1694.62,1.159138,39137,2713
1697.49,1.119860,33776,2563
1701.31,1.223780,28175,1683