File: ML/samples/unknown/Column 1_078341_20241121_165718.csv
Method:,Column 1,,
Host Date-Time:,21/11/24 @ 16:57:18,,
Header Version:,1,,
System Temp (C):,34.77,,
Detector Temp (C):,33.18,,
Humidity (%):,2.4,,
Lamp PD:,3802,,
Shift Vector Coefficients:,-10.5391,0.0761263,-0.000134223,,
Pixel to Wavelength Coefficients:,1775.68,-0.916766,-0.000235065,,
Serial Number:,5510004,,
Scan Config Name:,Column 1,,
Scan Config Type:,Slew,,
Section 1,,
Start wavelength (nm):,900,,
End wavelength (nm):,1700,,
Pattern Pixel Width (nm):,   7.03,,,,
Exposure (ms):,  0.635,,,,
Digital Resolution:,228,,
Num Repeats:,6,,
PGA Gain:,64,,
Total Measurement Time in sec:,  2.724,,
Wavelength (nm),Absorbance (AU),Reference Signal (unitless),Sample Signal (unitless)
901.51,1.326779,108485,5112
905.376,1.343362,121306,5502
909.237,1.295628,131909,6678
913.095,1.303032,143299,7132
916.948,1.340391,156982,7169
922.079,1.295650,179937,9109
925.923,1.316697,200504,9670
929.762,1.335522,222660,10283
933.597,1.321337,244426,11663
937.427,1.315843,263972,12756
941.254,1.310383,281845,13792
945.076,1.307167,297271,14655
950.165,1.306437,315605,15585
953.978,1.309599,328029,16081
957.786,1.307468,340470,16773
961.59,1.306584,352317,17392
965.389,1.313992,363056,17619
969.185,1.307434,373162,18385
972.976,1.301521,382632,19110
976.763,1.315618,391202,18914
981.806,1.311097,400190,19551
985.583,1.308112,406088,19976
989.355,1.306530,410162,20250
993.124,1.305309,412868,20441
996.888,1.305967,414263,20479
1000.65,1.313926,415476,20166
1004.4,1.306266,415479,20525
1009.41,1.307959,414358,20390
1013.15,1.310905,412923,20182
1016.89,1.303131,411526,20477
1020.63,1.310829,409066,19997
1024.36,1.304974,406777,20155
1028.09,1.307987,404427,19900
1031.82,1.314675,401911,19474
1036.78,1.306548,398410,19669
1040.49,1.303850,396204,19682
1044.2,1.315884,394236,19049
1047.91,1.299528,392042,19670
1051.61,1.309198,389823,19128
1055.31,1.316741,388234,18722
1059,1.308283,387599,19059
1063.92,1.311290,386688,18883
1067.61,1.314583,386598,18736
1071.29,1.309426,387377,18998
1074.96,1.311639,388536,18958
1078.63,1.316145,389855,18826
1082.3,1.311519,391215,19094
1085.96,1.318214,393215,18898
1090.84,1.312254,396270,19308
1094.49,1.309121,398760,19570
1098.14,1.316180,400987,19362
1101.79,1.317502,403477,19423
1105.43,1.317148,406116,19566
1109.06,1.312603,407701,19849
1112.7,1.315049,409859,19842
1117.53,1.318007,412494,19834
1121.15,1.322232,414909,19757
1124.77,1.317735,416559,20042
1128.38,1.323553,418532,19869
1131.99,1.322348,419956,19992
1135.6,1.318446,421946,20268
1139.2,1.320476,423881,20266
1143.99,1.322586,426786,20306
1147.58,1.322205,428617,20411
1151.17,1.307718,431169,21229
1154.75,1.315366,433579,20975
1158.33,1.313598,436264,21191
1161.91,1.307318,439132,21641
1165.48,1.320350,442389,21157
1169.04,1.320341,446101,21335
1173.79,1.315619,451929,21850
1177.34,1.312285,456026,22218
1180.9,1.322911,461306,21932
1184.44,1.314955,467657,22645
1187.99,1.321641,473969,22600
1191.52,1.319213,479856,23009
1195.06,1.319072,487372,23377
1199.76,1.316430,497347,24001
1203.29,1.312576,504311,24554
1206.81,1.320324,511507,24464
1210.33,1.325393,519078,24538
1213.84,1.327056,527163,24825
1217.35,1.326482,534208,25190
1220.85,1.323821,540472,25642
1225.51,1.320301,549929,26303
1229.01,1.328130,556888,26160
1232.5,1.324716,562180,26617
1235.98,1.328225,567975,26675
1239.46,1.326142,574815,27126
1242.94,1.325889,582782,27518
1246.41,1.315920,591476,28577
1251.03,1.317693,604016,29064
1254.5,1.327956,612289,28774
1257.96,1.322605,619125,29456
1261.41,1.328582,624551,29308
1264.86,1.327701,629900,29619
1268.31,1.327614,634345,29834
1271.75,1.327540,638574,30038
1276.33,1.325428,642499,30370
1279.76,1.321999,645905,30773
1283.19,1.327097,648307,30527
1286.61,1.327249,650446,30617
1290.03,1.330321,652132,30480
1293.44,1.325234,653907,30923
1296.85,1.326907,655963,30901
1301.39,1.328780,657349,30833
1304.8,1.332440,657558,30584
1308.19,1.331838,658515,30671
1311.58,1.327198,658804,31014
1314.97,1.330680,659011,30776
1318.36,1.328911,658272,30867
1321.73,1.329098,658022,30842
1326.23,1.333584,657870,30518
1329.6,1.334707,656482,30375
1332.97,1.336157,654926,30202
1336.33,1.329420,653727,30618
1339.69,1.333107,652497,30302
1343.04,1.333611,649913,30147
1346.39,1.330801,647671,30238
1349.73,1.333028,645338,29975
1354.18,1.328540,641175,30091
1357.52,1.329856,638376,29869
1360.85,1.326058,635805,30010
1364.17,1.331335,633413,29536
1367.49,1.319121,631026,30264
1370.81,1.326365,628050,29623
1374.12,1.323996,625034,29642
1378.54,1.326753,620272,29230
1381.84,1.330364,616892,28830
1385.14,1.326456,613613,28936
1388.43,1.325712,611526,28887
1391.72,1.320865,610663,29170
1395.01,1.330312,610634,28541
1398.29,1.325175,611700,28931
1402.66,1.326616,614051,28946
1405.93,1.323391,616268,29267
1409.2,1.332161,617795,28753
1412.46,1.327857,618872,29090
1415.72,1.331245,619795,28907
1418.98,1.329069,620495,29085
1422.23,1.334137,621087,28775
1426.56,1.333057,621375,28860
1429.8,1.330600,621616,29035
1433.04,1.329167,622129,29155
1436.27,1.334444,621526,28775
1439.5,1.333296,621113,28832
1442.72,1.332364,620921,28885
1445.94,1.336124,620270,28606
1450.23,1.331718,618860,28832
1453.44,1.336525,617697,28461
1456.64,1.337260,616264,28347
1459.85,1.338519,614413,28180
1463.04,1.328815,612307,28718
1466.24,1.333413,610032,28310
1469.43,1.334544,607345,28112
1473.67,1.335328,603789,27897
1476.85,1.332806,601175,27938
1480.02,1.331077,597737,27889
1483.19,1.333889,594479,27558
1486.36,1.337732,591232,27166
1489.52,1.334524,587853,27211
1492.68,1.338185,583875,26800
1496.89,1.330257,578062,27022
1500.03,1.335131,574159,26540
1503.18,1.336301,570285,26290
1506.32,1.341174,565444,25776
1509.45,1.338022,560571,25740
1512.58,1.338139,555821,25515
1515.71,1.338167,550344,25262
1519.87,1.341572,543983,24775
1522.99,1.336055,538764,24851
1526.1,1.338674,533692,24469
1529.21,1.341619,527902,24040
1532.32,1.332148,521886,24290
1535.42,1.341432,515888,23503
1538.51,1.338343,509987,23400
1541.6,1.334107,503936,23349
1545.72,1.340824,494694,22569
1548.8,1.336207,488378,22519
1551.88,1.340591,481832,21994
1554.95,1.334992,474989,21963
1558.02,1.335563,467818,21603
1561.08,1.327447,460730,21677
1564.15,1.331888,454170,21151
1568.22,1.335425,444181,20518
1571.27,1.329735,436947,20450
1574.32,1.330731,429598,20060
1577.36,1.336500,422039,19447
1580.4,1.326513,414375,19538
1583.43,1.326940,406354,19141
1586.46,1.332034,398475,18551
1590.49,1.339583,388982,17797
1593.51,1.329100,380708,17844
1596.53,1.325582,372727,17612
1599.54,1.332350,365060,16983
1602.55,1.325982,357543,16879
1605.55,1.325641,349495,16512
1608.55,1.328912,341154,15997
1612.54,1.315438,330877,16004
1615.53,1.323871,322904,15318
1618.51,1.327300,315116,14831
1621.49,1.321548,307217,14652
1624.47,1.328446,299481,14058
1627.44,1.315992,292112,14111
1630.41,1.314917,284245,13765
1634.36,1.314416,274079,13288
1637.32,1.320830,266916,12751
1640.27,1.298947,259612,13043
1643.22,1.314560,251804,12204
1646.16,1.304005,244348,12134
1649.1,1.309559,236703,11605
1652.04,1.302844,228171,11361
1655.95,1.293768,215408,10952
1658.88,1.314934,204937,9924
1661.8,1.277717,193395,10203
1664.72,1.271621,179728,9616
1667.63,1.252949,163642,9140
1670.54,1.247827,146312,8269
1673.44,1.243693,128451,7329
1677.31,1.187481,105080,6824
1680.21,1.213332,88906,5440
1683.1,1.177413,75033,4987
1685.99,1.186855,63520,4131
1688.87,1.214214,53714,3280
1691.75,1.194831,45653,2915
1694.62,1.175947,39137,2610
1697.49,1.227795,33776,1999
1701.31,1.137263,28175,2054