File: ML/samples/unknown/Column 1_078254_20241121_165303.csv
Method:,Column 1,,
Host Date-Time:,21/11/24 @ 16:53:3,,
Header Version:,1,,
System Temp (C):,34.32,,
Detector Temp (C):,31.78,,
Humidity (%):,2.55,,
Lamp PD:,3803,,
Shift Vector Coefficients:,-10.5391,0.0761263,-0.000134223,,
Pixel to Wavelength Coefficients:,1775.68,-0.916766,-0.000235065,,
Serial Number:,5510004,,
Scan Config Name:,Column 1,,
Scan Config Type:,Slew,,
Section 1,,
Start wavelength (nm):,900,,
End wavelength (nm):,1700,,
Pattern Pixel Width (nm):,   7.03,,,,
Exposure (ms):,  0.635,,,,
Digital Resolution:,228,,
Num Repeats:,6,,
PGA Gain:,64,,
Total Measurement Time in sec:,  2.726,,
Wavelength (nm),Absorbance (AU),Reference Signal (unitless),Sample Signal (unitless)
901.51,1.308154,108485,5336
905.376,1.313693,121306,5891
909.237,1.292130,131909,6732
913.095,1.319286,143299,6870
916.948,1.316295,156982,7578
922.079,1.345190,179937,8127
925.923,1.322438,200504,9543
929.762,1.314098,222660,10803
933.597,1.320891,244426,11675
937.427,1.314857,263972,12785
941.254,1.322873,281845,13401
945.076,1.311336,297271,14515
950.165,1.315077,315605,15278
953.978,1.309329,328029,16091
957.786,1.306537,340470,16809
961.59,1.309490,352317,17276
965.389,1.316117,363056,17533
969.185,1.312758,373162,18161
972.976,1.313385,382632,18595
976.763,1.309598,391202,19178
981.806,1.301758,400190,19976
985.583,1.309287,406088,19922
989.355,1.308293,410162,20168
993.124,1.315672,412868,19959
996.888,1.310530,414263,20265
1000.65,1.303963,415476,20634
1004.4,1.311117,415479,20297
1009.41,1.315153,414358,20055
1013.15,1.305324,412923,20443
1016.89,1.316899,411526,19838
1020.63,1.304426,409066,20294
1024.36,1.307004,406777,20061
1028.09,1.311163,404427,19755
1031.82,1.308541,401911,19751
1036.78,1.302176,398410,19868
1040.49,1.314324,396204,19213
1044.2,1.312772,394236,19186
1047.91,1.305800,392042,19388
1051.61,1.312503,389823,18983
1055.31,1.311668,388234,18942
1059,1.314410,387599,18792
1063.92,1.306282,386688,19102
1067.61,1.304275,386598,19186
1071.29,1.317408,387377,18652
1074.96,1.322400,388536,18494
1078.63,1.325472,389855,18426
1082.3,1.305847,391215,19345
1085.96,1.312189,393215,19162
1090.84,1.319032,396270,19009
1094.49,1.313268,398760,19384
1098.14,1.317011,400987,19325
1101.79,1.304724,403477,20003
1105.43,1.322441,406116,19329
1109.06,1.312603,407701,19849
1112.7,1.316189,409859,19790
1117.53,1.312719,412494,20077
1121.15,1.320170,414909,19851
1124.77,1.316113,416559,20117
1128.38,1.313271,418532,20345
1131.99,1.313808,419956,20389
1135.6,1.317526,421946,20311
1139.2,1.318061,423881,20379
1143.99,1.325827,426786,20155
1147.58,1.319702,428617,20529
1151.17,1.322851,431169,20502
1154.75,1.318504,433579,20824
1158.33,1.323674,436264,20705
1161.91,1.323843,439132,20833
1165.48,1.322924,442389,21032
1169.04,1.314718,446101,21613
1173.79,1.311780,451929,22044
1177.34,1.322330,456026,21710
1180.9,1.313799,461306,22397
1184.44,1.323281,467657,22215
1187.99,1.319781,473969,22697
1191.52,1.321769,479856,22874
1195.06,1.314709,487372,23613
1199.76,1.317390,497347,23948
1203.29,1.328702,504311,23659
1206.81,1.326420,511507,24123
1210.33,1.322659,519078,24693
1213.84,1.317642,527163,25369
1217.35,1.328279,534208,25086
1220.85,1.329927,540472,25284
1225.51,1.323417,549929,26115
1229.01,1.319582,556888,26680
1232.5,1.327696,562180,26435
1235.98,1.322194,567975,27048
1239.46,1.324241,574815,27245
1242.94,1.319684,582782,27914
1246.41,1.327549,591476,27822
1251.03,1.321882,604016,28785
1254.5,1.324753,612289,28987
1257.96,1.328782,619125,29040
1261.41,1.326173,624551,29471
1264.86,1.325376,629900,29778
1268.31,1.329525,634345,29703
1271.75,1.333626,638574,29620
1276.33,1.334210,642499,29762
1279.76,1.335152,645905,29855
1283.19,1.330811,648307,30267
1286.61,1.330323,650446,30401
1290.03,1.335207,652132,30139
1293.44,1.332943,653907,30379
1296.85,1.332352,655963,30516
1301.39,1.329020,657349,30816
1304.8,1.332624,657558,30571
1308.19,1.328017,658515,30942
1311.58,1.331844,658804,30684
1314.97,1.331373,659011,30727
1318.36,1.332358,658272,30623
1321.73,1.335481,658022,30392
1326.23,1.334938,657870,30423
1329.6,1.333992,656482,30425
1332.97,1.334549,654926,30314
1336.33,1.331766,653727,30453
1339.69,1.332864,652497,30319
1343.04,1.332704,649913,30210
1346.39,1.332572,647671,30115
1349.73,1.323328,645338,30652
1354.18,1.333023,641175,29782
1357.52,1.326106,638376,30128
1360.85,1.331387,635805,29644
1364.17,1.324291,633413,30019
1367.49,1.325875,631026,29797
1370.81,1.331764,628050,29257
1374.12,1.335156,625034,28890
1378.54,1.332662,620272,28835
1381.84,1.330304,616892,28834
1385.14,1.332745,613613,28520
1388.43,1.325637,611526,28892
1391.72,1.328692,610663,28649
1395.01,1.324388,610634,28933
1398.29,1.333205,611700,28401
1402.66,1.328737,614051,28805
1405.93,1.325250,616268,29142
1409.2,1.329751,617795,28913
1412.46,1.339140,618872,28344
1415.72,1.329925,619795,28995
1418.98,1.332021,620495,28888
1422.23,1.328484,621087,29152
1426.56,1.323694,621375,29489
1429.8,1.332715,621616,28894
1433.04,1.334956,622129,28769
1436.27,1.336714,621526,28625
1439.5,1.336228,621113,28638
1442.72,1.330848,620921,28986
1445.94,1.332405,620270,28852
1450.23,1.331763,618860,28829
1453.44,1.330660,617697,28848
1456.64,1.338103,616264,28292
1459.85,1.342265,614413,27938
1463.04,1.334799,612307,28325
1466.24,1.335427,610032,28179
1469.43,1.336122,607345,28010
1473.67,1.333510,603789,28014
1476.85,1.335300,601175,27778
1480.02,1.336972,597737,27513
1483.19,1.336989,594479,27362
1486.36,1.335102,591232,27331
1489.52,1.336315,587853,27099
1492.68,1.340672,583875,26647
1496.89,1.341441,578062,26335
1500.03,1.331514,574159,26762
1503.18,1.333207,570285,26478
1506.32,1.333376,565444,26243
1509.45,1.334811,560571,25931
1512.58,1.336593,555821,25606
1515.71,1.334691,550344,25465
1519.87,1.334030,543983,25209
1522.99,1.337718,538764,24756
1526.1,1.338728,533692,24466
1529.21,1.336286,527902,24337
1532.32,1.335324,521886,24113
1535.42,1.335468,515888,23828
1538.51,1.336029,509987,23525
1541.6,1.343394,503936,22855
1545.72,1.334539,494694,22898
1548.8,1.331698,488378,22754
1551.88,1.337757,481832,22138
1554.95,1.328768,474989,22280
1558.02,1.339501,467818,21408
1561.08,1.330362,460730,21532
1564.15,1.333884,454170,21054
1568.22,1.328683,444181,20839
1571.27,1.333768,436947,20261
1574.32,1.338508,429598,19704
1577.36,1.335229,422039,19504
1580.4,1.332084,414375,19289
1583.43,1.329443,406354,19031
1586.46,1.329327,398475,18667
1590.49,1.332683,388982,18082
1593.51,1.331345,380708,17752
1596.53,1.331641,372727,17368
1599.54,1.329063,365060,17112
1602.55,1.320408,357543,17097
1605.55,1.333256,349495,16225
1608.55,1.326179,341154,16098
1612.54,1.333445,330877,15354
1615.53,1.315754,322904,15607
1618.51,1.329119,315116,14769
1621.49,1.321459,307217,14655
1624.47,1.321155,299481,14296
1627.44,1.315254,292112,14135
1630.41,1.329678,284245,13305
1634.36,1.320306,274079,13109
1637.32,1.338735,266916,12236
1640.27,1.318598,259612,12466
1643.22,1.318744,251804,12087
1646.16,1.321646,244348,11651
1649.1,1.305573,236703,11712
1652.04,1.310518,228171,11162
1655.95,1.313730,215408,10460
1658.88,1.312316,204937,9984
1661.8,1.298779,193395,9720
1664.72,1.294193,179728,9129
1667.63,1.265971,163642,8870
1670.54,1.258245,146312,8073
1673.44,1.222868,128451,7689
1677.31,1.233210,105080,6142
1680.21,1.209280,88906,5491
1683.1,1.167342,75033,5104
1685.99,1.197821,63520,4028
1688.87,1.231364,53714,3153
1691.75,1.239679,45653,2629
1694.62,1.192050,39137,2515
1697.49,1.227144,33776,2002
1701.31,1.385032,28175,1161