File: ML/samples/unknown/Column 1_078241_20241121_165224.csv
Method:,Column 1,,
Host Date-Time:,21/11/24 @ 16:52:24,,
Header Version:,1,,
System Temp (C):,34.14,,
Detector Temp (C):,31.6,,
Humidity (%):,2.55,,
Lamp PD:,3803,,
Shift Vector Coefficients:,-10.5391,0.0761263,-0.000134223,,
Pixel to Wavelength Coefficients:,1775.68,-0.916766,-0.000235065,,
Serial Number:,5510004,,
Scan Config Name:,Column 1,,
Scan Config Type:,Slew,,
Section 1,,
Start wavelength (nm):,900,,
End wavelength (nm):,1700,,
Pattern Pixel Width (nm):,   7.03,,,,
Exposure (ms):,  0.635,,,,
Digital Resolution:,228,,
Num Repeats:,6,,
PGA Gain:,64,,
Total Measurement Time in sec:,  2.717,,
Wavelength (nm),Absorbance (AU),Reference Signal (unitless),Sample Signal (unitless)
901.51,1.333112,108485,5038
905.376,1.321129,121306,5791
909.237,1.314978,131909,6387
913.095,1.312637,143299,6976
916.948,1.310319,156982,7683
922.079,1.309307,179937,8827
925.923,1.307015,200504,9888
929.762,1.318746,222660,10688
933.597,1.317297,244426,11772
937.427,1.322914,263972,12550
941.254,1.331812,281845,13128
945.076,1.308146,297271,14622
950.165,1.320455,315605,15090
953.978,1.310140,328029,16061
957.786,1.320958,340470,16260
961.59,1.304715,352317,17467
965.389,1.314905,363056,17582
969.185,1.315108,373162,18063
972.976,1.307585,382632,18845
976.763,1.309915,391202,19164
981.806,1.300976,400190,20012
985.583,1.308960,406088,19937
989.355,1.308508,410162,20158
993.124,1.308936,412868,20271
996.888,1.309802,414263,20299
1000.65,1.306898,415476,20495
1004.4,1.308536,415479,20418
1009.41,1.306725,414358,20448
1013.15,1.297848,412923,20798
1016.89,1.312088,411526,20059
1020.63,1.303784,409066,20324
1024.36,1.304478,406777,20178
1028.09,1.319688,404427,19371
1031.82,1.308937,401911,19733
1036.78,1.310496,398410,19491
1040.49,1.302066,396204,19763
1044.2,1.311754,394236,19231
1047.91,1.313278,392042,19057
1051.61,1.310244,389823,19082
1055.31,1.316672,388234,18725
1059,1.318800,387599,18603
1063.92,1.301556,386688,19311
1067.61,1.302874,386598,19248
1071.29,1.312546,387377,18862
1074.96,1.309582,388536,19048
1078.63,1.319178,389855,18695
1082.3,1.312908,391215,19033
1085.96,1.311849,393215,19177
1090.84,1.309831,396270,19416
1094.49,1.326161,398760,18817
1098.14,1.323099,400987,19056
1101.79,1.314383,403477,19563
1105.43,1.322620,406116,19321
1109.06,1.318041,407701,19602
1112.7,1.320423,409859,19598
1117.53,1.332026,412494,19204
1121.15,1.326584,414909,19560
1124.77,1.313788,416559,20225
1128.38,1.317950,418532,20127
1131.99,1.323675,419956,19931
1135.6,1.313779,421946,20487
1139.2,1.323055,423881,20146
1143.99,1.319050,426786,20472
1147.58,1.318118,428617,20604
1151.17,1.324826,431169,20409
1154.75,1.320427,433579,20732
1158.33,1.310189,436264,21358
1161.91,1.315175,439132,21253
1165.48,1.307089,442389,21813
1169.04,1.313554,446101,21671
1173.79,1.326405,451929,21314
1177.34,1.322490,456026,21702
1180.9,1.323010,461306,21927
1184.44,1.324514,467657,22152
1187.99,1.323683,473969,22494
1191.52,1.320839,479856,22923
1195.06,1.326114,487372,23001
1199.76,1.326757,497347,23437
1203.29,1.320105,504311,24132
1206.81,1.321889,511507,24376
1210.33,1.320693,519078,24805
1213.84,1.320958,527163,25176
1217.35,1.319657,534208,25589
1220.85,1.321591,540472,25774
1225.51,1.327745,549929,25856
1229.01,1.321589,556888,26557
1232.5,1.325337,562180,26579
1235.98,1.324286,567975,26918
1239.46,1.322666,574815,27344
1242.94,1.328200,582782,27372
1246.41,1.325245,591476,27970
1251.03,1.323484,604016,28679
1254.5,1.325383,612289,28945
1257.96,1.326767,619125,29175
1261.41,1.327841,624551,29358
1264.86,1.329170,629900,29519
1268.31,1.324380,634345,30057
1271.75,1.325578,638574,30174
1276.33,1.333074,642499,29840
1279.76,1.333670,645905,29957
1283.19,1.330195,648307,30310
1286.61,1.331912,650446,30290
1290.03,1.331848,652132,30373
1293.44,1.334504,653907,30270
1296.85,1.331627,655963,30567
1301.39,1.330022,657349,30745
1304.8,1.329905,657558,30763
1308.19,1.330777,658515,30746
1311.58,1.336197,658804,30378
1314.97,1.335120,659011,30463
1318.36,1.336318,658272,30345
1321.73,1.332576,658022,30596
1326.23,1.334040,657870,30486
1329.6,1.331800,656482,30579
1332.97,1.327022,654926,30844
1336.33,1.333166,653727,30355
1339.69,1.330834,652497,30461
1343.04,1.331126,649913,30320
1346.39,1.336003,647671,29878
1349.73,1.331827,645338,30058
1354.18,1.329334,641175,30036
1357.52,1.330118,638376,29851
1360.85,1.329954,635805,29742
1364.17,1.326830,633413,29844
1367.49,1.331537,631026,29411
1370.81,1.328099,628050,29505
1374.12,1.323337,625034,29687
1378.54,1.326100,620272,29274
1381.84,1.332161,616892,28711
1385.14,1.329529,613613,28732
1388.43,1.331860,611526,28481
1391.72,1.325746,610663,28844
1395.01,1.327657,610634,28716
1398.29,1.324605,611700,28969
1402.66,1.331095,614051,28649
1405.93,1.328812,616268,28904
1409.2,1.330112,617795,28889
1412.46,1.337992,618872,28419
1415.72,1.335412,619795,28631
1418.98,1.332006,620495,28889
1422.23,1.329678,621087,29072
1426.56,1.335759,621375,28681
1429.8,1.335807,621616,28689
1433.04,1.330077,622129,29094
1436.27,1.331136,621526,28995
1439.5,1.333582,621113,28813
1442.72,1.329532,620921,29074
1445.94,1.333158,620270,28802
1450.23,1.339300,618860,28333
1453.44,1.341235,617697,28154
1456.64,1.339548,616264,28198
1459.85,1.337750,614413,28230
1463.04,1.338943,612307,28056
1466.24,1.332585,610032,28364
1469.43,1.339375,607345,27801
1473.67,1.332225,603789,28097
1476.85,1.334706,601175,27816
1480.02,1.334093,597737,27696
1483.19,1.340959,594479,27113
1486.36,1.331652,591232,27549
1489.52,1.335899,587853,27125
1492.68,1.339760,583875,26703
1496.89,1.338810,578062,26495
1500.03,1.338994,574159,26305
1503.18,1.340001,570285,26067
1506.32,1.340114,565444,25839
1509.45,1.342465,560571,25478
1512.58,1.336525,555821,25610
1515.71,1.340027,550344,25154
1519.87,1.360764,543983,23704
1522.99,1.335478,538764,24884
1526.1,1.332069,533692,24844
1529.21,1.344010,527902,23908
1532.32,1.344314,521886,23619
1535.42,1.336563,515888,23768
1538.51,1.339980,509987,23312
1541.6,1.339893,503936,23040
1545.72,1.339882,494694,22618
1548.8,1.342892,488378,22175
1551.88,1.341857,481832,21930
1554.95,1.334774,474989,21974
1558.02,1.334358,467818,21663
1561.08,1.337767,460730,21168
1564.15,1.333719,454170,21062
1568.22,1.333019,444181,20632
1571.27,1.337665,436947,20080
1574.32,1.330190,429598,20085
1577.36,1.327526,422039,19853
1580.4,1.333753,414375,19215
1583.43,1.350603,406354,18126
1586.46,1.331122,398475,18590
1590.49,1.330049,388982,18192
1593.51,1.342069,380708,17319
1596.53,1.329297,372727,17462
1599.54,1.335429,365060,16863
1602.55,1.326831,357543,16846
1605.55,1.332748,349495,16244
1608.55,1.333140,341154,15842
1612.54,1.317696,330877,15921
1615.53,1.328374,322904,15160
1618.51,1.333582,315116,14618
1621.49,1.325030,307217,14535
1624.47,1.314612,299481,14513
1627.44,1.323097,292112,13882
1630.41,1.318083,284245,13665
1634.36,1.317664,274079,13189
1637.32,1.329395,266916,12502
1640.27,1.312131,259612,12653
1643.22,1.320689,251804,12033
1646.16,1.320454,244348,11683
1649.1,1.321164,236703,11299
1652.04,1.300176,228171,11431
1655.95,1.319961,215408,10311
1658.88,1.304001,204937,10177
1661.8,1.294466,193395,9817
1664.72,1.290734,179728,9202
1667.63,1.262606,163642,8939
1670.54,1.276876,146312,7734
1673.44,1.214588,128451,7837
1677.31,1.236546,105080,6095
1680.21,1.204716,88906,5549
1683.1,1.201126,75033,4722
1685.99,1.187276,63520,4127
1688.87,1.227251,53714,3183
1691.75,1.225699,45653,2715
1694.62,1.172632,39137,2630
1697.49,1.135560,33776,2472
1701.31,1.200421,28175,1776