File: ML/samples/unknown/Column 1_078591_20241121_171013.csv
Method:,Column 1,,
Host Date-Time:,21/11/24 @ 17:10:13,,
Header Version:,1,,
System Temp (C):,36.6,,
Detector Temp (C):,34.77,,
Humidity (%):,1.17,,
Lamp PD:,3798,,
Shift Vector Coefficients:,-10.5391,0.0761263,-0.000134223,,
Pixel to Wavelength Coefficients:,1775.68,-0.916766,-0.000235065,,
Serial Number:,5510004,,
Scan Config Name:,Column 1,,
Scan Config Type:,Slew,,
Section 1,,
Start wavelength (nm):,900,,
End wavelength (nm):,1700,,
Pattern Pixel Width (nm):,   7.03,,,,
Exposure (ms):,  0.635,,,,
Digital Resolution:,228,,
Num Repeats:,6,,
PGA Gain:,64,,
Total Measurement Time in sec:,  2.729,,
Wavelength (nm),Absorbance (AU),Reference Signal (unitless),Sample Signal (unitless)
901.51,1.320537,108485,5186
905.376,1.329763,121306,5677
909.237,1.302841,131909,6568
913.095,1.329780,143299,6706
916.948,1.323985,156982,7445
922.079,1.317603,179937,8660
925.923,1.329642,200504,9386
929.762,1.306250,222660,11000
933.597,1.329608,244426,11443
937.427,1.315333,263972,12771
941.254,1.305249,281845,13956
945.076,1.311126,297271,14522
950.165,1.305908,315605,15604
953.978,1.303671,328029,16302
957.786,1.316626,340470,16423
961.59,1.303920,352317,17499
965.389,1.307412,363056,17888
969.185,1.315083,373162,18064
972.976,1.306940,382632,18873
976.763,1.304085,391202,19423
981.806,1.314868,400190,19382
985.583,1.304604,406088,20138
989.355,1.292394,410162,20920
993.124,1.303951,412868,20505
996.888,1.302987,414263,20620
1000.65,1.313109,415476,20204
1004.4,1.303230,415479,20669
1009.41,1.304015,414358,20576
1013.15,1.305877,412923,20417
1016.89,1.316571,411526,19853
1020.63,1.312809,409066,19906
1024.36,1.311290,406777,19864
1028.09,1.300179,404427,20261
1031.82,1.304078,401911,19955
1036.78,1.304170,398410,19777
1040.49,1.303607,396204,19693
1044.2,1.297821,394236,19858
1047.91,1.306203,392042,19370
1051.61,1.305693,389823,19283
1055.31,1.299304,388234,19489
1059,1.298459,387599,19495
1063.92,1.300680,386688,19350
1067.61,1.314838,386598,18725
1071.29,1.307897,387377,19065
1074.96,1.303177,388536,19331
1078.63,1.313775,389855,18929
1082.3,1.308820,391215,19213
1085.96,1.298909,393215,19757
1090.84,1.308915,396270,19457
1094.49,1.311770,398760,19451
1098.14,1.301384,400987,20033
1101.79,1.310120,403477,19756
1105.43,1.307490,406116,20006
1109.06,1.313984,407701,19786
1112.7,1.310195,409859,20065
1117.53,1.318314,412494,19820
1121.15,1.306220,414909,20499
1124.77,1.318321,416559,20015
1128.38,1.312738,418532,20370
1131.99,1.310477,419956,20546
1135.6,1.316970,421946,20337
1139.2,1.316232,423881,20465
1143.99,1.312774,426786,20770
1147.58,1.304833,428617,21244
1151.17,1.311684,431169,21036
1154.75,1.315387,433579,20974
1158.33,1.314152,436264,21164
1161.91,1.309753,439132,21520
1165.48,1.310547,442389,21640
1169.04,1.312493,446101,21724
1173.79,1.309265,451929,22172
1177.34,1.308587,456026,22408
1180.9,1.315120,461306,22329
1184.44,1.312374,467657,22780
1187.99,1.316427,473969,22873
1191.52,1.315604,479856,23201
1195.06,1.315464,487372,23572
1199.76,1.321691,497347,23712
1203.29,1.317575,504311,24273
1206.81,1.314715,511507,24782
1210.33,1.315057,519078,25129
1213.84,1.314061,527163,25579
1217.35,1.323219,534208,25380
1220.85,1.318084,540472,25983
1225.51,1.322785,549929,26153
1229.01,1.327732,556888,26184
1232.5,1.310527,562180,27501
1235.98,1.323239,567975,26983
1239.46,1.317990,574815,27640
1242.94,1.314626,582782,28241
1246.41,1.322567,591476,28143
1251.03,1.313041,604016,29377
1254.5,1.321707,612289,29191
1257.96,1.324688,619125,29315
1261.41,1.323778,624551,29634
1264.86,1.326164,629900,29724
1268.31,1.323240,634345,30136
1271.75,1.323253,638574,30336
1276.33,1.325871,642499,30339
1279.76,1.327752,645905,30368
1283.19,1.325364,648307,30649
1286.61,1.330009,650446,30423
1290.03,1.319917,652132,31219
1293.44,1.323454,653907,31050
1296.85,1.326205,655963,30951
1301.39,1.324282,657349,31154
1304.8,1.324211,657558,31169
1308.19,1.322203,658515,31359
1311.58,1.325814,658804,31113
1314.97,1.326831,659011,31050
1318.36,1.325910,658272,31081
1321.73,1.325745,658022,31081
1326.23,1.328857,657870,30852
1329.6,1.328870,656482,30786
1332.97,1.319913,654926,31353
1336.33,1.327354,653727,30764
1339.69,1.328432,652497,30630
1343.04,1.321886,649913,30972
1346.39,1.332817,647671,30098
1349.73,1.323357,645338,30650
1354.18,1.324961,641175,30340
1357.52,1.323878,638376,30283
1360.85,1.321795,635805,30306
1364.17,1.322616,633413,30135
1367.49,1.326648,631026,29744
1370.81,1.329233,628050,29428
1374.12,1.324055,625034,29638
1378.54,1.322142,620272,29542
1381.84,1.318434,616892,29633
1385.14,1.322229,613613,29219
1388.43,1.317949,611526,29408
1391.72,1.325370,610663,28869
1395.01,1.321963,610634,29095
1398.29,1.328914,611700,28683
1402.66,1.320596,614051,29350
1405.93,1.324342,616268,29203
1409.2,1.323829,617795,29310
1412.46,1.324926,618872,29287
1415.72,1.328266,619795,29106
1418.98,1.334403,620495,28730
1422.23,1.326670,621087,29274
1426.56,1.331450,621375,28967
1429.8,1.330615,621616,29034
1433.04,1.329257,622129,29149
1436.27,1.332456,621526,28907
1439.5,1.330039,621113,29049
1442.72,1.330878,620921,28984
1445.94,1.331007,620270,28945
1450.23,1.328446,618860,29050
1453.44,1.329187,617697,28946
1456.64,1.325173,616264,29147
1459.85,1.330881,614413,28680
1463.04,1.326417,612307,28877
1466.24,1.331194,610032,28455
1469.43,1.329277,607345,28455
1473.67,1.328639,603789,28330
1476.85,1.329800,601175,28132
1480.02,1.330330,597737,27937
1483.19,1.330139,594479,27797
1486.36,1.334801,591232,27350
1489.52,1.328092,587853,27617
1492.68,1.332582,583875,27148
1496.89,1.335740,578062,26683
1500.03,1.331481,574159,26764
1503.18,1.326340,570285,26900
1506.32,1.337316,565444,26006
1509.45,1.328477,560571,26312
1512.58,1.328644,555821,26079
1515.71,1.334077,550344,25501
1519.87,1.333530,543983,25238
1522.99,1.330930,538764,25146
1526.1,1.330098,533692,24957
1529.21,1.329364,527902,24728
1532.32,1.325195,521886,24682
1535.42,1.326663,515888,24316
1538.51,1.337824,509987,23428
1541.6,1.330163,503936,23562
1545.72,1.329936,494694,23142
1548.8,1.325916,488378,23059
1551.88,1.327655,481832,22659
1554.95,1.337332,474989,21845
1558.02,1.331362,467818,21813
1561.08,1.333297,460730,21387
1564.15,1.326054,454170,21437
1568.22,1.336251,444181,20479
1571.27,1.329205,436947,20475
1574.32,1.327324,429598,20218
1577.36,1.323975,422039,20016
1580.4,1.325536,414375,19582
1583.43,1.329900,406354,19011
1586.46,1.330398,398475,18621
1590.49,1.331891,388982,18115
1593.51,1.323610,380708,18071
1596.53,1.330667,372727,17407
1599.54,1.321765,365060,17402
1602.55,1.325879,357543,16883
1605.55,1.322131,349495,16646
1608.55,1.318663,341154,16379
1612.54,1.326960,330877,15585
1615.53,1.324638,322904,15291
1618.51,1.312843,315116,15333
1621.49,1.316538,307217,14822
1624.47,1.322768,299481,14243
1627.44,1.316392,292112,14098
1630.41,1.305491,284245,14067
1634.36,1.312557,274079,13345
1637.32,1.307020,266916,13163
1640.27,1.309633,259612,12726
1643.22,1.302904,251804,12536
1646.16,1.297857,244348,12307
1649.1,1.311283,236703,11559
1652.04,1.297978,228171,11489
1655.95,1.297672,215408,10854
1658.88,1.286683,204937,10591
1661.8,1.275171,193395,10263
1664.72,1.288145,179728,9257
1667.63,1.252426,163642,9151
1670.54,1.254922,146312,8135
1673.44,1.208261,128451,7952
1677.31,1.201845,105080,6602
1680.21,1.194736,88906,5678
1683.1,1.155507,75033,5245
1685.99,1.131923,63520,4688
1688.87,1.134702,53714,3939
1691.75,1.177740,45653,3032
1694.62,1.108288,39137,3050
1697.49,1.192148,33776,2170
1701.31,1.149703,28175,1996