File: ML/samples/unknown/Column 1_078210_20241121_165052.csv
Method:,Column 1,,
Host Date-Time:,21/11/24 @ 16:50:52,,
Header Version:,1,,
System Temp (C):,34.01,,
Detector Temp (C):,30.88,,
Humidity (%):,2.94,,
Lamp PD:,3803,,
Shift Vector Coefficients:,-10.5391,0.0761263,-0.000134223,,
Pixel to Wavelength Coefficients:,1775.68,-0.916766,-0.000235065,,
Serial Number:,5510004,,
Scan Config Name:,Column 1,,
Scan Config Type:,Slew,,
Section 1,,
Start wavelength (nm):,900,,
End wavelength (nm):,1700,,
Pattern Pixel Width (nm):,   7.03,,,,
Exposure (ms):,  0.635,,,,
Digital Resolution:,228,,
Num Repeats:,6,,
PGA Gain:,64,,
Total Measurement Time in sec:,  2.725,,
Wavelength (nm),Absorbance (AU),Reference Signal (unitless),Sample Signal (unitless)
901.51,1.314549,108485,5258
905.376,1.335694,121306,5600
909.237,1.339957,131909,6030
913.095,1.318907,143299,6876
916.948,1.339846,156982,7178
922.079,1.303977,179937,8936
925.923,1.319671,200504,9604
929.762,1.316638,222660,10740
933.597,1.316302,244426,11799
937.427,1.340787,263972,12044
941.254,1.319934,281845,13492
945.076,1.315635,297271,14372
950.165,1.317586,315605,15190
953.978,1.308655,328029,16116
957.786,1.324552,340470,16126
961.59,1.313202,352317,17129
965.389,1.312025,363056,17699
969.185,1.301731,373162,18628
972.976,1.311265,382632,18686
976.763,1.310709,391202,19129
981.806,1.307976,400190,19692
985.583,1.311889,406088,19803
989.355,1.309738,410162,20101
993.124,1.312226,412868,20118
996.888,1.310958,414263,20245
1000.65,1.307534,415476,20465
1004.4,1.311695,415479,20270
1009.41,1.313640,414358,20125
1013.15,1.308095,412923,20313
1016.89,1.320858,411526,19658
1020.63,1.305798,409066,20230
1024.36,1.308957,406777,19971
1028.09,1.306310,404427,19977
1031.82,1.304623,401911,19930
1036.78,1.300409,398410,19949
1040.49,1.303100,396204,19716
1044.2,1.305143,394236,19526
1047.91,1.312436,392042,19094
1051.61,1.311109,389823,19044
1055.31,1.321148,388234,18533
1059,1.315011,387599,18766
1063.92,1.312856,386688,18815
1067.61,1.313333,386598,18790
1071.29,1.313214,387377,18833
1074.96,1.311501,388536,18964
1078.63,1.308893,389855,19143
1082.3,1.320922,391215,18685
1085.96,1.311374,393215,19198
1090.84,1.322127,396270,18874
1094.49,1.313134,398760,19390
1098.14,1.322484,400987,19083
1101.79,1.313452,403477,19605
1105.43,1.313897,406116,19713
1109.06,1.320820,407701,19477
1112.7,1.322979,409859,19483
1117.53,1.319060,412494,19786
1121.15,1.319449,414909,19884
1124.77,1.313767,416559,20226
1128.38,1.322047,418532,19938
1131.99,1.323675,419956,19931
1135.6,1.315904,421946,20387
1139.2,1.328042,423881,19916
1143.99,1.315564,426786,20637
1147.58,1.326159,428617,20226
1151.17,1.329232,431169,20203
1154.75,1.321371,433579,20687
1158.33,1.329375,436264,20435
1161.91,1.322262,439132,20909
1165.48,1.315533,442389,21393
1169.04,1.319913,446101,21356
1173.79,1.319412,451929,21660
1177.34,1.320792,456026,21787
1180.9,1.321192,461306,22019
1184.44,1.318711,467657,22450
1187.99,1.318845,473969,22746
1191.52,1.317405,479856,23105
1195.06,1.326001,487372,23007
1199.76,1.322810,497347,23651
1203.29,1.325574,504311,23830
1206.81,1.324552,511507,24227
1210.33,1.325996,519078,24504
1213.84,1.326007,527163,24885
1217.35,1.330066,534208,24983
1220.85,1.323906,540472,25637
1225.51,1.323833,549929,26090
1229.01,1.322178,556888,26521
1232.5,1.323624,562180,26684
1235.98,1.329023,567975,26626
1239.46,1.321429,574815,27422
1242.94,1.326901,582782,27454
1246.41,1.328846,591476,27739
1251.03,1.328664,604016,28339
1254.5,1.326796,612289,28851
1257.96,1.322177,619125,29485
1261.41,1.325319,624551,29529
1264.86,1.331116,629900,29387
1268.31,1.328372,634345,29782
1271.75,1.338181,638574,29311
1276.33,1.327377,642499,30234
1279.76,1.333134,645905,29994
1283.19,1.328322,648307,30441
1286.61,1.324773,650446,30792
1290.03,1.328969,652132,30575
1293.44,1.329894,653907,30593
1296.85,1.331144,655963,30601
1301.39,1.330559,657349,30707
1304.8,1.333278,657558,30525
1308.19,1.329677,658515,30824
1311.58,1.331307,658804,30722
1314.97,1.327811,659011,30980
1318.36,1.327661,658272,30956
1321.73,1.328760,658022,30866
1326.23,1.334909,657870,30425
1329.6,1.330155,656482,30695
1332.97,1.336171,654926,30201
1336.33,1.337422,653727,30059
1339.69,1.324058,652497,30940
1343.04,1.331871,649913,30268
1346.39,1.332889,647671,30093
1349.73,1.330068,645338,30180
1354.18,1.331160,641175,29910
1357.52,1.323820,638376,30287
1360.85,1.328089,635805,29870
1364.17,1.328974,633413,29697
1367.49,1.330756,631026,29464
1370.81,1.329056,628050,29440
1374.12,1.325581,625034,29534
1378.54,1.328227,620272,29131
1381.84,1.329672,616892,28876
1385.14,1.327463,613613,28869
1388.43,1.324961,611526,28937
1391.72,1.328844,610663,28639
1395.01,1.330190,610634,28549
1398.29,1.329839,611700,28622
1402.66,1.325253,614051,29037
1405.93,1.332963,616268,28629
1409.2,1.334797,617795,28579
1412.46,1.336924,618872,28489
1415.72,1.330465,619795,28959
1418.98,1.342797,620495,28180
1422.23,1.336286,621087,28633
1426.56,1.333148,621375,28854
1429.8,1.338007,621616,28544
1433.04,1.341557,622129,28335
1436.27,1.334565,621526,28767
1439.5,1.334004,621113,28785
1442.72,1.333568,620921,28805
1445.94,1.340641,620270,28310
1450.23,1.338886,618860,28360
1453.44,1.339588,617697,28261
1456.64,1.332324,616264,28671
1459.85,1.335892,614413,28351
1463.04,1.332155,612307,28498
1466.24,1.339328,610032,27927
1469.43,1.336153,607345,28008
1473.67,1.336965,603789,27792
1476.85,1.334254,601175,27845
1480.02,1.342692,597737,27153
1483.19,1.330342,594479,27784
1486.36,1.340459,591232,26996
1489.52,1.336700,587853,27075
1492.68,1.341749,583875,26581
1496.89,1.340502,578062,26392
1500.03,1.341743,574159,26139
1503.18,1.337923,570285,26192
1506.32,1.340299,565444,25828
1509.45,1.348525,560571,25125
1512.58,1.341043,555821,25345
1515.71,1.340666,550344,25117
1519.87,1.338567,543983,24947
1522.99,1.343902,538764,24406
1526.1,1.335579,533692,24644
1529.21,1.342143,527902,24011
1532.32,1.339232,521886,23897
1535.42,1.339110,515888,23629
1538.51,1.336491,509987,23500
1541.6,1.339102,503936,23082
1545.72,1.338445,494694,22693
1548.8,1.336631,488378,22497
1551.88,1.330154,481832,22529
1554.95,1.336855,474989,21869
1558.02,1.328405,467818,21962
1561.08,1.333683,460730,21368
1564.15,1.335227,454170,20989
1568.22,1.333208,444181,20623
1571.27,1.333254,436947,20285
1574.32,1.343072,429598,19498
1577.36,1.335987,422039,19470
1580.4,1.333211,414375,19239
1583.43,1.330082,406354,19003
1586.46,1.332291,398475,18540
1590.49,1.334078,388982,18024
1593.51,1.327909,380708,17893
1596.53,1.336115,372727,17190
1599.54,1.330462,365060,17057
1602.55,1.330222,357543,16715
1605.55,1.334301,349495,16186
1608.55,1.334046,341154,15809
1612.54,1.324958,330877,15657
1615.53,1.321214,322904,15412
1618.51,1.321367,315116,15035
1621.49,1.318124,307217,14768
1624.47,1.326166,299481,14132
1627.44,1.328702,292112,13704
1630.41,1.305955,284245,14052
1634.36,1.322865,274079,13032
1637.32,1.313100,266916,12980
1640.27,1.333698,259612,12040
1643.22,1.326648,251804,11869
1646.16,1.314767,244348,11837
1649.1,1.319055,236703,11354
1652.04,1.319879,228171,10924
1655.95,1.299838,215408,10800
1658.88,1.291508,204937,10474
1661.8,1.311427,193395,9441
1664.72,1.287021,179728,9281
1667.63,1.273528,163642,8717
1670.54,1.270798,146312,7843
1673.44,1.234778,128451,7481
1677.31,1.243007,105080,6005
1680.21,1.218795,88906,5372
1683.1,1.217050,75033,4552
1685.99,1.162727,63520,4367
1688.87,1.147797,53714,3822
1691.75,1.213709,45653,2791
1694.62,1.189124,39137,2532
1697.49,1.178360,33776,2240
1701.31,1.246559,28175,1597