File: ML/samples/unknown/Column 1_078324_20241121_165628.csv
Method:,Column 1,,
Host Date-Time:,21/11/24 @ 16:56:28,,
Header Version:,1,,
System Temp (C):,34.67,,
Detector Temp (C):,32.91,,
Humidity (%):,2.16,,
Lamp PD:,3802,,
Shift Vector Coefficients:,-10.5391,0.0761263,-0.000134223,,
Pixel to Wavelength Coefficients:,1775.68,-0.916766,-0.000235065,,
Serial Number:,5510004,,
Scan Config Name:,Column 1,,
Scan Config Type:,Slew,,
Section 1,,
Start wavelength (nm):,900,,
End wavelength (nm):,1700,,
Pattern Pixel Width (nm):,   7.03,,,,
Exposure (ms):,  0.635,,,,
Digital Resolution:,228,,
Num Repeats:,6,,
PGA Gain:,64,,
Total Measurement Time in sec:,  2.667,,
Wavelength (nm),Absorbance (AU),Reference Signal (unitless),Sample Signal (unitless)
901.51,1.304830,108485,5377
905.376,1.361248,121306,5280
909.237,1.319626,131909,6319
913.095,1.338810,143299,6568
916.948,1.299710,156982,7873
922.079,1.331617,179937,8385
925.923,1.328349,200504,9414
929.762,1.322828,222660,10588
933.597,1.322979,244426,11619
937.427,1.315809,263972,12757
941.254,1.321837,281845,13433
945.076,1.300462,297271,14883
950.165,1.326862,315605,14869
953.978,1.319930,328029,15703
957.786,1.320131,340470,16291
961.59,1.312087,352317,17173
965.389,1.319999,363056,17377
969.185,1.306796,373162,18412
972.976,1.299933,382632,19180
976.763,1.309168,391202,19197
981.806,1.300976,400190,20012
985.583,1.313956,406088,19709
989.355,1.307411,410162,20209
993.124,1.314651,412868,20006
996.888,1.313023,414263,20149
1000.65,1.309598,415476,20368
1004.4,1.314382,415479,20145
1009.41,1.310393,414358,20276
1013.15,1.311314,412923,20163
1016.89,1.303152,411526,20476
1020.63,1.311198,409066,19980
1024.36,1.313987,406777,19741
1028.09,1.310548,404427,19783
1031.82,1.310083,401911,19681
1036.78,1.314615,398410,19307
1040.49,1.307907,396204,19499
1044.2,1.309435,394236,19334
1047.91,1.307505,392042,19312
1051.61,1.316941,389823,18790
1055.31,1.310958,388234,18973
1059,1.307395,387599,19098
1063.92,1.310141,386688,18933
1067.61,1.317770,386598,18599
1071.29,1.312822,387377,18850
1074.96,1.307331,388536,19147
1078.63,1.315292,389855,18863
1082.3,1.313891,391215,18990
1085.96,1.317525,393215,18928
1090.84,1.313132,396270,19269
1094.49,1.312127,398760,19435
1098.14,1.321075,400987,19145
1101.79,1.323469,403477,19158
1105.43,1.324648,406116,19231
1109.06,1.320352,407701,19498
1112.7,1.311909,409859,19986
1117.53,1.315105,412494,19967
1121.15,1.317184,414909,19988
1124.77,1.325188,416559,19701
1128.38,1.312844,418532,20365
1131.99,1.316371,419956,20269
1135.6,1.318317,421946,20274
1139.2,1.321291,423881,20228
1143.99,1.333107,426786,19820
1147.58,1.318814,428617,20571
1151.17,1.318614,431169,20703
1154.75,1.318713,433579,20814
1158.33,1.318959,436264,20931
1161.91,1.323218,439132,20863
1165.48,1.326990,442389,20836
1169.04,1.322156,446101,21246
1173.79,1.318490,451929,21706
1177.34,1.319578,456026,21848
1180.9,1.320147,461306,22072
1184.44,1.318537,467657,22459
1187.99,1.316142,473969,22888
1191.52,1.319950,479856,22970
1195.06,1.325491,487372,23034
1199.76,1.323950,497347,23589
1203.29,1.318757,504311,24207
1206.81,1.326168,511507,24137
1210.33,1.318406,519078,24936
1213.84,1.325345,527163,24923
1217.35,1.326982,534208,25161
1220.85,1.328881,540472,25345
1225.51,1.333681,549929,25505
1229.01,1.327865,556888,26176
1232.5,1.323071,562180,26718
1235.98,1.326308,567975,26793
1239.46,1.317896,574815,27646
1242.94,1.324235,582782,27623
1246.41,1.325152,591476,27976
1251.03,1.326478,604016,28482
1254.5,1.327609,612289,28797
1257.96,1.328931,619125,29030
1261.41,1.331391,624551,29119
1264.86,1.332715,629900,29279
1268.31,1.333402,634345,29439
1271.75,1.328785,638574,29952
1276.33,1.327650,642499,30215
1279.76,1.324731,645905,30580
1283.19,1.332983,648307,30116
1286.61,1.327887,650446,30572
1290.03,1.335697,652132,30105
1293.44,1.334877,653907,30244
1296.85,1.327526,655963,30857
1301.39,1.328034,657349,30886
1304.8,1.333022,657558,30543
1308.19,1.332036,658515,30657
1311.58,1.334471,658804,30499
1314.97,1.337350,659011,30307
1318.36,1.334675,658272,30460
1321.73,1.333670,658022,30519
1326.23,1.336812,657870,30292
1329.6,1.335551,656482,30316
1332.97,1.336272,654926,30194
1336.33,1.336743,653727,30106
1339.69,1.335133,652497,30161
1343.04,1.331441,649913,30298
1346.39,1.330586,647671,30253
1349.73,1.327943,645338,30328
1354.18,1.329031,641175,30057
1357.52,1.325127,638376,30196
1360.85,1.331680,635805,29624
1364.17,1.330733,633413,29577
1367.49,1.328814,631026,29596
1370.81,1.332611,628050,29200
1374.12,1.333730,625034,28985
1378.54,1.330664,620272,28968
1381.84,1.324767,616892,29204
1385.14,1.329801,613613,28714
1388.43,1.327505,611526,28768
1391.72,1.330439,610663,28534
1395.01,1.326072,610634,28821
1398.29,1.334108,611700,28342
1402.66,1.334963,614051,28395
1405.93,1.334042,616268,28558
1409.2,1.328581,617795,28991
1412.46,1.326843,618872,29158
1415.72,1.336992,619795,28527
1418.98,1.333859,620495,28766
1422.23,1.333564,621087,28813
1426.56,1.332862,621375,28873
1429.8,1.334250,621616,28792
1433.04,1.337044,622129,28631
1436.27,1.334852,621526,28748
1439.5,1.332619,621113,28877
1442.72,1.332891,620921,28850
1445.94,1.334003,620270,28746
1450.23,1.331929,618860,28818
1453.44,1.333242,617697,28677
1456.64,1.336127,616264,28421
1459.85,1.336137,614413,28335
1463.04,1.333605,612307,28403
1466.24,1.338241,610032,27997
1469.43,1.337007,607345,27953
1473.67,1.328639,603789,28330
1476.85,1.341758,601175,27368
1480.02,1.335318,597737,27618
1483.19,1.338658,594479,27257
1486.36,1.334944,591232,27341
1489.52,1.335627,587853,27142
1492.68,1.344683,583875,26402
1496.89,1.330675,578062,26996
1500.03,1.331871,574159,26740
1503.18,1.338903,570285,26133
1506.32,1.340316,565444,25827
1509.45,1.339797,560571,25635
1512.58,1.341506,555821,25318
1515.71,1.332343,550344,25603
1519.87,1.339665,543983,24884
1522.99,1.334224,538764,24956
1526.1,1.340061,533692,24391
1529.21,1.332820,527902,24532
1532.32,1.337908,521886,23970
1535.42,1.332978,515888,23965
1538.51,1.333636,509987,23655
1541.6,1.334423,503936,23332
1545.72,1.335850,494694,22829
1548.8,1.333209,488378,22675
1551.88,1.337738,481832,22139
1554.95,1.332999,474989,22064
1558.02,1.330526,467818,21855
1561.08,1.341786,460730,20973
1564.15,1.341857,454170,20671
1568.22,1.335488,444181,20515
1571.27,1.346558,436947,19673
1574.32,1.340120,429598,19631
1577.36,1.332012,422039,19649
1580.4,1.327805,414375,19480
1583.43,1.342320,406354,18475
1586.46,1.335937,398475,18385
1590.49,1.330431,388982,18176
1593.51,1.328565,380708,17866
1596.53,1.334577,372727,17251
1599.54,1.325474,365060,17254
1602.55,1.328899,357543,16766
1605.55,1.343494,349495,15847
1608.55,1.331799,341154,15891
1612.54,1.327629,330877,15561
1615.53,1.315698,322904,15609
1618.51,1.324498,315116,14927
1621.49,1.320778,307217,14678
1624.47,1.332668,299481,13922
1627.44,1.318925,292112,14016
1630.41,1.310491,284245,13906
1634.36,1.314710,274079,13279
1637.32,1.316021,266916,12893
1640.27,1.316478,259612,12527
1643.22,1.306068,251804,12445
1646.16,1.318859,244348,11726
1649.1,1.321356,236703,11294
1652.04,1.310830,228171,11154
1655.95,1.320804,215408,10291
1658.88,1.304598,204937,10163
1661.8,1.290678,193395,9903
1664.72,1.284594,179728,9333
1667.63,1.256479,163642,9066
1670.54,1.268809,146312,7879
1673.44,1.243989,128451,7324
1677.31,1.213377,105080,6429
1680.21,1.228689,88906,5251
1683.1,1.215146,75033,4572
1685.99,1.223127,63520,3800
1688.87,1.203877,53714,3359
1691.75,1.225220,45653,2718
1694.62,1.233701,39137,2285
1697.49,1.185988,33776,2201
1701.31,1.135786,28175,2061