File: ML/samples/unknown/Column 1_078630_20241121_171209.csv
Method:,Column 1,,
Host Date-Time:,21/11/24 @ 17:12:9,,
Header Version:,1,,
System Temp (C):,36.87,,
Detector Temp (C):,35.19,,
Humidity (%):,0.88,,
Lamp PD:,3797,,
Shift Vector Coefficients:,-10.5391,0.0761263,-0.000134223,,
Pixel to Wavelength Coefficients:,1775.68,-0.916766,-0.000235065,,
Serial Number:,5510004,,
Scan Config Name:,Column 1,,
Scan Config Type:,Slew,,
Section 1,,
Start wavelength (nm):,900,,
End wavelength (nm):,1700,,
Pattern Pixel Width (nm):,   7.03,,,,
Exposure (ms):,  0.635,,,,
Digital Resolution:,228,,
Num Repeats:,6,,
PGA Gain:,64,,
Total Measurement Time in sec:,  2.727,,
Wavelength (nm),Absorbance (AU),Reference Signal (unitless),Sample Signal (unitless)
901.51,1.316453,108485,5235
905.376,1.318810,121306,5822
909.237,1.325090,131909,6240
913.095,1.304435,143299,7109
916.948,1.311281,156982,7666
922.079,1.327801,179937,8459
925.923,1.314904,200504,9710
929.762,1.321681,222660,10616
933.597,1.327676,244426,11494
937.427,1.327681,263972,12413
941.254,1.313861,281845,13682
945.076,1.320222,297271,14221
950.165,1.331354,315605,14716
953.978,1.307444,328029,16161
957.786,1.316071,340470,16444
961.59,1.318456,352317,16923
965.389,1.310947,363056,17743
969.185,1.312112,373162,18188
972.976,1.303685,382632,19015
976.763,1.306461,391202,19317
981.806,1.307183,400190,19728
985.583,1.307069,406088,20024
989.355,1.303240,410162,20404
993.124,1.306863,412868,20368
996.888,1.304803,414263,20534
1000.65,1.300754,415476,20787
1004.4,1.310497,415479,20326
1009.41,1.311638,414358,20218
1013.15,1.293753,412923,20995
1016.89,1.305641,411526,20359
1020.63,1.306743,409066,20186
1024.36,1.307892,406777,20020
1028.09,1.313964,404427,19628
1031.82,1.305692,401911,19881
1036.78,1.300518,398410,19944
1040.49,1.303739,396204,19687
1044.2,1.319754,394236,18880
1047.91,1.298999,392042,19694
1051.61,1.308767,389823,19147
1055.31,1.306358,388234,19175
1059,1.308283,387599,19059
1063.92,1.307329,386688,19056
1067.61,1.310040,386598,18933
1071.29,1.309975,387377,18974
1074.96,1.314904,388536,18816
1078.63,1.313363,389855,18947
1082.3,1.306723,391215,19306
1085.96,1.311578,393215,19189
1090.84,1.319100,396270,19006
1094.49,1.314907,398760,19311
1098.14,1.317528,400987,19302
1101.79,1.321320,403477,19253
1105.43,1.315221,406116,19653
1109.06,1.312669,407701,19846
1112.7,1.311301,409859,20014
1117.53,1.309851,412494,20210
1121.15,1.317858,414909,19957
1124.77,1.316826,416559,20084
1128.38,1.309424,418532,20526
1131.99,1.314746,419956,20345
1135.6,1.312804,421946,20533
1139.2,1.316126,423881,20470
1143.99,1.312983,426786,20760
1147.58,1.317739,428617,20622
1151.17,1.315375,431169,20858
1154.75,1.315180,433579,20984
1158.33,1.323339,436264,20721
1161.91,1.317675,439132,21131
1165.48,1.313245,442389,21506
1169.04,1.308513,446101,21924
1173.79,1.318570,451929,21702
1177.34,1.314008,456026,22130
1180.9,1.316054,461306,22281
1184.44,1.315128,467657,22636
1187.99,1.307351,473969,23356
1191.52,1.319289,479856,23005
1195.06,1.316516,487372,23515
1199.76,1.316394,497347,24003
1203.29,1.322777,504311,23984
1206.81,1.313281,511507,24864
1210.33,1.321236,519078,24774
1213.84,1.315200,527163,25512
1217.35,1.326396,534208,25195
1220.85,1.317934,540472,25992
1225.51,1.323317,549929,26121
1229.01,1.317860,556888,26786
1232.5,1.317997,562180,27032
1235.98,1.322082,567975,27055
1239.46,1.321920,574815,27391
1242.94,1.317001,582782,28087
1246.41,1.321288,591476,28226
1251.03,1.320181,604016,28898
1254.5,1.330621,612289,28598
1257.96,1.324629,619125,29319
1261.41,1.322548,624551,29718
1264.86,1.328083,629900,29593
1268.31,1.322678,634345,30175
1271.75,1.325434,638574,30184
1276.33,1.319801,642499,30766
1279.76,1.319059,645905,30982
1283.19,1.322174,648307,30875
1286.61,1.323267,650446,30899
1290.03,1.321533,652132,31103
1293.44,1.328406,653907,30698
1296.85,1.327962,655963,30826
1301.39,1.326014,657349,31030
1304.8,1.323626,657558,31211
1308.19,1.328635,658515,30898
1311.58,1.328180,658804,30944
1314.97,1.323501,659011,31289
1318.36,1.325045,658272,31143
1321.73,1.328648,658022,30874
1326.23,1.332092,657870,30623
1329.6,1.333764,656482,30441
1332.97,1.327205,654926,30831
1336.33,1.322566,653727,31105
1339.69,1.323287,652497,30995
1343.04,1.332101,649913,30252
1346.39,1.328638,647671,30389
1349.73,1.326000,645338,30464
1354.18,1.325233,641175,30321
1357.52,1.328361,638376,29972
1360.85,1.326550,635805,29976
1364.17,1.324566,633413,30000
1367.49,1.322463,631026,30032
1370.81,1.319615,628050,30087
1374.12,1.328088,625034,29364
1378.54,1.324161,620272,29405
1381.84,1.320711,616892,29478
1385.14,1.325961,613613,28969
1388.43,1.322194,611526,29122
1391.72,1.325204,610663,28880
1395.01,1.318721,610634,29313
1398.29,1.330765,611700,28561
1402.66,1.326181,614051,28975
1405.93,1.328196,616268,28945
1409.2,1.328237,617795,29014
1412.46,1.329203,618872,29000
1415.72,1.334351,619795,28701
1418.98,1.326731,620495,29242
1422.23,1.332886,621087,28858
1426.56,1.325760,621375,29349
1429.8,1.332339,621616,28919
1433.04,1.334609,622129,28792
1436.27,1.329074,621526,29133
1439.5,1.332739,621113,28869
1442.72,1.331328,620921,28954
1445.94,1.329270,620270,29061
1450.23,1.335895,618860,28556
1453.44,1.330133,617697,28883
1456.64,1.334770,616264,28510
1459.85,1.330336,614413,28716
1463.04,1.335597,612307,28273
1466.24,1.327289,610032,28712
1469.43,1.336541,607345,27983
1473.67,1.329544,603789,28271
1476.85,1.328783,601175,28198
1480.02,1.336609,597737,27536
1483.19,1.334788,594479,27501
1486.36,1.335802,591232,27287
1489.52,1.333775,587853,27258
1492.68,1.334795,583875,27010
1496.89,1.325621,578062,27312
1500.03,1.341860,574159,26132
1503.18,1.331946,570285,26555
1506.32,1.335949,565444,26088
1509.45,1.331491,560571,26130
1512.58,1.340871,555821,25355
1515.71,1.333634,550344,25527
1519.87,1.334185,543983,25200
1522.99,1.333285,538764,25010
1526.1,1.335720,533692,24636
1529.21,1.332024,527902,24577
1532.32,1.334173,521886,24177
1535.42,1.335723,515888,23814
1538.51,1.333489,509987,23663
1541.6,1.327187,503936,23724
1545.72,1.333573,494694,22949
1548.8,1.329813,488378,22853
1551.88,1.330559,481832,22508
1554.95,1.333965,474989,22015
1558.02,1.326511,467818,22058
1561.08,1.328531,460730,21623
1564.15,1.328248,454170,21329
1568.22,1.330605,444181,20747
1571.27,1.330820,436947,20399
1574.32,1.329456,429598,20119
1577.36,1.327155,422039,19870
1580.4,1.334432,414375,19185
1583.43,1.327258,406354,19127
1586.46,1.322242,398475,18974
1590.49,1.319204,388982,18652
1593.51,1.324259,380708,18044
1596.53,1.325952,372727,17597
1599.54,1.334375,365060,16904
1602.55,1.316564,357543,17249
1605.55,1.319867,349495,16733
1608.55,1.328505,341154,16012
1612.54,1.320652,330877,15813
1615.53,1.335072,322904,14928
1618.51,1.333315,315116,14627
1621.49,1.332140,307217,14299
1624.47,1.314283,299481,14524
1627.44,1.311826,292112,14247
1630.41,1.309212,284245,13947
1634.36,1.324635,274079,12979
1637.32,1.315011,266916,12923
1640.27,1.316616,259612,12523
1643.22,1.304709,251804,12484
1646.16,1.300973,244348,12219
1649.1,1.306761,236703,11680
1652.04,1.306761,228171,11259
1655.95,1.297272,215408,10864
1658.88,1.281628,204937,10715
1661.8,1.293892,193395,9830
1664.72,1.270854,179728,9633
1667.63,1.254233,163642,9113
1670.54,1.240949,146312,8401
1673.44,1.228954,128451,7582
1677.31,1.189778,105080,6788
1680.21,1.174049,88906,5955
1683.1,1.133313,75033,5520
1685.99,1.178216,63520,4214
1688.87,1.114769,53714,4124
1691.75,1.177597,45653,3033
1694.62,1.189295,39137,2531
1697.49,1.216431,33776,2052
1701.31,1.192425,28175,1809