File: ML/samples/unknown/Column 1_078839_20241121_172440.csv
Method:,Column 1,,
Host Date-Time:,21/11/24 @ 17:24:40,,
Header Version:,1,,
System Temp (C):,37.53,,
Detector Temp (C):,35.74,,
Humidity (%):,0.68,,
Lamp PD:,3796,,
Shift Vector Coefficients:,-10.5391,0.0761263,-0.000134223,,
Pixel to Wavelength Coefficients:,1775.68,-0.916766,-0.000235065,,
Serial Number:,5510004,,
Scan Config Name:,Column 1,,
Scan Config Type:,Slew,,
Section 1,,
Start wavelength (nm):,900,,
End wavelength (nm):,1700,,
Pattern Pixel Width (nm):,   7.03,,,,
Exposure (ms):,  0.635,,,,
Digital Resolution:,228,,
Num Repeats:,6,,
PGA Gain:,64,,
Total Measurement Time in sec:,  2.725,,
Wavelength (nm),Absorbance (AU),Reference Signal (unitless),Sample Signal (unitless)
901.51,1.322888,108485,5158
905.376,1.301983,121306,6052
909.237,1.314094,131909,6400
913.095,1.312263,143299,6982
916.948,1.327911,156982,7378
922.079,1.343750,179937,8154
925.923,1.322575,200504,9540
929.762,1.331612,222660,10376
933.597,1.321859,244426,11649
937.427,1.327401,263972,12421
941.254,1.348023,281845,12647
945.076,1.303126,297271,14792
950.165,1.318674,315605,15152
953.978,1.312879,328029,15960
957.786,1.325172,340470,16103
961.59,1.319741,352317,16873
965.389,1.306054,363056,17944
969.185,1.312758,373162,18161
972.976,1.308878,382632,18789
976.763,1.309915,391202,19164
981.806,1.312098,400190,19506
985.583,1.315943,406088,19619
989.355,1.298372,410162,20634
993.124,1.307183,412868,20353
996.888,1.302356,414263,20650
1000.65,1.311821,415476,20264
1004.4,1.307919,415479,20447
1009.41,1.306682,414358,20450
1013.15,1.304433,412923,20485
1016.89,1.314193,411526,19962
1020.63,1.310633,409066,20006
1024.36,1.308826,406777,19977
1028.09,1.310263,404427,19796
1031.82,1.319000,401911,19281
1036.78,1.315606,398410,19263
1040.49,1.318914,396204,19011
1044.2,1.318422,394236,18938
1047.91,1.315334,392042,18967
1051.61,1.319072,389823,18698
1055.31,1.304505,388234,19257
1059,1.312082,387599,18893
1063.92,1.304557,386688,19178
1067.61,1.320182,386598,18496
1071.29,1.314646,387377,18771
1074.96,1.307126,388536,19156
1078.63,1.312973,389855,18964
1082.3,1.309861,391215,19167
1085.96,1.312734,393215,19138
1090.84,1.315822,396270,19150
1094.49,1.317705,398760,19187
1098.14,1.313764,400987,19470
1101.79,1.314939,403477,19538
1105.43,1.318838,406116,19490
1109.06,1.315523,407701,19716
1112.7,1.322132,409859,19521
1117.53,1.306341,412494,20374
1121.15,1.310157,414909,20314
1124.77,1.320213,416559,19928
1128.38,1.322570,418532,19914
1131.99,1.322282,419956,19995
1135.6,1.323988,421946,20011
1139.2,1.318872,423881,20341
1143.99,1.321667,426786,20349
1147.58,1.322950,428617,20376
1151.17,1.322767,431169,20506
1154.75,1.321959,433579,20659
1158.33,1.311859,436264,21276
1161.91,1.314338,439132,21294
1165.48,1.317506,442389,21296
1169.04,1.320035,446101,21350
1173.79,1.315480,451929,21857
1177.34,1.320732,456026,21790
1180.9,1.315606,461306,22304
1184.44,1.321117,467657,22326
1187.99,1.318654,473969,22756
1191.52,1.322929,479856,22813
1195.06,1.320076,487372,23323
1199.76,1.327926,497347,23374
1203.29,1.318955,504311,24196
1206.81,1.319455,511507,24513
1210.33,1.328110,519078,24385
1213.84,1.320751,527163,25188
1217.35,1.316731,534208,25762
1220.85,1.313478,540472,26260
1225.51,1.323550,549929,26107
1229.01,1.318980,556888,26717
1232.5,1.322016,562180,26783
1235.98,1.320016,567975,27184
1239.46,1.321461,574815,27420
1242.94,1.319326,582782,27937
1246.41,1.329363,591476,27706
1251.03,1.320737,604016,28861
1254.5,1.325263,612289,28953
1257.96,1.319066,619125,29697
1261.41,1.324247,624551,29602
1264.86,1.325682,629900,29757
1268.31,1.324669,634345,30037
1271.75,1.320186,638574,30551
1276.33,1.330404,642499,30024
1279.76,1.326225,645905,30475
1283.19,1.324204,648307,30731
1286.61,1.326229,650446,30689
1290.03,1.330691,652132,30454
1293.44,1.328760,653907,30673
1296.85,1.328907,655963,30759
1301.39,1.321669,657349,31342
1304.8,1.331419,657558,30656
1308.19,1.335349,658515,30424
1311.58,1.333262,658804,30584
1314.97,1.327265,659011,31019
1318.36,1.329855,658272,30800
1321.73,1.326655,658022,31016
1326.23,1.327718,657870,30933
1329.6,1.325847,656482,31001
1332.97,1.329209,654926,30689
1336.33,1.331880,653727,30445
1339.69,1.327865,652497,30670
1343.04,1.330067,649913,30394
1346.39,1.327610,647671,30461
1349.73,1.329507,645338,30219
1354.18,1.323646,641175,30432
1357.52,1.326524,638376,30099
1360.85,1.324945,635805,30087
1364.17,1.322861,633413,30118
1367.49,1.324710,631026,29877
1370.81,1.326438,628050,29618
1374.12,1.322300,625034,29758
1378.54,1.326397,620272,29254
1381.84,1.322083,616892,29385
1385.14,1.329574,613613,28729
1388.43,1.330854,611526,28547
1391.72,1.324708,610663,28913
1395.01,1.324703,610634,28912
1398.29,1.327704,611700,28763
1402.66,1.329144,614051,28778
1405.93,1.330422,616268,28797
1409.2,1.326638,617795,29121
1412.46,1.331289,618872,28861
1415.72,1.329970,619795,28992
1418.98,1.330955,620495,28959
1422.23,1.334968,621087,28720
1426.56,1.336184,621375,28653
1429.8,1.333045,621616,28872
1433.04,1.325444,622129,29406
1436.27,1.334489,621526,28772
1439.5,1.330728,621113,29003
1442.72,1.331313,620921,28955
1445.94,1.325358,620270,29324
1450.23,1.333075,618860,28742
1453.44,1.328947,617697,28962
1456.64,1.335578,616264,28457
1459.85,1.337534,614413,28244
1463.04,1.334968,612307,28314
1466.24,1.333397,610032,28311
1469.43,1.331143,607345,28333
1473.67,1.334845,603789,27928
1476.85,1.331905,601175,27996
1480.02,1.336010,597737,27574
1483.19,1.333684,594479,27571
1486.36,1.333944,591232,27404
1489.52,1.331994,587853,27370
1492.68,1.331001,583875,27247
1496.89,1.333856,578062,26799
1500.03,1.340284,574159,26227
1503.18,1.340468,570285,26039
1506.32,1.333227,565444,26252
1509.45,1.330595,560571,26184
1512.58,1.332743,555821,25834
1515.71,1.336639,550344,25351
1519.87,1.331162,543983,25376
1522.99,1.332938,538764,25030
1526.1,1.336303,533692,24603
1529.21,1.335252,527902,24395
1532.32,1.329794,521886,24422
1535.42,1.340048,515888,23578
1538.51,1.337601,509987,23440
1541.6,1.334796,503936,23312
1545.72,1.332496,494694,23006
1548.8,1.336554,488378,22501
1551.88,1.338956,481832,22077
1554.95,1.332488,474989,22090
1558.02,1.326727,467818,22047
1561.08,1.331048,460730,21498
1564.15,1.332977,454170,21098
1568.22,1.331149,444181,20721
1571.27,1.332740,436947,20309
1574.32,1.334166,429598,19902
1577.36,1.336455,422039,19449
1580.4,1.327938,414375,19474
1583.43,1.341053,406354,18529
1586.46,1.335324,398475,18411
1590.49,1.330383,388982,18178
1593.51,1.333946,380708,17646
1596.53,1.333747,372727,17284
1599.54,1.327974,365060,17155
1602.55,1.329391,357543,16747
1605.55,1.324328,349495,16562
1608.55,1.328017,341154,16030
1612.54,1.322634,330877,15741
1615.53,1.322400,322904,15370
1618.51,1.317456,315116,15171
1621.49,1.306975,307217,15152
1624.47,1.324999,299481,14170
1627.44,1.321910,292112,13920
1630.41,1.317924,284245,13670
1634.36,1.314645,274079,13281
1637.32,1.323975,266916,12659
1640.27,1.314403,259612,12587
1643.22,1.316808,251804,12141
1646.16,1.303218,244348,12156
1649.1,1.306687,236703,11682
1652.04,1.300024,228171,11435
1655.95,1.307546,215408,10610
1658.88,1.285373,204937,10623
1661.8,1.275849,193395,10247
1664.72,1.282552,179728,9377
1667.63,1.256383,163642,9068
1670.54,1.215012,146312,8918
1673.44,1.222642,128451,7693
1677.31,1.184753,105080,6867
1680.21,1.179406,88906,5882
1683.1,1.148770,75033,5327
1685.99,1.150084,63520,4496
1688.87,1.173182,53714,3605
1691.75,1.153912,45653,3203
1694.62,1.089751,39137,3183
1697.49,1.131016,33776,2498
1701.31,1.152760,28175,1982