File: ML/samples/unknown/Column 1_078710_20241121_171827.csv
Method:,Column 1,,
Host Date-Time:,21/11/24 @ 17:18:27,,
Header Version:,1,,
System Temp (C):,35.83,,
Detector Temp (C):,34.4,,
Humidity (%):,1.67,,
Lamp PD:,3799,,
Shift Vector Coefficients:,-10.5391,0.0761263,-0.000134223,,
Pixel to Wavelength Coefficients:,1775.68,-0.916766,-0.000235065,,
Serial Number:,5510004,,
Scan Config Name:,Column 1,,
Scan Config Type:,Slew,,
Section 1,,
Start wavelength (nm):,900,,
End wavelength (nm):,1700,,
Pattern Pixel Width (nm):,   7.03,,,,
Exposure (ms):,  0.635,,,,
Digital Resolution:,228,,
Num Repeats:,6,,
PGA Gain:,64,,
Total Measurement Time in sec:,  2.726,,
Wavelength (nm),Absorbance (AU),Reference Signal (unitless),Sample Signal (unitless)
901.51,1.292880,108485,5527
905.376,1.307108,121306,5981
909.237,1.316817,131909,6360
913.095,1.277262,143299,7568
916.948,1.316410,156982,7576
922.079,1.326008,179937,8494
925.923,1.314993,200504,9708
929.762,1.304752,222660,11038
933.597,1.307485,244426,12041
937.427,1.319021,263972,12663
941.254,1.318199,281845,13546
945.076,1.299296,297271,14923
950.165,1.307553,315605,15545
953.978,1.293092,328029,16704
957.786,1.300788,340470,17033
961.59,1.315668,352317,17032
965.389,1.315424,363056,17561
969.185,1.309826,373162,18284
972.976,1.314133,382632,18563
976.763,1.294816,391202,19842
981.806,1.306787,400190,19746
985.583,1.307612,406088,19999
989.355,1.298625,410162,20622
993.124,1.299526,412868,20715
996.888,1.304570,414263,20545
1000.65,1.295335,415476,21048
1004.4,1.305188,415479,20576
1009.41,1.302792,414358,20634
1013.15,1.300571,412923,20668
1016.89,1.309864,411526,20162
1020.63,1.302952,409066,20363
1024.36,1.303189,406777,20238
1028.09,1.308053,404427,19897
1031.82,1.315881,401911,19420
1036.78,1.297934,398410,20063
1040.49,1.302814,396204,19729
1044.2,1.310559,394236,19284
1047.91,1.309466,392042,19225
1051.61,1.307951,389823,19183
1055.31,1.299415,388234,19484
1059,1.304132,387599,19242
1063.92,1.297749,386688,19481
1067.61,1.302130,386598,19281
1071.29,1.300422,387377,19396
1074.96,1.297131,388536,19602
1078.63,1.304469,389855,19339
1082.3,1.317288,391215,18842
1085.96,1.310854,393215,19221
1090.84,1.310593,396270,19382
1094.49,1.311658,398760,19456
1098.14,1.310498,400987,19617
1101.79,1.316743,403477,19457
1105.43,1.307924,406116,19986
1109.06,1.310813,407701,19931
1112.7,1.307520,409859,20189
1117.53,1.317701,412494,19848
1121.15,1.306771,414909,20473
1124.77,1.310153,416559,20395
1128.38,1.306830,418532,20649
1131.99,1.319619,419956,20118
1135.6,1.315818,421946,20391
1139.2,1.309222,423881,20798
1143.99,1.312230,426786,20796
1147.58,1.308178,428617,21081
1151.17,1.315146,431169,20869
1154.75,1.319360,433579,20783
1158.33,1.315941,436264,21077
1161.91,1.306876,439132,21663
1165.48,1.305777,442389,21879
1169.04,1.314939,446101,21602
1173.79,1.313893,451929,21937
1177.34,1.313204,456026,22171
1180.9,1.313276,461306,22424
1184.44,1.308275,467657,22996
1187.99,1.312194,473969,23097
1191.52,1.319591,479856,22989
1195.06,1.312966,487372,23708
1199.76,1.314390,497347,24114
1203.29,1.316860,504311,24313
1206.81,1.310408,511507,25029
1210.33,1.312490,519078,25278
1213.84,1.314027,527163,25581
1217.35,1.316175,534208,25795
1220.85,1.314837,540472,26178
1225.51,1.319922,549929,26326
1229.01,1.315467,556888,26934
1232.5,1.306753,562180,27741
1235.98,1.310738,567975,27771
1239.46,1.312805,574815,27972
1242.94,1.316645,582782,28110
1246.41,1.318802,591476,28388
1251.03,1.317499,604016,29077
1254.5,1.319896,612289,29313
1257.96,1.325267,619125,29276
1261.41,1.320202,624551,29879
1264.86,1.315998,629900,30428
1268.31,1.317528,634345,30535
1271.75,1.324012,638574,30283
1276.33,1.319068,642499,30818
1279.76,1.318149,645905,31047
1283.19,1.322554,648307,30848
1286.61,1.323154,650446,30907
1290.03,1.323998,652132,30927
1293.44,1.323888,653907,31019
1296.85,1.315985,655963,31688
1301.39,1.324324,657349,31151
1304.8,1.320175,657558,31460
1308.19,1.321567,658515,31405
1311.58,1.328868,658804,30895
1314.97,1.325337,659011,31157
1318.36,1.322750,658272,31308
1321.73,1.324518,658022,31169
1326.23,1.328407,657870,30884
1329.6,1.319036,656482,31491
1332.97,1.331053,654926,30559
1336.33,1.320574,653727,31248
1339.69,1.320828,652497,31171
1343.04,1.323952,649913,30825
1346.39,1.331491,647671,30190
1349.73,1.319211,645338,30944
1354.18,1.322122,641175,30539
1357.52,1.325559,638376,30166
1360.85,1.327638,635805,29901
1364.17,1.324899,633413,29977
1367.49,1.324594,631026,29885
1370.81,1.318246,628050,30182
1374.12,1.318160,625034,30043
1378.54,1.320616,620272,29646
1381.84,1.325913,616892,29127
1385.14,1.325107,613613,29026
1388.43,1.318718,611526,29356
1391.72,1.324333,610663,28938
1395.01,1.319893,610634,29234
1398.29,1.319967,611700,29280
1402.66,1.315989,614051,29663
1405.93,1.321703,616268,29381
1409.2,1.320713,617795,29521
1412.46,1.327723,618872,29099
1415.72,1.327133,619795,29182
1418.98,1.324613,620495,29385
1422.23,1.324274,621087,29436
1426.56,1.322943,621375,29540
1429.8,1.328139,621616,29200
1433.04,1.329287,622129,29147
1436.27,1.325541,621526,29371
1439.5,1.323069,621113,29519
1442.72,1.330803,620921,28989
1445.94,1.327838,620270,29157
1450.23,1.323186,618860,29404
1453.44,1.334000,617697,28627
1456.64,1.331809,616264,28705
1459.85,1.331927,614413,28611
1463.04,1.329572,612307,28668
1466.24,1.330279,610032,28515
1469.43,1.326023,607345,28669
1473.67,1.328991,603789,28307
1476.85,1.329152,601175,28174
1480.02,1.329989,597737,27959
1483.19,1.327988,594479,27935
1486.36,1.324786,591232,27988
1489.52,1.327809,587853,27635
1492.68,1.329776,583875,27324
1496.89,1.332836,578062,26862
1500.03,1.329926,574159,26860
1503.18,1.332551,570285,26518
1506.32,1.329308,565444,26490
1509.45,1.329005,560571,26280
1512.58,1.330246,555821,25983
1515.71,1.331175,550344,25672
1519.87,1.327770,543983,25575
1522.99,1.326001,538764,25433
1526.1,1.330046,533692,24960
1529.21,1.335894,527902,24359
1532.32,1.329794,521886,24422
1535.42,1.334648,515888,23873
1538.51,1.328199,509987,23953
1541.6,1.332788,503936,23420
1545.72,1.321977,494694,23570
1548.8,1.323025,488378,23213
1551.88,1.327847,481832,22649
1554.95,1.336438,474989,21890
1558.02,1.334800,467818,21641
1561.08,1.336006,460730,21254
1564.15,1.328594,454170,21312
1568.22,1.335277,444181,20525
1571.27,1.324207,436947,20712
1574.32,1.334930,429598,19867
1577.36,1.323303,422039,20047
1580.4,1.328028,414375,19470
1583.43,1.331960,406354,18921
1586.46,1.321990,398475,18985
1590.49,1.317600,388982,18721
1593.51,1.324187,380708,18047
1596.53,1.315636,372727,18020
1599.54,1.324946,365060,17275
1602.55,1.323723,357543,16967
1605.55,1.322418,349495,16635
1608.55,1.319805,341154,16336
1612.54,1.326988,330877,15584
1615.53,1.317287,322904,15552
1618.51,1.302018,315116,15720
1621.49,1.300997,307217,15362
1624.47,1.315871,299481,14471
1627.44,1.317533,292112,14061
1630.41,1.310647,284245,13901
1634.36,1.311128,274079,13389
1637.32,1.298331,266916,13429
1640.27,1.307998,259612,12774
1643.22,1.308096,251804,12387
1646.16,1.307202,244348,12045
1649.1,1.296291,236703,11965
1652.04,1.315764,228171,11028
1655.95,1.312942,215408,10479
1658.88,1.290390,204937,10501
1661.8,1.284928,193395,10035
1664.72,1.269908,179728,9654
1667.63,1.256623,163642,9063
1670.54,1.245104,146312,8321
1673.44,1.250080,128451,7222
1677.31,1.195769,105080,6695
1680.21,1.159844,88906,6153
1683.1,1.165474,75033,5126
1685.99,1.149505,63520,4502
1688.87,1.112773,53714,4143
1691.75,1.167128,45653,3107
1694.62,1.151678,39137,2760
1697.49,1.148578,33776,2399
1701.31,1.099422,28175,2241