File: ML/samples/unknown/Column 1_078243_20241121_165230.csv
Method:,Column 1,,
Host Date-Time:,21/11/24 @ 16:52:30,,
Header Version:,1,,
System Temp (C):,34.14,,
Detector Temp (C):,31.63,,
Humidity (%):,2.49,,
Lamp PD:,3803,,
Shift Vector Coefficients:,-10.5391,0.0761263,-0.000134223,,
Pixel to Wavelength Coefficients:,1775.68,-0.916766,-0.000235065,,
Serial Number:,5510004,,
Scan Config Name:,Column 1,,
Scan Config Type:,Slew,,
Section 1,,
Start wavelength (nm):,900,,
End wavelength (nm):,1700,,
Pattern Pixel Width (nm):,   7.03,,,,
Exposure (ms):,  0.635,,,,
Digital Resolution:,228,,
Num Repeats:,6,,
PGA Gain:,64,,
Total Measurement Time in sec:,  2.725,,
Wavelength (nm),Absorbance (AU),Reference Signal (unitless),Sample Signal (unitless)
901.51,1.311586,108485,5294
905.376,1.304214,121306,6021
909.237,1.324394,131909,6250
913.095,1.284962,143299,7435
916.948,1.319401,156982,7524
922.079,1.316901,179937,8674
925.923,1.322575,200504,9540
929.762,1.315265,222660,10774
933.597,1.313477,244426,11876
937.427,1.318541,263972,12677
941.254,1.311108,281845,13769
945.076,1.314217,297271,14419
950.165,1.310412,315605,15443
953.978,1.314433,328029,15903
957.786,1.303756,340470,16917
961.59,1.309289,352317,17284
965.389,1.312319,363056,17687
969.185,1.306726,373162,18415
972.976,1.318909,382632,18360
976.763,1.310210,391202,19151
981.806,1.306787,400190,19746
985.583,1.311582,406088,19817
989.355,1.312838,410162,19958
993.124,1.312183,412868,20120
996.888,1.313929,414263,20107
1000.65,1.305967,415476,20539
1004.4,1.308493,415479,20420
1009.41,1.309773,414358,20305
1013.15,1.308116,412923,20312
1016.89,1.303004,411526,20483
1020.63,1.301695,409066,20422
1024.36,1.310678,406777,19892
1028.09,1.313257,404427,19660
1031.82,1.309708,401911,19698
1036.78,1.306018,398410,19693
1040.49,1.304999,396204,19630
1044.2,1.312840,394236,19183
1047.91,1.307910,392042,19294
1051.61,1.315395,389823,18857
1055.31,1.308675,388234,19073
1059,1.316564,387599,18699
1063.92,1.317894,386688,18598
1067.61,1.320910,386598,18465
1071.29,1.318294,387377,18614
1074.96,1.315204,388536,18803
1078.63,1.317971,389855,18747
1082.3,1.318928,391215,18771
1085.96,1.315442,393215,19019
1090.84,1.315211,396270,19177
1094.49,1.322141,398760,18992
1098.14,1.321892,400987,19109
1101.79,1.316319,403477,19476
1105.43,1.312204,406116,19790
1109.06,1.319528,407701,19535
1112.7,1.319449,409859,19642
1117.53,1.308800,412494,20259
1121.15,1.315341,414909,20073
1124.77,1.317670,416559,20045
1128.38,1.319701,418532,20046
1131.99,1.317960,419956,20195
1135.6,1.312255,421946,20559
1139.2,1.316211,423881,20466
1143.99,1.324751,426786,20205
1147.58,1.313610,428617,20819
1151.17,1.323572,431169,20468
1154.75,1.315470,433579,20970
1158.33,1.309620,436264,21386
1161.91,1.316997,439132,21164
1165.48,1.315086,442389,21415
1169.04,1.322504,446101,21229
1173.79,1.315897,451929,21836
1177.34,1.323051,456026,21674
1180.9,1.323505,461306,21902
1184.44,1.315089,467657,22638
1187.99,1.319648,473969,22704
1191.52,1.313662,479856,23305
1195.06,1.317718,487372,23450
1199.76,1.321838,497347,23704
1203.29,1.323792,504311,23928
1206.81,1.324104,511507,24252
1210.33,1.316044,519078,25072
1213.84,1.315711,527163,25482
1217.35,1.320660,534208,25530
1220.85,1.328059,540472,25393
1225.51,1.325016,549929,26019
1229.01,1.328147,556888,26159
1232.5,1.324374,562180,26638
1235.98,1.314318,567975,27543
1239.46,1.323540,574815,27289
1242.94,1.319124,582782,27950
1246.41,1.325897,591476,27928
1251.03,1.325199,604016,28566
1254.5,1.324603,612289,28997
1257.96,1.321236,619125,29549
1261.41,1.331436,624551,29116
1264.86,1.322788,629900,29956
1268.31,1.328912,634345,29745
1271.75,1.328047,638574,30003
1276.33,1.327736,642499,30209
1279.76,1.327724,645905,30370
1283.19,1.332782,648307,30130
1286.61,1.322831,650446,30930
1290.03,1.329851,652132,30513
1293.44,1.329185,653907,30643
1296.85,1.333535,655963,30433
1301.39,1.331196,657349,30662
1304.8,1.328397,657558,30870
1308.19,1.335864,658515,30388
1311.58,1.335454,658804,30430
1314.97,1.331217,659011,30738
1318.36,1.325603,658272,31103
1321.73,1.330904,658022,30714
1326.23,1.336210,657870,30334
1329.6,1.330835,656482,30647
1332.97,1.334563,654926,30313
1336.33,1.328881,653727,30656
1339.69,1.325309,652497,30851
1343.04,1.333510,649913,30154
1346.39,1.327183,647671,30491
1349.73,1.324833,645338,30546
1354.18,1.328093,641175,30122
1357.52,1.330307,638376,29838
1360.85,1.327261,635805,29927
1364.17,1.332307,633413,29470
1367.49,1.337230,631026,29028
1370.81,1.325486,628050,29683
1374.12,1.325126,625034,29565
1378.54,1.328644,620272,29103
1381.84,1.328411,616892,28960
1385.14,1.327012,613613,28899
1388.43,1.324946,611526,28938
1391.72,1.330515,610663,28529
1395.01,1.332218,610634,28416
1398.29,1.329656,611700,28634
1402.66,1.332811,614051,28536
1405.93,1.327791,616268,28972
1409.2,1.333129,617795,28689
1412.46,1.329832,618872,28958
1415.72,1.334684,619795,28679
1418.98,1.331195,620495,28943
1422.23,1.333790,621087,28798
1426.56,1.331195,621375,28984
1429.8,1.330256,621616,29058
1433.04,1.329734,622129,29117
1436.27,1.334263,621526,28787
1439.5,1.326525,621113,29285
1442.72,1.331523,620921,28941
1445.94,1.336625,620270,28573
1450.23,1.330169,618860,28935
1453.44,1.334577,617697,28589
1456.64,1.337183,616264,28352
1459.85,1.334393,614413,28449
1463.04,1.334171,612307,28366
1466.24,1.330294,610032,28514
1469.43,1.332878,607345,28220
1473.67,1.329621,603789,28266
1476.85,1.338328,601175,27585
1480.02,1.334015,597737,27701
1483.19,1.340511,594479,27141
1486.36,1.329796,591232,27667
1489.52,1.334955,587853,27184
1492.68,1.341945,583875,26569
1496.89,1.338729,578062,26500
1500.03,1.337395,574159,26402
1503.18,1.343648,570285,25849
1506.32,1.342811,565444,25679
1509.45,1.336944,560571,25804
1512.58,1.336339,555821,25621
1515.71,1.336365,550344,25367
1519.87,1.336795,543983,25049
1522.99,1.335845,538764,24863
1526.1,1.331388,533692,24883
1529.21,1.343647,527902,23928
1532.32,1.339905,521886,23860
1535.42,1.333631,515888,23929
1538.51,1.337731,509987,23433
1541.6,1.360703,503936,21962
1545.72,1.331835,494694,23041
1548.8,1.337250,488378,22465
1551.88,1.341224,481832,21962
1554.95,1.331820,474989,22124
1558.02,1.332059,467818,21778
1561.08,1.333723,460730,21366
1564.15,1.327048,454170,21388
1568.22,1.334812,444181,20547
1571.27,1.334562,436947,20224
1574.32,1.332293,429598,19988
1577.36,1.334784,422039,19524
1580.4,1.342589,414375,18828
1583.43,1.329146,406354,19044
1586.46,1.335064,398475,18422
1590.49,1.334971,388982,17987
1593.51,1.326842,380708,17937
1596.53,1.331966,372727,17355
1599.54,1.337391,365060,16787
1602.55,1.324415,357543,16940
1605.55,1.336399,349495,16108
1608.55,1.318557,341154,16383
1612.54,1.324708,330877,15666
1615.53,1.326003,322904,15243
1618.51,1.324614,315116,14923
1621.49,1.316832,307217,14812
1624.47,1.316231,299481,14459
1627.44,1.315622,292112,14123
1630.41,1.318624,284245,13648
1634.36,1.304784,274079,13586
1637.32,1.312498,266916,12998
1640.27,1.312750,259612,12635
1643.22,1.313956,251804,12221
1646.16,1.324638,244348,11571
1649.1,1.324637,236703,11209
1652.04,1.303609,228171,11341
1655.95,1.298874,215408,10824
1658.88,1.290472,204937,10499
1661.8,1.273229,193395,10309
1664.72,1.288850,179728,9242
1667.63,1.264115,163642,8908
1670.54,1.277494,146312,7723
1673.44,1.245831,128451,7293
1677.31,1.224253,105080,6270
1680.21,1.275265,88906,4717
1683.1,1.216097,75033,4562
1685.99,1.237417,63520,3677
1688.87,1.208949,53714,3320
1691.75,1.205692,45653,2843
1694.62,1.219124,39137,2363
1697.49,1.245081,33776,1921
1701.31,1.355742,28175,1242