File: ML/samples/unknown/Column 1_078792_20241121_172224.csv
Method:,Column 1,,
Host Date-Time:,21/11/24 @ 17:22:24,,
Header Version:,1,,
System Temp (C):,36.52,,
Detector Temp (C):,35.25,,
Humidity (%):,0.83,,
Lamp PD:,3797,,
Shift Vector Coefficients:,-10.5391,0.0761263,-0.000134223,,
Pixel to Wavelength Coefficients:,1775.68,-0.916766,-0.000235065,,
Serial Number:,5510004,,
Scan Config Name:,Column 1,,
Scan Config Type:,Slew,,
Section 1,,
Start wavelength (nm):,900,,
End wavelength (nm):,1700,,
Pattern Pixel Width (nm):,   7.03,,,,
Exposure (ms):,  0.635,,,,
Digital Resolution:,228,,
Num Repeats:,6,,
PGA Gain:,64,,
Total Measurement Time in sec:,  2.708,,
Wavelength (nm),Absorbance (AU),Reference Signal (unitless),Sample Signal (unitless)
901.51,1.319868,108485,5194
905.376,1.313546,121306,5893
909.237,1.333807,131909,6116
913.095,1.336239,143299,6607
916.948,1.319113,156982,7529
922.079,1.325650,179937,8501
925.923,1.326921,200504,9445
929.762,1.335311,222660,10288
933.597,1.326921,244426,11514
937.427,1.313162,263972,12835
941.254,1.330589,281845,13165
945.076,1.314941,297271,14395
950.165,1.324851,315605,14938
953.978,1.306612,328029,16192
957.786,1.319545,340470,16313
961.59,1.306534,352317,17394
965.389,1.296859,363056,18328
969.185,1.316770,373162,17994
972.976,1.308554,382632,18803
976.763,1.300899,391202,19566
981.806,1.307249,400190,19725
985.583,1.311955,406088,19800
989.355,1.309198,410162,20126
993.124,1.309729,412868,20234
996.888,1.306647,414263,20447
1000.65,1.305798,415476,20547
1004.4,1.312596,415479,20228
1009.41,1.304479,414358,20554
1013.15,1.307668,412923,20333
1016.89,1.306367,411526,20325
1020.63,1.316336,409066,19745
1024.36,1.306506,406777,20084
1028.09,1.298874,404427,20322
1031.82,1.309267,401911,19718
1036.78,1.310697,398410,19482
1040.49,1.299830,396204,19865
1044.2,1.307955,394236,19400
1047.91,1.313073,392042,19066
1051.61,1.298545,389823,19603
1055.31,1.302278,388234,19356
1059,1.313348,387599,18838
1063.92,1.314406,386688,18748
1067.61,1.316977,386598,18633
1071.29,1.310089,387377,18969
1074.96,1.312878,388536,18904
1078.63,1.308258,389855,19171
1082.3,1.311246,391215,19106
1085.96,1.310673,393215,19229
1090.84,1.314509,396270,19208
1094.49,1.316507,398760,19240
1098.14,1.316225,400987,19360
1101.79,1.326540,403477,19023
1105.43,1.317703,406116,19541
1109.06,1.320196,407701,19505
1112.7,1.312278,409859,19969
1117.53,1.322387,412494,19635
1121.15,1.311421,414909,20255
1124.77,1.309982,416559,20403
1128.38,1.321351,418532,19970
1131.99,1.314853,419956,20340
1135.6,1.319841,421946,20203
1139.2,1.319855,423881,20295
1143.99,1.313255,426786,20747
1147.58,1.317044,428617,20655
1151.17,1.313795,431169,20934
1154.75,1.314911,433579,20997
1158.33,1.322271,436264,20772
1161.91,1.314930,439132,21265
1165.48,1.318732,442389,21236
1169.04,1.317358,446101,21482
1173.79,1.316016,451929,21830
1177.34,1.315305,456026,22064
1180.9,1.319067,461306,22127
1184.44,1.319854,467657,22391
1187.99,1.312872,473969,23061
1191.52,1.320858,479856,22922
1195.06,1.321251,487372,23260
1199.76,1.316629,497347,23990
1203.29,1.326432,504311,23783
1206.81,1.321408,511507,24403
1210.33,1.318092,519078,24954
1213.84,1.324561,527163,24968
1217.35,1.317963,534208,25689
1220.85,1.317099,540472,26042
1225.51,1.322437,549929,26174
1229.01,1.322915,556888,26476
1232.5,1.325075,562180,26595
1235.98,1.326924,567975,26755
1239.46,1.317503,574815,27671
1242.94,1.320556,582782,27858
1246.41,1.322089,591476,28174
1251.03,1.324804,604016,28592
1254.5,1.325098,612289,28964
1257.96,1.325281,619125,29275
1261.41,1.320304,624551,29872
1264.86,1.317485,629900,30324
1268.31,1.320596,634345,30320
1271.75,1.321924,638574,30429
1276.33,1.328312,642499,30169
1279.76,1.324561,645905,30592
1283.19,1.319887,648307,31038
1286.61,1.319391,650446,31176
1290.03,1.331291,652132,30412
1293.44,1.330121,653907,30577
1296.85,1.329274,655963,30733
1301.39,1.327472,657349,30926
1304.8,1.326376,657558,31014
1308.19,1.329634,658515,30827
1311.58,1.326163,658804,31088
1314.97,1.331867,659011,30692
1318.36,1.327156,658272,30992
1321.73,1.328085,658022,30914
1326.23,1.330662,657870,30724
1329.6,1.322053,656482,31273
1332.97,1.331323,654926,30540
1336.33,1.325832,653727,30872
1339.69,1.328049,652497,30657
1343.04,1.325703,649913,30701
1346.39,1.327710,647671,30454
1349.73,1.322635,645338,30701
1354.18,1.325849,641175,30278
1357.52,1.328694,638376,29949
1360.85,1.323705,635805,30173
1364.17,1.323221,633413,30093
1367.49,1.320515,631026,30167
1370.81,1.329455,628050,29413
1374.12,1.327970,625034,29372
1378.54,1.325640,620272,29305
1381.84,1.326555,616892,29084
1385.14,1.322928,613613,29172
1388.43,1.320467,611526,29238
1391.72,1.320240,610663,29212
1395.01,1.323099,610634,29019
1398.29,1.324051,611700,29006
1402.66,1.329597,614051,28748
1405.93,1.328962,616268,28894
1409.2,1.326802,617795,29110
1412.46,1.331937,618872,28818
1415.72,1.325262,619795,29308
1418.98,1.328935,620495,29094
1422.23,1.331369,621087,28959
1426.56,1.332727,621375,28882
1429.8,1.332820,621616,28887
1433.04,1.328602,622129,29193
1436.27,1.328746,621526,29155
1439.5,1.336046,621113,28650
1442.72,1.330085,620921,29037
1445.94,1.334729,620270,28698
1450.23,1.336854,618860,28493
1453.44,1.328632,617697,28983
1456.64,1.336433,616264,28401
1459.85,1.332565,614413,28569
1463.04,1.331774,612307,28523
1466.24,1.328546,610032,28629
1469.43,1.334050,607345,28144
1473.67,1.328179,603789,28360
1476.85,1.341488,601175,27385
1480.02,1.333278,597737,27748
1483.19,1.327134,594479,27990
1486.36,1.329874,591232,27662
1489.52,1.333377,587853,27283
1492.68,1.339272,583875,26733
1496.89,1.334148,578062,26781
1500.03,1.339142,574159,26296
1503.18,1.339235,570285,26113
1506.32,1.337550,565444,25992
1509.45,1.330810,560571,26171
1512.58,1.336169,555821,25631
1515.71,1.330076,550344,25737
1519.87,1.334737,543983,25168
1522.99,1.332626,538764,25048
1526.1,1.343996,533692,24171
1529.21,1.329892,527902,24698
1532.32,1.334982,521886,24132
1535.42,1.336490,515888,23772
1538.51,1.341080,509987,23253
1541.6,1.329243,503936,23612
1545.72,1.331383,494694,23065
1548.8,1.325708,488378,23070
1551.88,1.329749,481832,22550
1554.95,1.331663,474989,22132
1558.02,1.332238,467818,21769
1561.08,1.336251,460730,21242
1564.15,1.340493,454170,20736
1568.22,1.327102,444181,20915
1571.27,1.329268,436947,20472
1574.32,1.319448,429598,20588
1577.36,1.325214,422039,19959
1580.4,1.340472,414375,18920
1583.43,1.327621,406354,19111
1586.46,1.326798,398475,18776
1590.49,1.322805,388982,18498
1593.51,1.325199,380708,18005
1596.53,1.333998,372727,17274
1599.54,1.328810,365060,17122
1602.55,1.335476,357543,16514
1605.55,1.327618,349495,16437
1608.55,1.313183,341154,16587
1612.54,1.319966,330877,15838
1615.53,1.316088,322904,15595
1618.51,1.309570,315116,15449
1621.49,1.326377,307217,14490
1624.47,1.310858,299481,14639
1627.44,1.326742,292112,13766
1630.41,1.324067,284245,13478
1634.36,1.321966,274079,13059
1637.32,1.314810,266916,12929
1640.27,1.318354,259612,12473
1643.22,1.320941,251804,12026
1646.16,1.316090,244348,11801
1649.1,1.311359,236703,11557
1652.04,1.320396,228171,10911
1655.95,1.314853,215408,10433
1658.88,1.284965,204937,10633
1661.8,1.301648,193395,9656
1664.72,1.269998,179728,9652
1667.63,1.261538,163642,8961
1670.54,1.239968,146312,8420
1673.44,1.202187,128451,8064
1677.31,1.162382,105080,7230
1680.21,1.198577,88906,5628
1683.1,1.133313,75033,5520
1685.99,1.163026,63520,4364
1688.87,1.138689,53714,3903
1691.75,1.162263,45653,3142
1694.62,1.088525,39137,3192
1697.49,1.250312,33776,1898
1701.31,1.101559,28175,2230