File: ML/samples/unknown/Column 1_078264_20241121_165332.csv
Method:,Column 1,,
Host Date-Time:,21/11/24 @ 16:53:32,,
Header Version:,1,,
System Temp (C):,34.29,,
Detector Temp (C):,32.01,,
Humidity (%):,2.45,,
Lamp PD:,3802,,
Shift Vector Coefficients:,-10.5391,0.0761263,-0.000134223,,
Pixel to Wavelength Coefficients:,1775.68,-0.916766,-0.000235065,,
Serial Number:,5510004,,
Scan Config Name:,Column 1,,
Scan Config Type:,Slew,,
Section 1,,
Start wavelength (nm):,900,,
End wavelength (nm):,1700,,
Pattern Pixel Width (nm):,   7.03,,,,
Exposure (ms):,  0.635,,,,
Digital Resolution:,228,,
Num Repeats:,6,,
PGA Gain:,64,,
Total Measurement Time in sec:,  2.727,,
Wavelength (nm),Absorbance (AU),Reference Signal (unitless),Sample Signal (unitless)
901.51,1.318115,108485,5215
905.376,1.321204,121306,5790
909.237,1.318734,131909,6332
913.095,1.311766,143299,6990
916.948,1.312586,156982,7643
922.079,1.312567,179937,8761
925.923,1.329365,200504,9392
929.762,1.327986,222660,10463
933.597,1.324101,244426,11589
937.427,1.312081,263972,12867
941.254,1.334566,281845,13045
945.076,1.328609,297271,13949
950.165,1.323024,315605,15001
953.978,1.300222,328029,16432
957.786,1.309675,340470,16688
961.59,1.319613,352317,16878
965.389,1.307752,363056,17874
969.185,1.315589,373162,18043
972.976,1.315750,382632,18494
976.763,1.321024,391202,18680
981.806,1.310320,400190,19586
985.583,1.305640,406088,20090
989.355,1.315195,410162,19850
993.124,1.316391,412868,19926
996.888,1.315617,414263,20029
1000.65,1.315069,415476,20113
1004.4,1.309260,415479,20384
1009.41,1.310565,414358,20268
1013.15,1.316776,412923,19911
1016.89,1.308423,411526,20229
1020.63,1.316754,409066,19726
1024.36,1.309936,406777,19926
1028.09,1.314340,404427,19611
1031.82,1.305692,401911,19881
1036.78,1.319115,398410,19108
1040.49,1.305021,396204,19629
1044.2,1.316432,394236,19025
1047.91,1.306450,392042,19359
1051.61,1.319305,389823,18688
1055.31,1.314890,388234,18802
1059,1.311049,387599,18938
1063.92,1.312464,386688,18832
1067.61,1.305613,386598,19127
1071.29,1.319813,387377,18549
1074.96,1.317265,388536,18714
1078.63,1.313477,389855,18942
1082.3,1.320086,391215,18721
1085.96,1.318398,393215,18890
1090.84,1.311355,396270,19348
1094.49,1.313313,398760,19382
1098.14,1.329597,400987,18773
1101.79,1.319048,403477,19354
1105.43,1.313897,406116,19713
1109.06,1.309464,407701,19993
1112.7,1.315290,409859,19831
1117.53,1.313823,412494,20026
1121.15,1.325586,414909,19605
1124.77,1.318538,416559,20005
1128.38,1.313506,418532,20334
1131.99,1.312808,419956,20436
1135.6,1.322299,421946,20089
1139.2,1.311588,423881,20685
1143.99,1.328551,426786,20029
1147.58,1.317191,428617,20648
1151.17,1.328587,431169,20233
1154.75,1.314849,433579,21000
1158.33,1.323213,436264,20727
1161.91,1.316649,439132,21181
1165.48,1.319591,442389,21194
1169.04,1.317136,446101,21493
1173.79,1.312726,451929,21996
1177.34,1.320513,456026,21801
1180.9,1.319754,461306,22092
1184.44,1.320514,467657,22357
1187.99,1.325424,473969,22404
1191.52,1.313606,479856,23308
1195.06,1.327267,487372,22940
1199.76,1.320046,497347,23802
1203.29,1.325410,504311,23839
1206.81,1.321337,511507,24407
1210.33,1.318946,519078,24905
1213.84,1.326549,527163,24854
1217.35,1.322296,534208,25434
1220.85,1.323686,540472,25650
1225.51,1.326906,549929,25906
1229.01,1.332233,556888,25914
1232.5,1.329507,562180,26325
1235.98,1.331165,567975,26495
1239.46,1.330406,574815,26861
1242.94,1.326300,582782,27492
1246.41,1.326613,591476,27882
1251.03,1.323939,604016,28649
1254.5,1.331853,612289,28517
1257.96,1.327319,619125,29138
1261.41,1.333979,624551,28946
1264.86,1.328626,629900,29556
1268.31,1.327498,634345,29842
1271.75,1.331783,638574,29746
1276.33,1.326946,642499,30264
1279.76,1.327752,645905,30368
1283.19,1.336357,648307,29883
1286.61,1.331898,650446,30291
1290.03,1.334847,652132,30164
1293.44,1.330448,653907,30554
1296.85,1.327427,655963,30864
1301.39,1.337401,657349,30227
1304.8,1.335275,657558,30385
1308.19,1.329930,658515,30806
1311.58,1.333830,658804,30544
1314.97,1.333256,659011,30594
1318.36,1.333309,658272,30556
1321.73,1.337673,658022,30239
1326.23,1.329843,657870,30782
1329.6,1.333536,656482,30457
1332.97,1.330301,654926,30612
1336.33,1.332409,653727,30408
1339.69,1.332334,652497,30356
1343.04,1.328712,649913,30489
1346.39,1.336410,647671,29850
1349.73,1.329680,645338,30207
1354.18,1.331974,641175,29854
1357.52,1.335534,638376,29481
1360.85,1.332487,635805,29569
1364.17,1.328916,633413,29701
1367.49,1.329416,631026,29555
1370.81,1.329484,628050,29411
1374.12,1.325229,625034,29558
1378.54,1.329675,620272,29034
1381.84,1.332585,616892,28683
1385.14,1.335035,613613,28370
1388.43,1.333908,611526,28347
1391.72,1.326575,610663,28789
1395.01,1.328096,610634,28687
1398.29,1.333358,611700,28391
1402.66,1.334214,614051,28444
1405.93,1.331646,616268,28716
1409.2,1.331965,617795,28766
1412.46,1.336573,618872,28512
1415.72,1.333792,619795,28738
1418.98,1.331300,620495,28936
1422.23,1.334605,621087,28744
1426.56,1.335865,621375,28674
1429.8,1.335580,621616,28704
1433.04,1.329987,622129,29100
1436.27,1.340799,621526,28357
1439.5,1.329636,621113,29076
1442.72,1.335533,620921,28675
1445.94,1.337355,620270,28525
1450.23,1.334877,618860,28623
1453.44,1.335185,617697,28549
1456.64,1.342252,616264,28023
1459.85,1.336659,614413,28301
1463.04,1.332155,612307,28498
1466.24,1.335658,610032,28164
1469.43,1.333695,607345,28167
1473.67,1.337951,603789,27729
1476.85,1.345023,601175,27163
1480.02,1.335129,597737,27630
1483.19,1.335784,594479,27438
1486.36,1.338789,591232,27100
1489.52,1.344240,587853,26609
1492.68,1.338704,583875,26768
1496.89,1.340815,578062,26373
1500.03,1.340151,574159,26235
1503.18,1.337145,570285,26239
1506.32,1.342456,565444,25700
1509.45,1.343968,560571,25390
1512.58,1.338037,555821,25521
1515.71,1.337411,550344,25306
1519.87,1.342677,543983,24712
1522.99,1.339458,538764,24657
1526.1,1.342830,533692,24236
1529.21,1.337967,527902,24243
1532.32,1.335577,521886,24099
1535.42,1.341395,515888,23505
1538.51,1.340893,509987,23263
1541.6,1.341006,503936,22981
1545.72,1.335014,494694,22873
1548.8,1.339304,488378,22359
1551.88,1.343504,481832,21847
1554.95,1.339105,474989,21756
1558.02,1.344028,467818,21186
1561.08,1.342885,460730,20920
1564.15,1.339907,454170,20764
1568.22,1.339636,444181,20320
1571.27,1.328611,436947,20503
1574.32,1.343786,429598,19466
1577.36,1.336880,422039,19430
1580.4,1.330757,414375,19348
1583.43,1.323910,406354,19275
1586.46,1.327817,398475,18732
1590.49,1.334271,388982,18016
1593.51,1.328832,380708,17855
1596.53,1.323001,372727,17717
1599.54,1.333297,365060,16946
1602.55,1.333482,357543,16590
1605.55,1.338535,349495,16029
1608.55,1.333305,341154,15836
1612.54,1.328579,330877,15527
1615.53,1.321948,322904,15386
1618.51,1.323278,315116,14969
1621.49,1.327698,307217,14446
1624.47,1.313447,299481,14552
1627.44,1.332458,292112,13586
1630.41,1.332461,284245,13220
1634.36,1.320074,274079,13116
1637.32,1.306426,266916,13181
1640.27,1.312303,259612,12648
1643.22,1.311829,251804,12281
1646.16,1.320120,244348,11692
1649.1,1.309821,236703,11598
1652.04,1.327904,228171,10724
1655.95,1.323853,215408,10219
1658.88,1.313187,204937,9964
1661.8,1.283502,193395,10068
1664.72,1.283572,179728,9355
1667.63,1.267590,163642,8837
1670.54,1.245470,146312,8314
1673.44,1.242214,128451,7354
1677.31,1.192731,105080,6742
1680.21,1.201752,88906,5587
1683.1,1.242491,75033,4293
1685.99,1.219939,63520,3828
1688.87,1.235516,53714,3123
1691.75,1.231497,45653,2679
1694.62,1.234082,39137,2283
1697.49,1.312442,33776,1645
1701.31,1.247376,28175,1594