File: ML/samples/unknown/Column 1_078715_20241121_171841.csv
Method:,Column 1,,
Host Date-Time:,21/11/24 @ 17:18:41,,
Header Version:,1,,
System Temp (C):,35.59,,
Detector Temp (C):,34.42,,
Humidity (%):,1.56,,
Lamp PD:,3799,,
Shift Vector Coefficients:,-10.5391,0.0761263,-0.000134223,,
Pixel to Wavelength Coefficients:,1775.68,-0.916766,-0.000235065,,
Serial Number:,5510004,,
Scan Config Name:,Column 1,,
Scan Config Type:,Slew,,
Section 1,,
Start wavelength (nm):,900,,
End wavelength (nm):,1700,,
Pattern Pixel Width (nm):,   7.03,,,,
Exposure (ms):,  0.635,,,,
Digital Resolution:,228,,
Num Repeats:,6,,
PGA Gain:,64,,
Total Measurement Time in sec:,  2.720,,
Wavelength (nm),Absorbance (AU),Reference Signal (unitless),Sample Signal (unitless)
901.51,1.312900,108485,5278
905.376,1.301912,121306,6053
909.237,1.336299,131909,6081
913.095,1.345607,143299,6466
916.948,1.319343,156982,7525
922.079,1.316751,179937,8677
925.923,1.307146,200504,9885
929.762,1.329733,222660,10421
933.597,1.329380,244426,11449
937.427,1.326423,263972,12449
941.254,1.302210,281845,14054
945.076,1.304773,297271,14736
950.165,1.306772,315605,15573
953.978,1.322704,328029,15603
957.786,1.324875,340470,16114
961.59,1.310270,352317,17245
965.389,1.308116,363056,17859
969.185,1.308143,373162,18355
972.976,1.305401,382632,18940
976.763,1.306057,391202,19335
981.806,1.309191,400190,19637
985.583,1.302860,406088,20219
989.355,1.304263,410162,20356
993.124,1.312011,412868,20128
996.888,1.308989,414263,20337
1000.65,1.307916,415476,20447
1004.4,1.300883,415479,20781
1009.41,1.309345,414358,20325
1013.15,1.309273,412923,20258
1016.89,1.309110,411526,20197
1020.63,1.305840,409066,20228
1024.36,1.300600,406777,20359
1028.09,1.303839,404427,20091
1031.82,1.302579,401911,20024
1036.78,1.307366,398410,19632
1040.49,1.305796,396204,19594
1044.2,1.301577,394236,19687
1047.91,1.320100,392042,18760
1051.61,1.306911,389823,19229
1055.31,1.297725,388234,19560
1059,1.298682,387599,19485
1063.92,1.304308,386688,19189
1067.61,1.309215,386598,18969
1071.29,1.310616,387377,18946
1074.96,1.310335,388536,19015
1078.63,1.306337,389855,19256
1082.3,1.311610,391215,19090
1085.96,1.315465,393215,19018
1090.84,1.311962,396270,19321
1094.49,1.312261,398760,19429
1098.14,1.313764,400987,19470
1101.79,1.313940,403477,19583
1105.43,1.308860,406116,19943
1109.06,1.314203,407701,19776
1112.7,1.312213,409859,19972
1117.53,1.311682,412494,20125
1121.15,1.324480,414909,19655
1124.77,1.318386,416559,20012
1128.38,1.308452,418532,20572
1131.99,1.313042,419956,20425
1135.6,1.306359,421946,20840
1139.2,1.305977,423881,20954
1143.99,1.313904,426786,20716
1147.58,1.317612,428617,20628
1151.17,1.322724,431169,20508
1154.75,1.319068,433579,20797
1158.33,1.320019,436264,20880
1161.91,1.321100,439132,20965
1165.48,1.315391,442389,21400
1169.04,1.306813,446101,22010
1173.79,1.315957,451929,21833
1177.34,1.317357,456026,21960
1180.9,1.312753,461306,22451
1184.44,1.316146,467657,22583
1187.99,1.316484,473969,22870
1191.52,1.314165,479856,23278
1195.06,1.314452,487372,23627
1199.76,1.312593,497347,24214
1203.29,1.322198,504311,24016
1206.81,1.314768,511507,24779
1210.33,1.318545,519078,24928
1213.84,1.316752,527163,25421
1217.35,1.319013,534208,25627
1220.85,1.323381,540472,25668
1225.51,1.321873,549929,26208
1229.01,1.329460,556888,26080
1232.5,1.317804,562180,27044
1235.98,1.320655,567975,27144
1239.46,1.320211,574815,27499
1242.94,1.313796,582782,28295
1246.41,1.315374,591476,28613
1251.03,1.320030,604016,28908
1254.5,1.321678,612289,29193
1257.96,1.320589,619125,29593
1261.41,1.323089,624551,29681
1264.86,1.316441,629900,30397
1268.31,1.319995,634345,30362
1271.75,1.323869,638574,30293
1276.33,1.330173,642499,30040
1279.76,1.327138,645905,30411
1283.19,1.322610,648307,30844
1286.61,1.327022,650446,30633
1290.03,1.326081,652132,30779
1293.44,1.324982,653907,30941
1296.85,1.327540,655963,30856
1301.39,1.324380,657349,31147
1304.8,1.324323,657558,31161
1308.19,1.325624,658515,31113
1311.58,1.328503,658804,30921
1314.97,1.324919,659011,31187
1318.36,1.330405,658272,30761
1321.73,1.324016,658022,31205
1326.23,1.325477,657870,31093
1329.6,1.332411,656482,30536
1332.97,1.326431,654926,30886
1336.33,1.324119,653727,30994
1339.69,1.324311,652497,30922
1343.04,1.324361,649913,30796
1346.39,1.326912,647671,30510
1349.73,1.326728,645338,30413
1354.18,1.328367,641175,30103
1357.52,1.333418,638376,29625
1360.85,1.324599,635805,30111
1364.17,1.322299,633413,30157
1367.49,1.325161,631026,29846
1370.81,1.330845,628050,29319
1374.12,1.321615,625034,29805
1378.54,1.325063,620272,29344
1381.84,1.327482,616892,29022
1385.14,1.323644,613613,29124
1388.43,1.319518,611526,29302
1391.72,1.326741,610663,28778
1395.01,1.326751,610634,28776
1398.29,1.326453,611700,28846
1402.66,1.322762,614051,29204
1405.93,1.328767,616268,28907
1409.2,1.326593,617795,29124
1412.46,1.329353,618872,28990
1415.72,1.335063,619795,28654
1418.98,1.334524,620495,28722
1422.23,1.329349,621087,29094
1426.56,1.328685,621375,29152
1429.8,1.332339,621616,28919
1433.04,1.333328,622129,28877
1436.27,1.327482,621526,29240
1439.5,1.329591,621113,29079
1442.72,1.333719,620921,28795
1445.94,1.331638,620270,28903
1450.23,1.332487,618860,28781
1453.44,1.332878,617697,28701
1456.64,1.330028,616264,28823
1459.85,1.331685,614413,28627
1463.04,1.326222,612307,28890
1466.24,1.329792,610032,28547
1469.43,1.335100,607345,28076
1473.67,1.331253,603789,28160
1476.85,1.330063,601175,28115
1480.02,1.335161,597737,27628
1483.19,1.330107,594479,27799
1486.36,1.329278,591232,27700
1489.52,1.330505,587853,27464
1492.68,1.332278,583875,27167
1496.89,1.331722,578062,26931
1500.03,1.333857,574159,26618
1503.18,1.331619,570285,26575
1506.32,1.337316,565444,26006
1509.45,1.333357,560571,26018
1512.58,1.341060,555821,25344
1515.71,1.333924,550344,25510
1519.87,1.334288,543983,25194
1522.99,1.338069,538764,24736
1526.1,1.335897,533692,24626
1529.21,1.334630,527902,24430
1532.32,1.334191,521886,24176
1535.42,1.330142,515888,24122
1538.51,1.333728,509987,23650
1541.6,1.330090,503936,23566
1545.72,1.335241,494694,22861
1548.8,1.334033,488378,22632
1551.88,1.334201,481832,22320
1554.95,1.336994,474989,21862
1558.02,1.331899,467818,21786
1561.08,1.332222,460730,21440
1564.15,1.332401,454170,21126
1568.22,1.336760,444181,20455
1571.27,1.331758,436947,20355
1574.32,1.337759,429598,19738
1577.36,1.335518,422039,19491
1580.4,1.328653,414375,19442
1583.43,1.335695,406354,18759
1586.46,1.327817,398475,18732
1590.49,1.324994,388982,18405
1593.51,1.330001,380708,17807
1596.53,1.326446,372727,17577
1599.54,1.326735,365060,17204
1602.55,1.313854,357543,17357
1605.55,1.324014,349495,16574
1608.55,1.322097,341154,16250
1612.54,1.317206,330877,15939
1615.53,1.324751,322904,15287
1618.51,1.318545,315116,15133
1621.49,1.322320,307217,14626
1624.47,1.320548,299481,14316
1627.44,1.317811,292112,14052
1630.41,1.319261,284245,13628
1634.36,1.321633,274079,13069
1637.32,1.318588,266916,12817
1640.27,1.313093,259612,12625
1643.22,1.308482,251804,12376
1646.16,1.316274,244348,11796
1649.1,1.309596,236703,11604
1652.04,1.312429,228171,11113
1655.95,1.294364,215408,10937
1658.88,1.288862,204937,10538
1661.8,1.293362,193395,9842
1664.72,1.262637,179728,9817
1667.63,1.263043,163642,8930
1670.54,1.239040,146312,8438
1673.44,1.202079,128451,8066
1677.31,1.204749,105080,6558
1680.21,1.184755,88906,5810
1683.1,1.166831,75033,5110
1685.99,1.152700,63520,4469
1688.87,1.157216,53714,3740
1691.75,1.135333,45653,3343
1694.62,1.216558,39137,2377
1697.49,1.173540,33776,2265
1701.31,1.226887,28175,1671