File: ML/samples/unknown/Column 1_078175_20241121_164909.csv
Method:,Column 1,,
Host Date-Time:,21/11/24 @ 16:49:9,,
Header Version:,1,,
System Temp (C):,33.65,,
Detector Temp (C):,29.97,,
Humidity (%):,3.43,,
Lamp PD:,3804,,
Shift Vector Coefficients:,-10.5391,0.0761263,-0.000134223,,
Pixel to Wavelength Coefficients:,1775.68,-0.916766,-0.000235065,,
Serial Number:,5510004,,
Scan Config Name:,Column 1,,
Scan Config Type:,Slew,,
Section 1,,
Start wavelength (nm):,900,,
End wavelength (nm):,1700,,
Pattern Pixel Width (nm):,   7.03,,,,
Exposure (ms):,  0.635,,,,
Digital Resolution:,228,,
Num Repeats:,6,,
PGA Gain:,64,,
Total Measurement Time in sec:,  2.720,,
Wavelength (nm),Absorbance (AU),Reference Signal (unitless),Sample Signal (unitless)
901.51,1.331305,108485,5059
905.376,1.363475,121306,5253
909.237,1.341255,131909,6012
913.095,1.298308,143299,7210
916.948,1.335272,156982,7254
922.079,1.323815,179937,8537
925.923,1.342748,200504,9107
929.762,1.309340,222660,10922
933.597,1.328735,244426,11466
937.427,1.327366,263972,12422
941.254,1.327303,281845,13265
945.076,1.320895,297271,14199
950.165,1.319362,315605,15128
953.978,1.324238,328029,15548
957.786,1.319013,340470,16333
961.59,1.311127,352317,17211
965.389,1.326242,363056,17129
969.185,1.313069,373162,18148
972.976,1.310452,382632,18721
976.763,1.322678,391202,18609
981.806,1.321779,400190,19076
985.583,1.324528,406088,19235
989.355,1.308939,410162,20138
993.124,1.312550,412868,20103
996.888,1.318161,414263,19912
1000.65,1.311135,415476,20296
1004.4,1.316002,415479,20070
1009.41,1.312110,414358,20196
1013.15,1.303882,412923,20511
1016.89,1.315894,411526,19884
1020.63,1.320647,409066,19550
1024.36,1.314560,406777,19715
1028.09,1.326125,404427,19086
1031.82,1.314452,401911,19484
1036.78,1.314413,398410,19316
1040.49,1.313894,396204,19232
1044.2,1.308022,394236,19397
1047.91,1.309624,392042,19218
1051.61,1.322079,389823,18569
1055.31,1.321664,388234,18511
1059,1.322834,387599,18431
1063.92,1.322047,386688,18421
1067.61,1.312271,386598,18836
1071.29,1.313791,387377,18808
1074.96,1.314535,388536,18832
1078.63,1.326439,389855,18385
1082.3,1.326702,391215,18438
1085.96,1.314712,393215,19051
1090.84,1.317003,396270,19098
1094.49,1.325400,398760,18850
1098.14,1.327980,400987,18843
1101.79,1.322043,403477,19221
1105.43,1.328573,406116,19058
1109.06,1.317112,407701,19644
1112.7,1.325527,409859,19369
1117.53,1.325160,412494,19510
1121.15,1.319799,414909,19868
1124.77,1.330065,416559,19481
1128.38,1.326888,418532,19717
1131.99,1.316714,419956,20253
1135.6,1.323251,421946,20045
1139.2,1.338592,423881,19438
1143.99,1.316301,426786,20602
1147.58,1.325623,428617,20251
1151.17,1.326382,431169,20336
1154.75,1.324827,433579,20523
1158.33,1.325882,436264,20600
1161.91,1.326268,439132,20717
1165.48,1.321975,442389,21078
1169.04,1.325810,446101,21068
1173.79,1.328652,451929,21204
1177.34,1.323411,456026,21656
1180.9,1.328291,461306,21662
1184.44,1.327071,467657,22022
1187.99,1.323992,473969,22478
1191.52,1.325276,479856,22690
1195.06,1.324249,487372,23100
1199.76,1.320649,497347,23769
1203.29,1.330431,504311,23565
1206.81,1.326726,511507,24106
1210.33,1.332873,519078,24119
1213.84,1.329881,527163,24664
1217.35,1.325071,534208,25272
1220.85,1.327427,540472,25430
1225.51,1.324549,549929,26047
1229.01,1.328047,556888,26165
1232.5,1.327581,562180,26442
1235.98,1.324981,567975,26875
1239.46,1.327329,574815,27052
1242.94,1.334899,582782,26953
1246.41,1.328095,591476,27787
1251.03,1.333735,604016,28010
1254.5,1.325878,612289,28912
1257.96,1.331196,619125,28879
1261.41,1.327235,624551,29399
1264.86,1.329833,629900,29474
1268.31,1.332504,634345,29500
1271.75,1.330543,638574,29831
1276.33,1.327291,642499,30240
1279.76,1.334338,645905,29911
1283.19,1.336386,648307,29881
1286.61,1.337206,650446,29923
1290.03,1.341170,652132,29728
1293.44,1.335322,653907,30213
1296.85,1.330988,655963,30612
1301.39,1.334922,657349,30400
1304.8,1.335418,657558,30375
1308.19,1.337625,658515,30265
1311.58,1.332538,658804,30635
1314.97,1.333455,659011,30580
1318.36,1.335861,658272,30377
1321.73,1.338363,658022,30191
1326.23,1.340672,657870,30024
1329.6,1.342162,656482,29858
1332.97,1.334506,654926,30317
1336.33,1.337335,653727,30065
1339.69,1.328148,652497,30650
1343.04,1.333741,649913,30138
1346.39,1.331750,647671,30172
1349.73,1.331885,645338,30054
1354.18,1.329161,641175,30048
1357.52,1.338728,638376,29265
1360.85,1.336219,635805,29316
1364.17,1.328156,633413,29753
1367.49,1.333283,631026,29293
1370.81,1.335207,628050,29026
1374.12,1.334916,625034,28906
1378.54,1.331324,620272,28924
1381.84,1.334557,616892,28553
1385.14,1.329015,613613,28766
1388.43,1.327883,611526,28743
1391.72,1.329831,610663,28574
1395.01,1.330540,610634,28526
1398.29,1.330993,611700,28546
1402.66,1.334336,614051,28436
1405.93,1.330347,616268,28802
1409.2,1.332887,617795,28705
1412.46,1.330478,618872,28915
1415.72,1.340247,619795,28314
1418.98,1.340185,620495,28350
1422.23,1.346305,621087,27980
1426.56,1.337155,621375,28589
1429.8,1.339150,621616,28469
1433.04,1.337970,622129,28570
1436.27,1.337868,621526,28549
1439.5,1.338173,621113,28510
1442.72,1.340361,620921,28358
1445.94,1.333490,620270,28780
1450.23,1.340466,618860,28257
1453.44,1.334622,617697,28586
1456.64,1.337750,616264,28315
1459.85,1.337873,614413,28222
1463.04,1.335198,612307,28299
1466.24,1.335504,610032,28174
1469.43,1.338345,607345,27867
1473.67,1.340417,603789,27572
1476.85,1.338296,601175,27587
1480.02,1.340475,597737,27292
1483.19,1.341761,594479,27063
1486.36,1.343105,591232,26832
1489.52,1.343409,587853,26660
1492.68,1.342468,583875,26537
1496.89,1.340206,578062,26410
1500.03,1.342541,574159,26091
1503.18,1.344287,570285,25811
1506.32,1.343777,565444,25622
1509.45,1.337921,560571,25746
1512.58,1.339828,555821,25416
1515.71,1.339044,550344,25211
1519.87,1.343064,543983,24690
1522.99,1.336037,538764,24852
1526.1,1.343709,533692,24187
1529.21,1.363401,527902,22864
1532.32,1.348415,521886,23397
1535.42,1.341044,515888,23524
1538.51,1.343158,509987,23142
1541.6,1.335859,503936,23255
1545.72,1.342579,494694,22478
1548.8,1.334725,488378,22596
1551.88,1.352198,481832,21414
1554.95,1.345398,474989,21443
1558.02,1.331959,467818,21783
1561.08,1.341682,460730,20978
1564.15,1.346589,454170,20447
1568.22,1.339273,444181,20337
1571.27,1.339442,436947,19998
1574.32,1.340895,429598,19596
1577.36,1.345412,422039,19052
1580.4,1.336224,414375,19106
1583.43,1.341498,406354,18510
1586.46,1.333864,398475,18473
1590.49,1.345850,388982,17542
1593.51,1.339145,380708,17436
1596.53,1.336772,372727,17164
1599.54,1.329241,365060,17105
1602.55,1.335371,357543,16518
1605.55,1.328915,349495,16388
1608.55,1.330544,341154,15937
1612.54,1.335145,330877,15294
1615.53,1.322061,322904,15382
1618.51,1.333761,315116,14612
1621.49,1.325868,307217,14507
1624.47,1.324479,299481,14187
1627.44,1.323004,292112,13885
1630.41,1.327367,284245,13376
1634.36,1.329649,274079,12830
1637.32,1.326832,266916,12576
1640.27,1.333374,259612,12049
1643.22,1.328923,251804,11807
1646.16,1.313485,244348,11872
1649.1,1.325451,236703,11188
1652.04,1.336121,228171,10523
1655.95,1.306729,215408,10630
1658.88,1.318361,204937,9846
1661.8,1.316145,193395,9339
1664.72,1.293432,179728,9145
1667.63,1.298389,163642,8232
1670.54,1.278846,146312,7699
1673.44,1.282792,128451,6698
1677.31,1.272480,105080,5611
1680.21,1.292067,88906,4538
1683.1,1.212023,75033,4605
1685.99,1.209403,63520,3922
1688.87,1.220751,53714,3231
1691.75,1.254807,45653,2539
1694.62,1.343634,39137,1774
1697.49,1.450151,33776,1198
1701.31,1.286106,28175,1458