File: ML/samples/unknown/Column 1_078802_20241121_172253.csv
Method:,Column 1,,
Host Date-Time:,21/11/24 @ 17:22:53,,
Header Version:,1,,
System Temp (C):,36.64,,
Detector Temp (C):,35.3,,
Humidity (%):,0.53,,
Lamp PD:,3797,,
Shift Vector Coefficients:,-10.5391,0.0761263,-0.000134223,,
Pixel to Wavelength Coefficients:,1775.68,-0.916766,-0.000235065,,
Serial Number:,5510004,,
Scan Config Name:,Column 1,,
Scan Config Type:,Slew,,
Section 1,,
Start wavelength (nm):,900,,
End wavelength (nm):,1700,,
Pattern Pixel Width (nm):,   7.03,,,,
Exposure (ms):,  0.635,,,,
Digital Resolution:,228,,
Num Repeats:,6,,
PGA Gain:,64,,
Total Measurement Time in sec:,  2.723,,
Wavelength (nm),Absorbance (AU),Reference Signal (unitless),Sample Signal (unitless)
901.51,1.310930,108485,5302
905.376,1.293738,121306,6168
909.237,1.338734,131909,6047
913.095,1.309535,143299,7026
916.948,1.328382,156982,7370
922.079,1.313460,179937,8743
925.923,1.305524,200504,9922
929.762,1.306013,222660,11006
933.597,1.325265,244426,11558
937.427,1.305615,263972,13060
941.254,1.316344,281845,13604
945.076,1.306131,297271,14690
950.165,1.314793,315605,15288
953.978,1.310004,328029,16066
957.786,1.319385,340470,16319
961.59,1.320592,352317,16840
965.389,1.303857,363056,18035
969.185,1.313117,373162,18146
972.976,1.304851,382632,18964
976.763,1.301499,391202,19539
981.806,1.315271,400190,19364
985.583,1.306766,406088,20038
989.355,1.299046,410162,20602
993.124,1.302113,412868,20592
996.888,1.302566,414263,20640
1000.65,1.305776,415476,20548
1004.4,1.302831,415479,20688
1009.41,1.311144,414358,20241
1013.15,1.305197,412923,20449
1016.89,1.304554,411526,20410
1020.63,1.301887,409066,20413
1024.36,1.302396,406777,20275
1028.09,1.298126,404427,20357
1031.82,1.293415,401911,20451
1036.78,1.304609,398410,19757
1040.49,1.311171,396204,19353
1044.2,1.302548,394236,19643
1047.91,1.301586,392042,19577
1051.61,1.309289,389823,19124
1055.31,1.301158,388234,19406
1059,1.309583,387599,19002
1063.92,1.310485,386688,18918
1067.61,1.316395,386598,18658
1071.29,1.307601,387377,19078
1074.96,1.305904,388536,19210
1078.63,1.308576,389855,19157
1082.3,1.309408,391215,19187
1085.96,1.314986,393215,19039
1090.84,1.310458,396270,19388
1094.49,1.305761,398760,19722
1098.14,1.303340,400987,19943
1101.79,1.315317,403477,19521
1105.43,1.317926,406116,19531
1109.06,1.313282,407701,19818
1112.7,1.310217,409859,20064
1117.53,1.311272,412494,20144
1121.15,1.310371,414909,20304
1124.77,1.316394,416559,20104
1128.38,1.308980,418532,20547
1131.99,1.314255,419956,20368
1135.6,1.310190,421946,20657
1139.2,1.316084,423881,20472
1143.99,1.325440,426786,20173
1147.58,1.313839,428617,20808
1151.17,1.317671,431169,20748
1154.75,1.313630,433579,21059
1158.33,1.316828,436264,21034
1161.91,1.311391,439132,21439
1165.48,1.313932,442389,21472
1169.04,1.318938,446101,21404
1173.79,1.305598,451929,22360
1177.34,1.310471,456026,22311
1180.9,1.313237,461306,22426
1184.44,1.311003,467657,22852
1187.99,1.323317,473969,22513
1191.52,1.317217,479856,23115
1195.06,1.311813,487372,23771
1199.76,1.316575,497347,23993
1203.29,1.315558,504311,24386
1206.81,1.316982,511507,24653
1210.33,1.318075,519078,24955
1213.84,1.318807,527163,25301
1217.35,1.320472,534208,25541
1220.85,1.322063,540472,25746
1225.51,1.320054,549929,26318
1229.01,1.317925,556888,26782
1232.5,1.319156,562180,26960
1235.98,1.321857,567975,27069
1239.46,1.325822,574815,27146
1242.94,1.312524,582782,28378
1246.41,1.317916,591476,28446
1251.03,1.314196,604016,29299
1254.5,1.327745,612289,28788
1257.96,1.314947,619125,29980
1261.41,1.323221,624551,29672
1264.86,1.320936,629900,30084
1268.31,1.326509,634345,29910
1271.75,1.319121,638574,30626
1276.33,1.315909,642499,31043
1279.76,1.319887,645905,30923
1283.19,1.322878,648307,30825
1286.61,1.326526,650446,30668
1290.03,1.329054,652132,30569
1293.44,1.324252,653907,30993
1296.85,1.319881,655963,31405
1301.39,1.328245,657349,30871
1304.8,1.325984,657558,31042
1308.19,1.326938,658515,31019
1311.58,1.325619,658804,31127
1314.97,1.330398,659011,30796
1318.36,1.329728,658272,30809
1321.73,1.330000,658022,30778
1326.23,1.327227,657870,30968
1329.6,1.328672,656482,30800
1332.97,1.327980,654926,30776
1336.33,1.324553,653727,30963
1339.69,1.324943,652497,30877
1343.04,1.330025,649913,30397
1346.39,1.319755,647671,31017
1349.73,1.323782,645338,30620
1354.18,1.322748,641175,30495
1357.52,1.328520,638376,29961
1360.85,1.323533,635805,30185
1364.17,1.324161,633413,30028
1367.49,1.326794,631026,29734
1370.81,1.327863,628050,29521
1374.12,1.321600,625034,29806
1378.54,1.324737,620272,29366
1381.84,1.326943,616892,29058
1385.14,1.321977,613613,29236
1388.43,1.320126,611526,29261
1391.72,1.329557,610663,28592
1395.01,1.321128,610634,29151
1398.29,1.326393,611700,28850
1402.66,1.324192,614051,29108
1405.93,1.327971,616268,28960
1409.2,1.331135,617795,28821
1412.46,1.321146,618872,29543
1415.72,1.331576,619795,28885
1418.98,1.325115,620495,29351
1422.23,1.328276,621087,29166
1426.56,1.325746,621375,29350
1429.8,1.333632,621616,28833
1433.04,1.328929,622129,29171
1436.27,1.328300,621526,29185
1439.5,1.334050,621113,28782
1442.72,1.327059,620921,29240
1445.94,1.329091,620270,29073
1450.23,1.328357,618860,29056
1453.44,1.330163,617697,28881
1456.64,1.332369,616264,28668
1459.85,1.327999,614413,28871
1463.04,1.334677,612307,28333
1466.24,1.331316,610032,28447
1469.43,1.333202,607345,28199
1473.67,1.334954,603789,27921
1476.85,1.331920,601175,27995
1480.02,1.334454,597737,27673
1483.19,1.335199,594479,27475
1486.36,1.329749,591232,27670
1489.52,1.331978,587853,27371
1492.68,1.333639,583875,27082
1496.89,1.324462,578062,27385
1500.03,1.337297,574159,26408
1503.18,1.333026,570285,26489
1506.32,1.330161,565444,26438
1509.45,1.329667,560571,26240
1512.58,1.334630,555821,25722
1515.71,1.341463,550344,25071
1519.87,1.334961,543983,25155
1522.99,1.336597,538764,24820
1526.1,1.329003,533692,25020
1529.21,1.327927,527902,24810
1532.32,1.329155,521886,24458
1535.42,1.331278,515888,24059
1538.51,1.327239,509987,24006
1541.6,1.338275,503936,23126
1545.72,1.335755,494694,22834
1548.8,1.324787,488378,23119
1551.88,1.333851,481832,22338
1554.95,1.329529,474989,22241
1558.02,1.337174,467818,21523
1561.08,1.329073,460730,21596
1564.15,1.329492,454170,21268
1568.22,1.331778,444181,20691
1571.27,1.322428,436947,20797
1574.32,1.334624,429598,19881
1577.36,1.330093,422039,19736
1580.4,1.332985,414375,19249
1583.43,1.323595,406354,19289
1586.46,1.329722,398475,18650
1590.49,1.327217,388982,18311
1593.51,1.323634,380708,18070
1596.53,1.321777,372727,17767
1599.54,1.350683,365060,16281
1602.55,1.328148,357543,16795
1605.55,1.317434,349495,16827
1608.55,1.326529,341154,16085
1612.54,1.328579,330877,15527
1615.53,1.323900,322904,15317
1618.51,1.324935,315116,14912
1621.49,1.322082,307217,14634
1624.47,1.314253,299481,14525
1627.44,1.309303,292112,14330
1630.41,1.315833,284245,13736
1634.36,1.291221,274079,14017
1637.32,1.319776,266916,12782
1640.27,1.313851,259612,12603
1643.22,1.314347,251804,12210
1646.16,1.297010,244348,12331
1649.1,1.303612,236703,11765
1652.04,1.296883,228171,11518
1655.95,1.305586,215408,10658
1658.88,1.297352,204937,10334
1661.8,1.272808,193395,10319
1664.72,1.260255,179728,9871
1667.63,1.262703,163642,8937
1670.54,1.223918,146312,8737
1673.44,1.201918,128451,8069
1677.31,1.179160,105080,6956
1680.21,1.163032,88906,6108
1683.1,1.142698,75033,5402
1685.99,1.155430,63520,4441
1688.87,1.167914,53714,3649
1691.75,1.155951,45653,3188
1694.62,1.099967,39137,3109
1697.49,1.145152,33776,2418
1701.31,1.175475,28175,1881