File: ML/samples/unknown/Column 1_078060_20241121_164331.csv
Method:,Column 1,,
Host Date-Time:,21/11/24 @ 16:43:31,,
Header Version:,1,,
System Temp (C):,31.17,,
Detector Temp (C):,25.96,,
Humidity (%):,5.37,,
Lamp PD:,3809,,
Shift Vector Coefficients:,-10.5391,0.0761263,-0.000134223,,
Pixel to Wavelength Coefficients:,1775.68,-0.916766,-0.000235065,,
Serial Number:,5510004,,
Scan Config Name:,Column 1,,
Scan Config Type:,Slew,,
Section 1,,
Start wavelength (nm):,900,,
End wavelength (nm):,1700,,
Pattern Pixel Width (nm):,   7.03,,,,
Exposure (ms):,  0.635,,,,
Digital Resolution:,228,,
Num Repeats:,6,,
PGA Gain:,64,,
Total Measurement Time in sec:,  2.708,,
Wavelength (nm),Absorbance (AU),Reference Signal (unitless),Sample Signal (unitless)
901.51,1.335272,108485,5013
905.376,1.328541,121306,5693
909.237,1.313687,131909,6406
913.095,1.300966,143299,7166
916.948,1.315208,156982,7597
922.079,1.318808,179937,8636
925.923,1.326599,200504,9452
929.762,1.307911,222660,10958
933.597,1.325265,244426,11558
937.427,1.305814,263972,13054
941.254,1.306059,281845,13930
945.076,1.319673,297271,14239
950.165,1.311144,315605,15417
953.978,1.314652,328029,15895
957.786,1.310873,340470,16642
961.59,1.311380,352317,17201
965.389,1.305909,363056,17950
969.185,1.305525,373162,18466
972.976,1.311428,382632,18679
976.763,1.305922,391202,19341
981.806,1.298789,400190,20113
985.583,1.311451,406088,19823
989.355,1.307733,410162,20194
993.124,1.307888,412868,20320
996.888,1.308861,414263,20343
1000.65,1.310815,415476,20311
1004.4,1.308940,415479,20399
1009.41,1.301468,414358,20697
1013.15,1.309037,412923,20269
1016.89,1.320460,411526,19676
1020.63,1.305025,409066,20266
1024.36,1.309065,406777,19966
1028.09,1.311691,404427,19731
1031.82,1.307728,401911,19788
1036.78,1.319570,398410,19088
1040.49,1.304601,396204,19648
1044.2,1.311258,394236,19253
1047.91,1.303565,392042,19488
1051.61,1.303648,389823,19374
1055.31,1.315629,388234,18770
1059,1.317727,387599,18649
1063.92,1.306873,386688,19076
1067.61,1.315209,386598,18709
1071.29,1.316943,387377,18672
1074.96,1.312395,388536,18925
1078.63,1.314441,389855,18900
1082.3,1.315426,391215,18923
1085.96,1.313278,393215,19114
1090.84,1.314667,396270,19201
1094.49,1.310788,398760,19495
1098.14,1.316472,400987,19349
1101.79,1.317167,403477,19438
1105.43,1.308751,406116,19948
1109.06,1.310181,407701,19960
1112.7,1.323380,409859,19465
1117.53,1.318555,412494,19809
1121.15,1.315146,414909,20082
1124.77,1.321675,416559,19861
1128.38,1.326382,418532,19740
1131.99,1.312277,419956,20461
1135.6,1.322883,421946,20062
1139.2,1.314115,423881,20565
1143.99,1.316596,426786,20588
1147.58,1.323313,428617,20359
1151.17,1.315958,431169,20830
1154.75,1.316382,433579,20926
1158.33,1.320998,436264,20833
1161.91,1.317901,439132,21120
1165.48,1.316712,442389,21335
1169.04,1.325110,446101,21102
1173.79,1.313003,451929,21982
1177.34,1.317793,456026,21938
1180.9,1.314673,461306,22352
1184.44,1.315435,467657,22620
1187.99,1.318864,473969,22745
1191.52,1.320783,479856,22926
1195.06,1.318515,487372,23407
1199.76,1.320083,497347,23800
1203.29,1.327126,504311,23745
1206.81,1.322174,511507,24360
1210.33,1.317449,519078,24991
1213.84,1.329037,527163,24712
1217.35,1.318488,534208,25658
1220.85,1.326778,540472,25468
1225.51,1.325868,549929,25968
1229.01,1.326060,556888,26285
1232.5,1.323445,562180,26695
1235.98,1.326259,567975,26796
1239.46,1.316422,574815,27740
1242.94,1.325385,582782,27550
1246.41,1.321642,591476,28203
1251.03,1.323651,604016,28668
1254.5,1.324484,612289,29005
1257.96,1.325237,619125,29278
1261.41,1.321920,624551,29761
1264.86,1.332656,629900,29283
1268.31,1.327643,634345,29832
1271.75,1.331885,638574,29739
1276.33,1.324842,642499,30411
1279.76,1.327509,645905,30385
1283.19,1.327040,648307,30531
1286.61,1.330709,650446,30374
1290.03,1.334688,652132,30175
1293.44,1.332257,653907,30427
1296.85,1.331101,655963,30604
1301.39,1.335766,657349,30341
1304.8,1.330485,657558,30722
1308.19,1.329747,658515,30819
1311.58,1.335326,658804,30439
1314.97,1.331712,659011,30703
1318.36,1.329404,658272,30832
1321.73,1.331994,658022,30637
1326.23,1.333044,657870,30556
1329.6,1.329971,656482,30708
1332.97,1.328672,654926,30727
1336.33,1.328853,653727,30658
1339.69,1.331219,652497,30434
1343.04,1.328356,649913,30514
1346.39,1.334204,647671,30002
1349.73,1.330154,645338,30174
1354.18,1.329624,641175,30016
1357.52,1.332189,638376,29709
1360.85,1.330129,635805,29730
1364.17,1.324913,633413,29976
1367.49,1.327013,631026,29719
1370.81,1.331675,628050,29263
1374.12,1.321702,625034,29799
1378.54,1.323807,620272,29429
1381.84,1.322527,616892,29355
1385.14,1.323823,613613,29112
1388.43,1.329730,611526,28621
1391.72,1.324994,610663,28894
1395.01,1.325334,610634,28870
1398.29,1.326920,611700,28815
1402.66,1.336909,614051,28268
1405.93,1.327986,616268,28959
1409.2,1.329571,617795,28925
1412.46,1.333492,618872,28715
1415.72,1.331305,619795,28903
1418.98,1.333904,620495,28763
1422.23,1.328887,621087,29125
1426.56,1.334172,621375,28786
1429.8,1.333949,621616,28812
1433.04,1.333058,622129,28895
1436.27,1.333058,621526,28867
1439.5,1.331612,621113,28944
1442.72,1.337309,620921,28558
1445.94,1.330857,620270,28955
1450.23,1.336824,618860,28495
1453.44,1.331323,617697,28804
1456.64,1.331325,616264,28737
1459.85,1.344072,614413,27822
1463.04,1.331317,612307,28553
1466.24,1.336646,610032,28100
1469.43,1.334652,607345,28105
1473.67,1.335343,603789,27896
1476.85,1.338895,601175,27549
1480.02,1.334485,597737,27671
1483.19,1.336735,594479,27378
1486.36,1.334832,591232,27348
1489.52,1.340842,587853,26818
1492.68,1.336681,583875,26893
1496.89,1.342233,578062,26287
1500.03,1.333319,574159,26651
1503.18,1.345838,570285,25719
1506.32,1.335400,565444,26121
1509.45,1.336389,560571,25837
1512.58,1.340289,555821,25389
1515.71,1.337617,550344,25294
1519.87,1.334219,543983,25198
1522.99,1.334502,538764,24940
1526.1,1.336197,533692,24609
1529.21,1.337430,527902,24273
1532.32,1.332470,521886,24272
1535.42,1.337130,515888,23737
1538.51,1.339700,509987,23327
1541.6,1.328746,503936,23639
1545.72,1.340690,494694,22576
1548.8,1.334456,488378,22610
1551.88,1.335195,481832,22269
1554.95,1.340965,474989,21663
1558.02,1.337800,467818,21492
1561.08,1.328812,460730,21609
1564.15,1.331046,454170,21192
1568.22,1.335150,444181,20531
1571.27,1.329184,436947,20476
1574.32,1.330537,429598,20069
1577.36,1.331195,422039,19686
1580.4,1.332287,414375,19280
1583.43,1.332788,406354,18885
1586.46,1.324445,398475,18878
1590.49,1.331891,388982,18115
1593.51,1.331296,380708,17754
1596.53,1.339743,372727,17047
1599.54,1.339518,365060,16705
1602.55,1.331575,357543,16663
1605.55,1.329366,349495,16371
1608.55,1.329374,341154,15980
1612.54,1.326069,330877,15617
1615.53,1.338079,322904,14825
1618.51,1.320905,315116,15051
1621.49,1.315924,307217,14843
1624.47,1.318188,299481,14394
1627.44,1.324664,292112,13832
1630.41,1.320537,284245,13588
1634.36,1.318719,274079,13157
1637.32,1.320796,266916,12752
1640.27,1.313610,259612,12610
1643.22,1.316951,251804,12137
1646.16,1.323663,244348,11597
1649.1,1.313355,236703,11504
1652.04,1.307881,228171,11230
1655.95,1.321649,215408,10271
1658.88,1.306740,204937,10113
1661.8,1.326689,193395,9115
1664.72,1.322599,179728,8551
1667.63,1.326446,163642,7717
1670.54,1.337265,146312,6730
1673.44,1.309121,128451,6304
1677.31,1.301775,105080,5245
1680.21,1.248833,88906,5013
1683.1,1.299718,75033,3763
1685.99,1.261581,63520,3478
1688.87,1.347710,53714,2412
1691.75,1.247850,45653,2580
1694.62,1.294827,39137,1985
1697.49,1.298926,33776,1697
1701.31,1.216868,28175,1710