File: ML/samples/unknown/Column 1_078504_20241121_170555.csv
Method:,Column 1,,
Host Date-Time:,21/11/24 @ 17:5:55,,
Header Version:,1,,
System Temp (C):,34.41,,
Detector Temp (C):,33.87,,
Humidity (%):,1.86,,
Lamp PD:,3800,,
Shift Vector Coefficients:,-10.5391,0.0761263,-0.000134223,,
Pixel to Wavelength Coefficients:,1775.68,-0.916766,-0.000235065,,
Serial Number:,5510004,,
Scan Config Name:,Column 1,,
Scan Config Type:,Slew,,
Section 1,,
Start wavelength (nm):,900,,
End wavelength (nm):,1700,,
Pattern Pixel Width (nm):,   7.03,,,,
Exposure (ms):,  0.635,,,,
Digital Resolution:,228,,
Num Repeats:,6,,
PGA Gain:,64,,
Total Measurement Time in sec:,  2.733,,
Wavelength (nm),Absorbance (AU),Reference Signal (unitless),Sample Signal (unitless)
901.51,1.310112,108485,5312
905.376,1.305152,121306,6008
909.237,1.317432,131909,6351
913.095,1.339670,143299,6555
916.948,1.330213,156982,7339
922.079,1.332447,179937,8369
925.923,1.323897,200504,9511
929.762,1.327281,222660,10480
933.597,1.336378,244426,11266
937.427,1.314348,263972,12800
941.254,1.324041,281845,13365
945.076,1.320681,297271,14206
950.165,1.317558,315605,15191
953.978,1.320982,328029,15665
957.786,1.310639,340470,16651
961.59,1.318893,352317,16906
965.389,1.315647,363056,17552
969.185,1.308545,373162,18338
972.976,1.314274,382632,18557
976.763,1.308219,391202,19239
981.806,1.309036,400190,19644
985.583,1.312174,406088,19790
989.355,1.308831,410162,20143
993.124,1.298187,412868,20779
996.888,1.309780,414263,20300
1000.65,1.311756,415476,20267
1004.4,1.306266,415479,20525
1009.41,1.299835,414358,20775
1013.15,1.312543,412923,20106
1016.89,1.307694,411526,20263
1020.63,1.308792,409066,20091
1024.36,1.312998,406777,19786
1028.09,1.314983,404427,19582
1031.82,1.314831,401911,19467
1036.78,1.303687,398410,19799
1040.49,1.308397,396204,19477
1044.2,1.310920,394236,19268
1047.91,1.319799,392042,18773
1051.61,1.300922,389823,19496
1055.31,1.313506,388234,18862
1059,1.313902,387599,18814
1063.92,1.310646,386688,18911
1067.61,1.309444,386598,18959
1071.29,1.315573,387377,18731
1074.96,1.313038,388536,18897
1078.63,1.326983,389855,18362
1082.3,1.313433,391215,19010
1085.96,1.314211,393215,19073
1090.84,1.317299,396270,19085
1094.49,1.315672,398760,19277
1098.14,1.317731,400987,19293
1101.79,1.323582,403477,19153
1105.43,1.323521,406116,19281
1109.06,1.314137,407701,19779
1112.7,1.313738,409859,19902
1117.53,1.312481,412494,20088
1121.15,1.317858,414909,19957
1124.77,1.318603,416559,20002
1128.38,1.313058,418532,20355
1131.99,1.319123,419956,20141
1135.6,1.320529,421946,20171
1139.2,1.326801,423881,19973
1143.99,1.324128,426786,20234
1147.58,1.326009,428617,20233
1151.17,1.318446,431169,20711
1154.75,1.316175,433579,20936
1158.33,1.325840,436264,20602
1161.91,1.319549,439132,21040
1165.48,1.318486,442389,21248
1169.04,1.320341,446101,21335
1173.79,1.317731,451929,21744
1177.34,1.331631,456026,21250
1180.9,1.317226,461306,22221
1184.44,1.315857,467657,22598
1187.99,1.322719,473969,22544
1191.52,1.313178,479856,23331
1195.06,1.324380,487372,23093
1199.76,1.321856,497347,23703
1203.29,1.326870,504311,23759
1206.81,1.325539,511507,24172
1210.33,1.323011,519078,24673
1213.84,1.326287,527163,24869
1217.35,1.323424,534208,25368
1220.85,1.325586,540472,25538
1225.51,1.321972,549929,26202
1229.01,1.326970,556888,26230
1232.5,1.330250,562180,26280
1235.98,1.320128,567975,27177
1239.46,1.327168,574815,27062
1242.94,1.318007,582782,28022
1246.41,1.327206,591476,27844
1251.03,1.326432,604016,28485
1254.5,1.326299,612289,28884
1257.96,1.330010,619125,28958
1261.41,1.328641,624551,29304
1264.86,1.327042,629900,29664
1268.31,1.328240,634345,29791
1271.75,1.338759,638574,29272
1276.33,1.327305,642499,30239
1279.76,1.323540,645905,30664
1283.19,1.325506,648307,30639
1286.61,1.330909,650446,30360
1290.03,1.331119,652132,30424
1293.44,1.335955,653907,30169
1296.85,1.324888,655963,31045
1301.39,1.331068,657349,30671
1304.8,1.331787,657558,30630
1308.19,1.332135,658515,30650
1311.58,1.321716,658804,31408
1314.97,1.332547,659011,30644
1318.36,1.332145,658272,30638
1321.73,1.335038,658022,30423
1326.23,1.332987,657870,30560
1329.6,1.330438,656482,30675
1332.97,1.332035,654926,30490
1336.33,1.335476,653727,30194
1339.69,1.343360,652497,29595
1343.04,1.332834,649913,30201
1346.39,1.329711,647671,30314
1349.73,1.327428,645338,30364
1354.18,1.331901,641175,29859
1357.52,1.331312,638376,29769
1360.85,1.330684,635805,29692
1364.17,1.332911,633413,29429
1367.49,1.328242,631026,29635
1370.81,1.328570,628050,29473
1374.12,1.326347,625034,29482
1378.54,1.330229,620272,28997
1381.84,1.329492,616892,28888
1385.14,1.331969,613613,28571
1388.43,1.331921,611526,28477
1391.72,1.331521,610663,28463
1395.01,1.326328,610634,28804
1398.29,1.333786,611700,28363
1402.66,1.331990,614051,28590
1405.93,1.330634,616268,28783
1409.2,1.335406,617795,28539
1412.46,1.333371,618872,28723
1415.72,1.335669,619795,28614
1418.98,1.336889,620495,28566
1422.23,1.334892,621087,28725
1426.56,1.335532,621375,28696
1429.8,1.336549,621616,28640
1433.04,1.333900,622129,28839
1436.27,1.337488,621526,28574
1439.5,1.336061,621113,28649
1442.72,1.338878,620921,28455
1445.94,1.333550,620270,28776
1450.23,1.342716,618860,28111
1453.44,1.336724,617697,28448
1456.64,1.338287,616264,28280
1459.85,1.338627,614413,28173
1463.04,1.338464,612307,28087
1466.24,1.334273,610032,28254
1469.43,1.338985,607345,27826
1473.67,1.337106,603789,27783
1476.85,1.338485,601175,27575
1480.02,1.343285,597737,27116
1483.19,1.334409,594479,27525
1486.36,1.340861,591232,26971
1489.52,1.333838,587853,27254
1492.68,1.338169,583875,26801
1496.89,1.345001,578062,26120
1500.03,1.334608,574159,26572
1503.18,1.335905,570285,26314
1506.32,1.338252,565444,25950
1509.45,1.338748,560571,25697
1512.58,1.339999,555821,25406
1515.71,1.335442,550344,25421
1519.87,1.343698,543983,24654
1522.99,1.336282,538764,24838
1526.1,1.334594,533692,24700
1529.21,1.341348,527902,24055
1532.32,1.335793,521886,24087
1535.42,1.337990,515888,23690
1538.51,1.340725,509987,23272
1541.6,1.340195,503936,23024
1545.72,1.335603,494694,22842
1548.8,1.341797,488378,22231
1551.88,1.332318,481832,22417
1554.95,1.339204,474989,21751
1558.02,1.338953,467818,21435
1561.08,1.341641,460730,20980
1564.15,1.331990,454170,21146
1568.22,1.334875,444181,20544
1571.27,1.337903,436947,20069
1574.32,1.338265,429598,19715
1577.36,1.338313,422039,19366
1580.4,1.329234,414375,19416
1583.43,1.336460,406354,18726
1586.46,1.336434,398475,18364
1590.49,1.327835,388982,18285
1593.51,1.334783,380708,17612
1596.53,1.325558,372727,17613
1599.54,1.322965,365060,17354
1602.55,1.327193,357543,16832
1605.55,1.338453,349495,16032
1608.55,1.334074,341154,15808
1612.54,1.329643,330877,15489
1615.53,1.319695,322904,15466
1618.51,1.326656,315116,14853
1621.49,1.323628,307217,14582
1624.47,1.325889,299481,14141
1627.44,1.313200,292112,14202
1630.41,1.313342,284245,13815
1634.36,1.322365,274079,13047
1637.32,1.320048,266916,12774
1640.27,1.316443,259612,12528
1643.22,1.324677,251804,11923
1646.16,1.318785,244348,11728
1649.1,1.301770,236703,11815
1652.04,1.327094,228171,10744
1655.95,1.306239,215408,10642
1658.88,1.301151,204937,10244
1661.8,1.294157,193395,9824
1664.72,1.265656,179728,9749
1667.63,1.254138,163642,9115
1670.54,1.254602,146312,8141
1673.44,1.230331,128451,7558
1677.31,1.195445,105080,6700
1680.21,1.219604,88906,5362
1683.1,1.187100,75033,4877
1685.99,1.193957,63520,4064
1688.87,1.221289,53714,3227
1691.75,1.176596,45653,3040
1694.62,1.175282,39137,2614
1697.49,1.135560,33776,2472
1701.31,1.198469,28175,1784