File: ML/samples/unknown/Column 1_078618_20241121_171134.csv
Method:,Column 1,,
Host Date-Time:,21/11/24 @ 17:11:34,,
Header Version:,1,,
System Temp (C):,36.49,,
Detector Temp (C):,35.15,,
Humidity (%):,0.58,,
Lamp PD:,3798,,
Shift Vector Coefficients:,-10.5391,0.0761263,-0.000134223,,
Pixel to Wavelength Coefficients:,1775.68,-0.916766,-0.000235065,,
Serial Number:,5510004,,
Scan Config Name:,Column 1,,
Scan Config Type:,Slew,,
Section 1,,
Start wavelength (nm):,900,,
End wavelength (nm):,1700,,
Pattern Pixel Width (nm):,   7.03,,,,
Exposure (ms):,  0.635,,,,
Digital Resolution:,228,,
Num Repeats:,6,,
PGA Gain:,64,,
Total Measurement Time in sec:,  2.727,,
Wavelength (nm),Absorbance (AU),Reference Signal (unitless),Sample Signal (unitless)
901.51,1.318365,108485,5212
905.376,1.324063,121306,5752
909.237,1.303702,131909,6555
913.095,1.339803,143299,6553
916.948,1.312416,156982,7646
922.079,1.327647,179937,8462
925.923,1.321483,200504,9564
929.762,1.341048,222660,10153
933.597,1.324064,244426,11590
937.427,1.327017,263972,12432
941.254,1.317079,281845,13581
945.076,1.321293,297271,14186
950.165,1.324561,315605,14948
953.978,1.309518,328029,16084
957.786,1.315728,340470,16457
961.59,1.305462,352317,17437
965.389,1.313204,363056,17651
969.185,1.307883,373162,18366
972.976,1.312662,382632,18626
976.763,1.310800,391202,19125
981.806,1.304506,400190,19850
985.583,1.305943,406088,20076
989.355,1.305780,410162,20285
993.124,1.314000,412868,20036
996.888,1.304781,414263,20535
1000.65,1.312786,415476,20219
1004.4,1.294452,415479,21091
1009.41,1.307341,414358,20419
1013.15,1.301791,412923,20610
1016.89,1.303704,411526,20450
1020.63,1.311502,409066,19966
1024.36,1.307914,406777,20019
1028.09,1.307507,404427,19922
1031.82,1.306588,401911,19840
1036.78,1.311567,398410,19443
1040.49,1.307172,396204,19532
1044.2,1.304210,394236,19568
1047.91,1.304592,392042,19442
1051.61,1.305513,389823,19291
1055.31,1.312058,388234,18925
1059,1.314017,387599,18809
1063.92,1.307397,386688,19053
1067.61,1.314281,386598,18749
1071.29,1.307601,387377,19078
1074.96,1.321743,388536,18522
1078.63,1.307014,389855,19226
1082.3,1.300581,391215,19581
1085.96,1.315785,393215,19004
1090.84,1.312997,396270,19275
1094.49,1.306025,398760,19710
1098.14,1.307717,400987,19743
1101.79,1.314317,403477,19566
1105.43,1.315929,406116,19621
1109.06,1.314753,407701,19751
1112.7,1.313912,409859,19894
1117.53,1.318204,412494,19825
1121.15,1.314692,414909,20103
1124.77,1.318212,416559,20020
1128.38,1.318079,418532,20121
1131.99,1.312044,419956,20472
1135.6,1.301716,421946,21064
1139.2,1.317742,423881,20394
1143.99,1.316364,426786,20599
1147.58,1.313756,428617,20812
1151.17,1.318677,431169,20700
1154.75,1.321455,433579,20683
1158.33,1.315529,436264,21097
1161.91,1.307438,439132,21635
1165.48,1.314580,442389,21440
1169.04,1.308018,446101,21949
1173.79,1.309187,451929,22176
1177.34,1.308683,456026,22403
1180.9,1.315373,461306,22316
1184.44,1.316974,467657,22540
1187.99,1.313041,473969,23052
1191.52,1.317706,479856,23089
1195.06,1.320542,487372,23298
1199.76,1.311858,497347,24255
1203.29,1.324210,504311,23905
1206.81,1.319172,511507,24529
1210.33,1.323962,519078,24619
1213.84,1.321528,527163,25143
1217.35,1.317963,534208,25689
1220.85,1.321053,540472,25806
1225.51,1.320830,549929,26271
1229.01,1.320658,556888,26614
1232.5,1.323364,562180,26700
1235.98,1.322098,567975,27054
1239.46,1.319470,574815,27546
1242.94,1.319653,582782,27916
1246.41,1.321919,591476,28185
1251.03,1.322516,604016,28743
1254.5,1.320578,612289,29267
1257.96,1.325178,619125,29282
1261.41,1.326645,624551,29439
1264.86,1.327247,629900,29650
1268.31,1.328342,634345,29784
1271.75,1.322381,638574,30397
1276.33,1.321896,642499,30618
1279.76,1.325328,645905,30538
1283.19,1.322385,648307,30860
1286.61,1.320646,650446,31086
1290.03,1.328572,652132,30603
1293.44,1.324098,653907,31004
1296.85,1.329246,655963,30735
1301.39,1.330842,657349,30687
1304.8,1.332085,657558,30609
1308.19,1.329015,658515,30871
1311.58,1.325954,658804,31103
1314.97,1.333143,659011,30602
1318.36,1.331706,658272,30669
1321.73,1.327229,658022,30975
1326.23,1.328407,657870,30884
1329.6,1.330268,656482,30687
1332.97,1.332719,654926,30442
1336.33,1.330428,653727,30547
1339.69,1.337081,652497,30026
1343.04,1.335011,649913,30050
1346.39,1.331808,647671,30168
1349.73,1.325587,645338,30493
1354.18,1.325419,641175,30308
1357.52,1.325573,638376,30165
1360.85,1.323777,635805,30168
1364.17,1.327179,633413,29820
1367.49,1.325394,631026,29830
1370.81,1.325955,628050,29651
1374.12,1.331146,625034,29158
1378.54,1.323011,620272,29483
1381.84,1.325437,616892,29159
1385.14,1.319488,613613,29404
1388.43,1.316578,611526,29501
1391.72,1.320969,610663,29163
1395.01,1.322336,610634,29070
1398.29,1.327553,611700,28773
1402.66,1.324461,614051,29090
1405.93,1.323926,616268,29231
1409.2,1.329646,617795,28920
1412.46,1.323593,618872,29377
1415.72,1.328908,619795,29063
1418.98,1.333090,620495,28817
1422.23,1.330126,621087,29042
1426.56,1.337337,621375,28577
1429.8,1.331979,621616,28943
1433.04,1.327933,622129,29238
1436.27,1.331211,621526,28990
1439.5,1.332950,621113,28855
1442.72,1.332469,620921,28878
1445.94,1.331127,620270,28937
1450.23,1.327416,618860,29119
1453.44,1.332047,617697,28756
1456.64,1.332248,616264,28676
1459.85,1.328119,614413,28863
1463.04,1.329769,612307,28655
1466.24,1.333720,610032,28290
1469.43,1.336355,607345,27995
1473.67,1.334332,603789,27961
1476.85,1.331331,601175,28033
1480.02,1.337241,597737,27496
1483.19,1.336180,594479,27413
1486.36,1.339334,591232,27066
1489.52,1.335403,587853,27156
1492.68,1.338023,583875,26810
1496.89,1.327997,578062,27163
1500.03,1.332179,574159,26721
1503.18,1.335245,570285,26354
1506.32,1.334238,565444,26191
1509.45,1.332656,560571,26060
1512.58,1.336525,555821,25610
1515.71,1.329857,550344,25750
1519.87,1.337802,543983,24991
1522.99,1.327164,538764,25365
1526.1,1.330830,533692,24915
1529.21,1.334950,527902,24412
1532.32,1.333689,521886,24204
1535.42,1.330178,515888,24120
1538.51,1.335181,509987,23571
1541.6,1.330053,503936,23568
1545.72,1.334236,494694,22914
1548.8,1.335071,488378,22578
1551.88,1.327502,481832,22667
1554.95,1.340424,474989,21690
1558.02,1.333157,467818,21723
1561.08,1.332526,460730,21425
1564.15,1.329676,454170,21259
1568.22,1.329267,444181,20811
1571.27,1.327406,436947,20560
1574.32,1.326530,429598,20255
1577.36,1.333873,422039,19565
1580.4,1.330466,414375,19361
1583.43,1.326963,406354,19140
1586.46,1.330375,398475,18622
1590.49,1.330527,388982,18172
1593.51,1.323346,380708,18082
1596.53,1.322315,372727,17745
1599.54,1.326735,365060,17204
1602.55,1.327451,357543,16822
1605.55,1.315863,349495,16888
1608.55,1.321216,341154,16283
1612.54,1.332993,330877,15370
1615.53,1.322004,322904,15384
1618.51,1.319120,315116,15113
1621.49,1.322795,307217,14610
1624.47,1.318188,299481,14394
1627.44,1.322785,292112,13892
1630.41,1.310428,284245,13908
1634.36,1.320306,274079,13109
1637.32,1.317336,266916,12854
1640.27,1.310829,259612,12691
1643.22,1.309783,251804,12339
1646.16,1.312462,244348,11900
1649.1,1.300009,236703,11863
1652.04,1.311492,228171,11137
1655.95,1.299115,215408,10818
1658.88,1.303233,204937,10195
1661.8,1.291029,193395,9895
1664.72,1.288568,179728,9248
1667.63,1.257534,163642,9044
1670.54,1.231641,146312,8583
1673.44,1.204455,128451,8022
1677.31,1.184121,105080,6877
1680.21,1.168038,88906,6038
1683.1,1.177500,75033,4986
1685.99,1.155528,63520,4440
1688.87,1.157100,53714,3741
1691.75,1.159370,45653,3163
1694.62,1.073547,39137,3304
1697.49,1.209919,33776,2083
1701.31,1.223522,28175,1684