File: ML/samples/unknown/Column 1_078917_20241121_172825.csv
Method:,Column 1,,
Host Date-Time:,21/11/24 @ 17:28:25,,
Header Version:,1,,
System Temp (C):,36.96,,
Detector Temp (C):,36.36,,
Humidity (%):,0.24,,
Lamp PD:,3796,,
Shift Vector Coefficients:,-10.5391,0.0761263,-0.000134223,,
Pixel to Wavelength Coefficients:,1775.68,-0.916766,-0.000235065,,
Serial Number:,5510004,,
Scan Config Name:,Column 1,,
Scan Config Type:,Slew,,
Section 1,,
Start wavelength (nm):,900,,
End wavelength (nm):,1700,,
Pattern Pixel Width (nm):,   7.03,,,,
Exposure (ms):,  0.635,,,,
Digital Resolution:,228,,
Num Repeats:,6,,
PGA Gain:,64,,
Total Measurement Time in sec:,  2.724,,
Wavelength (nm),Absorbance (AU),Reference Signal (unitless),Sample Signal (unitless)
901.51,1.295718,108485,5491
905.376,1.304574,121306,6016
909.237,1.295693,131909,6677
913.095,1.334010,143299,6641
916.948,1.295592,156982,7948
922.079,1.296891,179937,9083
925.923,1.318271,200504,9635
929.762,1.324925,222660,10537
933.597,1.306368,244426,12072
937.427,1.319948,263972,12636
941.254,1.308874,281845,13840
945.076,1.304861,297271,14733
950.165,1.322937,315605,15004
953.978,1.302262,328029,16355
957.786,1.308038,340470,16751
961.59,1.305213,352317,17447
965.389,1.298949,363056,18240
969.185,1.306985,373162,18404
972.976,1.301930,382632,19092
976.763,1.296109,391202,19783
981.806,1.289856,400190,20531
985.583,1.305057,406088,20117
989.355,1.298856,410162,20611
993.124,1.307012,412868,20361
996.888,1.302398,414263,20648
1000.65,1.314314,415476,20148
1004.4,1.302495,415479,20704
1009.41,1.299814,414358,20776
1013.15,1.302952,412923,20555
1016.89,1.299414,411526,20653
1020.63,1.316886,409066,19720
1024.36,1.300941,406777,20343
1028.09,1.305550,404427,20012
1031.82,1.299920,401911,20147
1036.78,1.314391,398410,19317
1040.49,1.297302,396204,19981
1044.2,1.312410,394236,19202
1047.91,1.298294,392042,19726
1051.61,1.302171,389823,19440
1055.31,1.311003,388234,18971
1059,1.300424,387599,19407
1063.92,1.308561,386688,19002
1067.61,1.305499,386598,19132
1071.29,1.311442,387377,18910
1074.96,1.310381,388536,19013
1078.63,1.308712,389855,19151
1082.3,1.311974,391215,19074
1085.96,1.309208,393215,19294
1090.84,1.305491,396270,19611
1094.49,1.304771,398760,19767
1098.14,1.303863,400987,19919
1101.79,1.303813,403477,20045
1105.43,1.308729,406116,19949
1109.06,1.311991,407701,19877
1112.7,1.308748,409859,20132
1117.53,1.302669,412494,20547
1121.15,1.314217,414909,20125
1124.77,1.314949,416559,20171
1128.38,1.317087,418532,20167
1131.99,1.313637,419956,20397
1135.6,1.319390,421946,20224
1139.2,1.310393,423881,20742
1143.99,1.315879,426786,20622
1147.58,1.305631,428617,21205
1151.17,1.327730,431169,20273
1154.75,1.309934,433579,21239
1158.33,1.309092,436264,21412
1161.91,1.314766,439132,21273
1165.48,1.313770,442389,21480
1169.04,1.309723,446101,21863
1173.79,1.310481,451929,22110
1177.34,1.314263,456026,22117
1180.9,1.313431,461306,22416
1184.44,1.316454,467657,22567
1187.99,1.313871,473969,23008
1191.52,1.311858,479856,23402
1195.06,1.319202,487372,23370
1199.76,1.316430,497347,24001
1203.29,1.312806,504311,24541
1206.81,1.321195,511507,24415
1210.33,1.320658,519078,24807
1213.84,1.318481,527163,25320
1217.35,1.320201,534208,25557
1220.85,1.321676,540472,25769
1225.51,1.318522,549929,26411
1229.01,1.319305,556888,26697
1232.5,1.316330,562180,27136
1235.98,1.322708,567975,27016
1239.46,1.315077,574815,27826
1242.94,1.321493,582782,27798
1246.41,1.320965,591476,28247
1251.03,1.319025,604016,28975
1254.5,1.321276,612289,29220
1257.96,1.316427,619125,29878
1261.41,1.315029,624551,30237
1264.86,1.324764,629900,29820
1268.31,1.322089,634345,30216
1271.75,1.317521,638574,30739
1276.33,1.321045,642499,30678
1279.76,1.325855,645905,30501
1283.19,1.325747,648307,30622
1286.61,1.320269,650446,31113
1290.03,1.328231,652132,30627
1293.44,1.328194,653907,30713
1296.85,1.326542,655963,30927
1301.39,1.324994,657349,31103
1304.8,1.328975,657558,30829
1308.19,1.322217,658515,31358
1311.58,1.323753,658804,31261
1314.97,1.324808,659011,31195
1318.36,1.325729,658272,31094
1321.73,1.325522,658022,31097
1326.23,1.324891,657870,31135
1329.6,1.332283,656482,30545
1332.97,1.330244,654926,30616
1336.33,1.326606,653727,30817
1339.69,1.325492,652497,30838
1343.04,1.322279,649913,30944
1346.39,1.327040,647671,30501
1349.73,1.328732,645338,30273
1354.18,1.326438,641175,30237
1357.52,1.318972,638376,30627
1360.85,1.328132,635805,29867
1364.17,1.326365,633413,29876
1367.49,1.325379,631026,29831
1370.81,1.325970,628050,29650
1374.12,1.321454,625034,29816
1378.54,1.316330,620272,29940
1381.84,1.320917,616892,29464
1385.14,1.322185,613613,29222
1388.43,1.326510,611526,28834
1391.72,1.326454,610663,28797
1395.01,1.317921,610634,29367
1398.29,1.325325,611700,28921
1402.66,1.326556,614051,28950
1405.93,1.325519,616268,29124
1409.2,1.326564,617795,29126
1412.46,1.327947,618872,29084
1415.72,1.329925,619795,28995
1418.98,1.327460,620495,29193
1422.23,1.334590,621087,28745
1426.56,1.330701,621375,29017
1429.8,1.328258,621616,29192
1433.04,1.331123,622129,29024
1436.27,1.326888,621526,29280
1439.5,1.324203,621113,29442
1442.72,1.332499,620921,28876
1445.94,1.330048,620270,29009
1450.23,1.330229,618860,28931
1453.44,1.329818,617697,28904
1456.64,1.330736,616264,28776
1459.85,1.328104,614413,28864
1463.04,1.330011,612307,28639
1466.24,1.335566,610032,28170
1469.43,1.333017,607345,28211
1473.67,1.331283,603789,28158
1476.85,1.330789,601175,28068
1480.02,1.333983,597737,27703
1483.19,1.331923,594479,27683
1486.36,1.331699,591232,27546
1489.52,1.330157,587853,27486
1492.68,1.333848,583875,27069
1496.89,1.332335,578062,26893
1500.03,1.330136,574159,26847
1503.18,1.328931,570285,26740
1506.32,1.324141,565444,26807
1509.45,1.331308,560571,26141
1512.58,1.335323,555821,25681
1515.71,1.338270,550344,25256
1519.87,1.334012,543983,25210
1522.99,1.335025,538764,24910
1526.1,1.330307,533692,24945
1529.21,1.333352,527902,24502
1532.32,1.324984,521886,24694
1535.42,1.331928,515888,24023
1538.51,1.333893,509987,23641
1541.6,1.337337,503936,23176
1545.72,1.325994,494694,23353
1548.8,1.330459,488378,22819
1551.88,1.329095,481832,22584
1554.95,1.329041,474989,22266
1558.02,1.333057,467818,21728
1561.08,1.327307,460730,21684
1564.15,1.331970,454170,21147
1568.22,1.335615,444181,20509
1571.27,1.326372,436947,20609
1574.32,1.330407,429598,20075
1577.36,1.328271,422039,19819
1580.4,1.320290,414375,19820
1583.43,1.325581,406354,19201
1586.46,1.322815,398475,18949
1590.49,1.328500,388982,18257
1593.51,1.324500,380708,18034
1596.53,1.324326,372727,17663
1599.54,1.312310,365060,17785
1602.55,1.318406,357543,17176
1605.55,1.328121,349495,16418
1608.55,1.324428,341154,16163
1612.54,1.319199,330877,15866
1615.53,1.322456,322904,15368
1618.51,1.320559,315116,15063
1621.49,1.326317,307217,14492
1624.47,1.324356,299481,14191
1627.44,1.314394,292112,14163
1630.41,1.323520,284245,13495
1634.36,1.319280,274079,13140
1637.32,1.305735,266916,13202
1640.27,1.319260,259612,12447
1643.22,1.315594,251804,12175
1646.16,1.300795,244348,12224
1649.1,1.303427,236703,11770
1652.04,1.299303,228171,11454
1655.95,1.289703,215408,11055
1658.88,1.293253,204937,10432
1661.8,1.280364,193395,10141
1664.72,1.255790,179728,9973
1667.63,1.247471,163642,9256
1670.54,1.230529,146312,8605
1673.44,1.213536,128451,7856
1677.31,1.165577,105080,7177
1680.21,1.127025,88906,6636
1683.1,1.134969,75033,5499
1685.99,1.108393,63520,4949
1688.87,1.087821,53714,4388
1691.75,1.099084,45653,3634
1694.62,1.151364,39137,2762
1697.49,1.073002,33776,2855
1701.31,1.102534,28175,2225