File: ML/samples/unknown/Column 1_078177_20241121_164915.csv
Method:,Column 1,,
Host Date-Time:,21/11/24 @ 16:49:15,,
Header Version:,1,,
System Temp (C):,33.62,,
Detector Temp (C):,30,,
Humidity (%):,3.33,,
Lamp PD:,3804,,
Shift Vector Coefficients:,-10.5391,0.0761263,-0.000134223,,
Pixel to Wavelength Coefficients:,1775.68,-0.916766,-0.000235065,,
Serial Number:,5510004,,
Scan Config Name:,Column 1,,
Scan Config Type:,Slew,,
Section 1,,
Start wavelength (nm):,900,,
End wavelength (nm):,1700,,
Pattern Pixel Width (nm):,   7.03,,,,
Exposure (ms):,  0.635,,,,
Digital Resolution:,228,,
Num Repeats:,6,,
PGA Gain:,64,,
Total Measurement Time in sec:,  2.719,,
Wavelength (nm),Absorbance (AU),Reference Signal (unitless),Sample Signal (unitless)
901.51,1.314714,108485,5256
905.376,1.321654,121306,5784
909.237,1.306427,131909,6514
913.095,1.322522,143299,6819
916.948,1.327088,156982,7392
922.079,1.307932,179937,8855
925.923,1.319174,200504,9615
929.762,1.304398,222660,11047
933.597,1.308098,244426,12024
937.427,1.308283,263972,12980
941.254,1.315323,281845,13636
945.076,1.312804,297271,14466
950.165,1.330912,315605,14731
953.978,1.311358,328029,16016
957.786,1.310195,340470,16668
961.59,1.309817,352317,17263
965.389,1.309529,363056,17801
969.185,1.310088,373162,18273
972.976,1.314180,382632,18561
976.763,1.310913,391202,19120
981.806,1.301888,400190,19970
985.583,1.306224,406088,20063
989.355,1.308228,410162,20171
993.124,1.312788,412868,20092
996.888,1.307433,414263,20410
1000.65,1.307386,415476,20472
1004.4,1.310198,415479,20340
1009.41,1.313295,414358,20141
1013.15,1.315665,412923,19962
1016.89,1.311266,411526,20097
1020.63,1.311133,409066,19983
1024.36,1.306225,406777,20097
1028.09,1.318591,404427,19420
1031.82,1.308057,401911,19773
1036.78,1.319297,398410,19100
1040.49,1.317636,396204,19067
1044.2,1.315292,394236,19075
1047.91,1.312777,392042,19079
1051.61,1.311383,389823,19032
1055.31,1.307379,388234,19130
1059,1.309972,387599,18985
1063.92,1.314359,386688,18750
1067.61,1.317233,386598,18622
1071.29,1.320986,387377,18499
1074.96,1.309286,388536,19061
1078.63,1.307082,389855,19223
1082.3,1.314531,391215,18962
1085.96,1.316929,393215,18954
1090.84,1.309161,396270,19446
1094.49,1.315222,398760,19297
1098.14,1.311251,400987,19583
1101.79,1.312722,403477,19638
1105.43,1.321162,406116,19386
1109.06,1.311598,407701,19895
1112.7,1.317750,409859,19719
1117.53,1.323516,412494,19584
1121.15,1.314044,414909,20133
1124.77,1.316675,416559,20091
1128.38,1.310102,418532,20494
1131.99,1.316286,419956,20273
1135.6,1.315116,421946,20424
1139.2,1.318125,423881,20376
1143.99,1.319007,426786,20474
1147.58,1.324659,428617,20296
1151.17,1.313526,431169,20947
1154.75,1.316777,433579,20907
1158.33,1.324619,436264,20660
1161.91,1.324135,439132,20819
1165.48,1.310969,442389,21619
1169.04,1.323097,446101,21200
1173.79,1.311110,451929,22078
1177.34,1.316685,456026,21994
1180.9,1.314401,461306,22366
1184.44,1.323555,467657,22201
1187.99,1.323297,473969,22514
1191.52,1.320196,479856,22957
1195.06,1.317921,487372,23439
1199.76,1.319098,497347,23854
1203.29,1.327382,504311,23731
1206.81,1.317493,511507,24624
1210.33,1.325960,519078,24506
1213.84,1.329969,527163,24659
1217.35,1.323664,534208,25354
1220.85,1.318502,540472,25958
1225.51,1.322403,549929,26176
1229.01,1.315983,556888,26902
1232.5,1.319123,562180,26962
1235.98,1.319824,567975,27196
1239.46,1.328728,574815,26965
1242.94,1.323418,582782,27675
1246.41,1.325415,591476,27959
1251.03,1.326585,604016,28475
1254.5,1.328319,612289,28750
1257.96,1.333518,619125,28725
1261.41,1.328137,624551,29338
1264.86,1.329656,629900,29486
1268.31,1.326756,634345,29893
1271.75,1.328858,638574,29947
1276.33,1.326731,642499,30279
1279.76,1.330694,645905,30163
1283.19,1.326883,648307,30542
1286.61,1.328228,650446,30548
1290.03,1.328061,652132,30639
1293.44,1.329979,653907,30587
1296.85,1.331968,655963,30543
1301.39,1.326630,657349,30986
1304.8,1.336879,657558,30273
1308.19,1.335135,658515,30439
1311.58,1.329023,658804,30884
1314.97,1.335177,659011,30459
1318.36,1.331366,658272,30693
1321.73,1.331413,658022,30678
1326.23,1.331540,657870,30662
1329.6,1.327363,656482,30893
1332.97,1.332363,654926,30467
1336.33,1.332809,653727,30380
1339.69,1.332692,652497,30331
1343.04,1.331714,649913,30279
1346.39,1.324669,647671,30668
1349.73,1.334668,645338,29862
1354.18,1.329233,641175,30043
1357.52,1.331371,638376,29765
1360.85,1.324109,635805,30145
1364.17,1.327879,633413,29772
1367.49,1.330608,631026,29474
1370.81,1.325428,628050,29687
1374.12,1.320276,625034,29897
1378.54,1.325996,620272,29281
1381.84,1.330380,616892,28829
1385.14,1.329529,613613,28732
1388.43,1.326796,611526,28815
1391.72,1.325535,610663,28858
1395.01,1.321008,610634,29159
1398.29,1.318280,611700,29394
1402.66,1.329551,614051,28751
1405.93,1.326101,616268,29085
1409.2,1.325105,617795,29224
1412.46,1.335736,618872,28567
1415.72,1.334714,619795,28677
1418.98,1.333693,620495,28777
1422.23,1.335513,621087,28684
1426.56,1.334384,621375,28772
1429.8,1.332790,621616,28889
1433.04,1.331363,622129,29008
1436.27,1.336441,621526,28643
1439.5,1.334336,621113,28763
1442.72,1.335609,620921,28670
1445.94,1.337294,620270,28529
1450.23,1.338320,618860,28397
1453.44,1.331821,617697,28771
1456.64,1.333948,616264,28564
1459.85,1.336275,614413,28326
1463.04,1.337630,612307,28141
1466.24,1.334257,610032,28255
1469.43,1.329980,607345,28409
1473.67,1.335733,603789,27871
1476.85,1.338895,601175,27549
1480.02,1.337351,597737,27489
1483.19,1.336560,594479,27389
1486.36,1.338228,591232,27135
1489.52,1.339953,587853,26873
1492.68,1.336745,583875,26889
1496.89,1.339664,578062,26443
1500.03,1.343224,574159,26050
1503.18,1.334570,570285,26395
1506.32,1.332880,565444,26273
1509.45,1.338833,560571,25692
1512.58,1.337442,555821,25556
1515.71,1.343268,550344,24967
1519.87,1.336050,543983,25092
1522.99,1.344686,538764,24362
1526.1,1.336426,533692,24596
1529.21,1.330507,527902,24663
1532.32,1.343432,521886,23667
1535.42,1.334594,515888,23876
1538.51,1.334518,509987,23607
1541.6,1.342256,503936,22915
1545.72,1.346616,494694,22270
1548.8,1.341114,488378,22266
1551.88,1.338700,481832,22090
1554.95,1.339384,474989,21742
1558.02,1.332897,467818,21736
1561.08,1.335271,460730,21290
1564.15,1.335392,454170,20981
1568.22,1.339572,444181,20323
1571.27,1.325551,436947,20648
1574.32,1.335827,429598,19826
1577.36,1.335964,422039,19471
1580.4,1.333030,414375,19247
1583.43,1.323933,406354,19274
1586.46,1.328745,398475,18692
1590.49,1.344639,388982,17591
1593.51,1.329441,380708,17830
1596.53,1.322535,372727,17736
1599.54,1.322489,365060,17373
1602.55,1.322063,357543,17032
1605.55,1.330428,349495,16331
1608.55,1.331717,341154,15894
1612.54,1.329167,330877,15506
1615.53,1.334055,322904,14963
1618.51,1.325868,315116,14880
1621.49,1.329626,307217,14382
1624.47,1.315481,299481,14484
1627.44,1.330576,292112,13645
1630.41,1.321305,284245,13564
1634.36,1.314776,274079,13277
1637.32,1.312632,266916,12994
1640.27,1.321253,259612,12390
1643.22,1.316665,251804,12145
1646.16,1.313485,244348,11872
1649.1,1.322203,236703,11272
1652.04,1.321512,228171,10883
1655.95,1.315561,215408,10416
1658.88,1.304598,204937,10163
1661.8,1.306078,193395,9558
1664.72,1.299313,179728,9022
1667.63,1.283761,163642,8514
1670.54,1.249195,146312,8243
1673.44,1.258827,128451,7078
1677.31,1.243224,105080,6002
1680.21,1.251963,88906,4977
1683.1,1.273627,75033,3996
1685.99,1.215424,63520,3868
1688.87,1.256017,53714,2979
1691.75,1.238524,45653,2636
1694.62,1.309513,39137,1919
1697.49,1.183627,33776,2213
1701.31,1.140447,28175,2039