File: ML/samples/unknown/Column 1_078629_20241121_171206.csv
Method:,Column 1,,
Host Date-Time:,21/11/24 @ 17:12:6,,
Header Version:,1,,
System Temp (C):,36.84,,
Detector Temp (C):,35.16,,
Humidity (%):,0.88,,
Lamp PD:,3797,,
Shift Vector Coefficients:,-10.5391,0.0761263,-0.000134223,,
Pixel to Wavelength Coefficients:,1775.68,-0.916766,-0.000235065,,
Serial Number:,5510004,,
Scan Config Name:,Column 1,,
Scan Config Type:,Slew,,
Section 1,,
Start wavelength (nm):,900,,
End wavelength (nm):,1700,,
Pattern Pixel Width (nm):,   7.03,,,,
Exposure (ms):,  0.635,,,,
Digital Resolution:,228,,
Num Repeats:,6,,
PGA Gain:,64,,
Total Measurement Time in sec:,  2.730,,
Wavelength (nm),Absorbance (AU),Reference Signal (unitless),Sample Signal (unitless)
901.51,1.297224,108485,5472
905.376,1.347008,121306,5456
909.237,1.309437,131909,6469
913.095,1.328874,143299,6720
916.948,1.316467,156982,7575
922.079,1.317051,179937,8671
925.923,1.305743,200504,9917
929.762,1.313616,222660,10815
933.597,1.311908,244426,11919
937.427,1.312689,263972,12849
941.254,1.305997,281845,13932
945.076,1.312084,297271,14490
950.165,1.301367,315605,15768
953.978,1.304498,328029,16271
957.786,1.295920,340470,17225
961.59,1.298200,352317,17731
965.389,1.313426,363056,17642
969.185,1.305336,373162,18474
972.976,1.307746,382632,18838
976.763,1.301365,391202,19545
981.806,1.302258,400190,19953
985.583,1.297142,406088,20487
989.355,1.305395,410162,20303
993.124,1.296997,412868,20836
996.888,1.307965,414263,20385
1000.65,1.306157,415476,20530
1004.4,1.297344,415479,20951
1009.41,1.302645,414358,20641
1013.15,1.311077,412923,20174
1016.89,1.304874,411526,20395
1020.63,1.297463,409066,20622
1024.36,1.305340,406777,20138
1028.09,1.303320,404427,20115
1031.82,1.297041,401911,20281
1036.78,1.303468,398410,19809
1040.49,1.297628,396204,19966
1044.2,1.304365,394236,19561
1047.91,1.309534,392042,19222
1051.61,1.305648,389823,19285
1055.31,1.309495,388234,19037
1059,1.307531,387599,19092
1063.92,1.309522,386688,18960
1067.61,1.307570,386598,19041
1071.29,1.306464,387377,19128
1074.96,1.305678,388536,19220
1078.63,1.306811,389855,19235
1082.3,1.313068,391215,19026
1085.96,1.300826,393215,19670
1090.84,1.308938,396270,19456
1094.49,1.308832,398760,19583
1098.14,1.302578,400987,19978
1101.79,1.313873,403477,19586
1105.43,1.312687,406116,19768
1109.06,1.316228,407701,19684
1112.7,1.310542,409859,20049
1117.53,1.312957,412494,20066
1121.15,1.310008,414909,20321
1124.77,1.304000,416559,20686
1128.38,1.305674,418532,20704
1131.99,1.312489,419956,20451
1135.6,1.310547,421946,20640
1139.2,1.310666,423881,20729
1143.99,1.315879,426786,20622
1147.58,1.310989,428617,20945
1151.17,1.312221,431169,21010
1154.75,1.317941,433579,20851
1158.33,1.311921,436264,21273
1161.91,1.316054,439132,21210
1165.48,1.316244,442389,21358
1169.04,1.317116,446101,21494
1173.79,1.313438,451929,21960
1177.34,1.315719,456026,22043
1180.9,1.318204,461306,22171
1184.44,1.313997,467657,22695
1187.99,1.314135,473969,22994
1191.52,1.313345,479856,23322
1195.06,1.310536,487372,23841
1199.76,1.314138,497347,24128
1203.29,1.319116,504311,24187
1206.81,1.324624,511507,24223
1210.33,1.320658,519078,24807
1213.84,1.320407,527163,25208
1217.35,1.316478,534208,25777
1220.85,1.332546,540472,25132
1225.51,1.315033,549929,26624
1229.01,1.320429,556888,26628
1232.5,1.317917,562180,27037
1235.98,1.325450,567975,26846
1239.46,1.316657,574815,27725
1242.94,1.320931,582782,27834
1246.41,1.323617,591476,28075
1251.03,1.320030,604016,28908
1254.5,1.317915,612289,29447
1257.96,1.316456,619125,29876
1261.41,1.323660,624551,29642
1264.86,1.321543,629900,30042
1268.31,1.324626,634345,30040
1271.75,1.321595,638574,30452
1276.33,1.320861,642499,30691
1279.76,1.319045,645905,30983
1283.19,1.324317,648307,30723
1286.61,1.322930,650446,30923
1290.03,1.324012,652132,30926
1293.44,1.325024,653907,30938
1296.85,1.331243,655963,30594
1301.39,1.321171,657349,31378
1304.8,1.324490,657558,31149
1308.19,1.325428,658515,31127
1311.58,1.327899,658804,30964
1314.97,1.327937,659011,30971
1318.36,1.328798,658272,30875
1321.73,1.323529,658022,31240
1326.23,1.332802,657870,30573
1329.6,1.328545,656482,30809
1332.97,1.325644,654926,30942
1336.33,1.330940,653727,30511
1339.69,1.324339,652497,30920
1343.04,1.327688,649913,30561
1346.39,1.327112,647671,30496
1349.73,1.328273,645338,30305
1354.18,1.324889,641175,30345
1357.52,1.323061,638376,30340
1360.85,1.323878,635805,30161
1364.17,1.324971,633413,29972
1367.49,1.329651,631026,29539
1370.81,1.324463,628050,29753
1374.12,1.325831,625034,29517
1378.54,1.322128,620272,29543
1381.84,1.321906,616892,29397
1385.14,1.324166,613613,29089
1388.43,1.322850,611526,29078
1391.72,1.324513,610663,28926
1395.01,1.320770,610634,29175
1398.29,1.321572,611700,29172
1402.66,1.318029,614051,29524
1405.93,1.319550,616268,29527
1409.2,1.322970,617795,29368
1412.46,1.325846,618872,29225
1415.72,1.332449,619795,28827
1418.98,1.328860,620495,29099
1422.23,1.329663,621087,29073
1426.56,1.330686,621375,29018
1429.8,1.329256,621616,29125
1433.04,1.328795,622129,29180
1436.27,1.324477,621526,29443
1439.5,1.329755,621113,29068
1442.72,1.327193,620921,29231
1445.94,1.326336,620270,29258
1450.23,1.326448,618860,29184
1453.44,1.331715,617697,28778
1456.64,1.331507,616264,28725
1459.85,1.331836,614413,28617
1463.04,1.328513,612307,28738
1466.24,1.325342,610032,28841
1469.43,1.332094,607345,28271
1473.67,1.328746,603789,28323
1476.85,1.333677,601175,27882
1480.02,1.324800,597737,28295
1483.19,1.330123,594479,27798
1486.36,1.331983,591232,27528
1489.52,1.326256,587853,27734
1492.68,1.341308,583875,26608
1496.89,1.328317,578062,27143
1500.03,1.331497,574159,26763
1503.18,1.333896,570285,26436
1506.32,1.332715,565444,26283
1509.45,1.331674,560571,26119
1512.58,1.339554,555821,25432
1515.71,1.325678,550344,25999
1519.87,1.333857,543983,25219
1522.99,1.333337,538764,25007
1526.1,1.327392,533692,25113
1529.21,1.332431,527902,24554
1532.32,1.335072,521886,24127
1535.42,1.329045,515888,24183
1538.51,1.331804,509987,23755
1541.6,1.334349,503936,23336
1545.72,1.336345,494694,22803
1548.8,1.334705,488378,22597
1551.88,1.327540,481832,22665
1554.95,1.329354,474989,22250
1558.02,1.329851,467818,21889
1561.08,1.334782,460730,21314
1564.15,1.324618,454170,21508
1568.22,1.326770,444181,20931
1571.27,1.331992,436947,20344
1574.32,1.322751,429598,20432
1577.36,1.319636,422039,20217
1580.4,1.325847,414375,19568
1583.43,1.317891,406354,19544
1586.46,1.319004,398475,19116
1590.49,1.322523,388982,18510
1593.51,1.323874,380708,18060
1596.53,1.320532,372727,17818
1599.54,1.315201,365060,17667
1602.55,1.326677,357543,16852
1605.55,1.321401,349495,16674
1608.55,1.313733,341154,16566
1612.54,1.317206,330877,15939
1615.53,1.312400,322904,15728
1618.51,1.312900,315116,15331
1621.49,1.308900,307217,15085
1624.47,1.314672,299481,14511
1627.44,1.320913,292112,13952
1630.41,1.300854,284245,14218
1634.36,1.327387,274079,12897
1637.32,1.303177,266916,13280
1640.27,1.301552,259612,12965
1643.22,1.287855,251804,12978
1646.16,1.312206,244348,11907
1649.1,1.296618,236703,11956
1652.04,1.302424,228171,11372
1655.95,1.287939,215408,11100
1658.88,1.306526,204937,10118
1661.8,1.258322,193395,10669
1664.72,1.261797,179728,9836
1667.63,1.256287,163642,9070
1670.54,1.238577,146312,8447
1673.44,1.195825,128451,8183
1677.31,1.187863,105080,6818
1680.21,1.163103,88906,6107
1683.1,1.158665,75033,5207
1685.99,1.119323,63520,4826
1688.87,1.171379,53714,3620
1691.75,1.108630,45653,3555
1694.62,1.140648,39137,2831
1697.49,1.175462,33776,2255
1701.31,1.133684,28175,2071