File: ML/samples/unknown/Column 1_078927_20241121_172854.csv
Method:,Column 1,,
Host Date-Time:,21/11/24 @ 17:28:54,,
Header Version:,1,,
System Temp (C):,37.24,,
Detector Temp (C):,36.38,,
Humidity (%):,0.58,,
Lamp PD:,3796,,
Shift Vector Coefficients:,-10.5391,0.0761263,-0.000134223,,
Pixel to Wavelength Coefficients:,1775.68,-0.916766,-0.000235065,,
Serial Number:,5510004,,
Scan Config Name:,Column 1,,
Scan Config Type:,Slew,,
Section 1,,
Start wavelength (nm):,900,,
End wavelength (nm):,1700,,
Pattern Pixel Width (nm):,   7.03,,,,
Exposure (ms):,  0.635,,,,
Digital Resolution:,228,,
Num Repeats:,6,,
PGA Gain:,64,,
Total Measurement Time in sec:,  2.703,,
Wavelength (nm),Absorbance (AU),Reference Signal (unitless),Sample Signal (unitless)
901.51,1.325506,108485,5127
905.376,1.320305,121306,5802
909.237,1.337873,131909,6059
913.095,1.315322,143299,6933
916.948,1.327441,156982,7386
922.079,1.324426,179937,8525
925.923,1.326737,200504,9449
929.762,1.325296,222660,10528
933.597,1.329873,244426,11436
937.427,1.311541,263972,12883
941.254,1.313226,281845,13702
945.076,1.306456,297271,14679
950.165,1.313772,315605,15324
953.978,1.317173,328029,15803
957.786,1.301477,340470,17006
961.59,1.309566,352317,17273
965.389,1.304460,363056,18010
969.185,1.307080,373162,18400
972.976,1.309780,382632,18750
976.763,1.317574,391202,18829
981.806,1.305952,400190,19784
985.583,1.303570,406088,20186
989.355,1.311730,410162,20009
993.124,1.308080,412868,20311
996.888,1.307178,414263,20422
1000.65,1.300545,415476,20797
1004.4,1.307835,415479,20451
1009.41,1.309538,414358,20316
1013.15,1.302023,412923,20599
1016.89,1.310964,411526,20111
1020.63,1.304833,409066,20275
1024.36,1.300643,406777,20357
1028.09,1.313632,404427,19643
1031.82,1.289589,401911,20632
1036.78,1.313178,398410,19371
1040.49,1.306639,396204,19556
1044.2,1.309952,394236,19311
1047.91,1.305397,392042,19406
1051.61,1.304074,389823,19355
1055.31,1.303716,388234,19292
1059,1.309629,387599,19000
1063.92,1.297215,386688,19505
1067.61,1.304615,386598,19171
1071.29,1.313076,387377,18839
1074.96,1.307104,388536,19157
1078.63,1.310894,389855,19055
1082.3,1.315747,391215,18909
1085.96,1.309861,393215,19265
1090.84,1.312704,396270,19288
1094.49,1.312776,398760,19406
1098.14,1.321370,400987,19132
1101.79,1.306050,403477,19942
1105.43,1.313171,406116,19746
1109.06,1.303338,407701,20277
1112.7,1.309330,409859,20105
1117.53,1.306171,412494,20382
1121.15,1.314195,414909,20126
1124.77,1.318495,416559,20007
1128.38,1.317971,418532,20126
1131.99,1.312744,419956,20439
1135.6,1.312953,421946,20526
1139.2,1.318381,423881,20364
1143.99,1.309524,426786,20926
1147.58,1.313464,428617,20826
1151.17,1.315042,431169,20874
1154.75,1.313610,433579,21060
1158.33,1.315776,436264,21085
1161.91,1.319260,439132,21054
1165.48,1.314965,442389,21421
1169.04,1.311675,446101,21765
1173.79,1.309011,451929,22185
1177.34,1.319240,456026,21865
1180.9,1.311016,461306,22541
1184.44,1.314553,467657,22666
1187.99,1.315952,473969,22898
1191.52,1.319874,479856,22974
1195.06,1.312691,487372,23723
1199.76,1.316032,497347,24023
1203.29,1.311622,504311,24608
1206.81,1.314873,511507,24773
1210.33,1.318824,519078,24912
1213.84,1.318927,527163,25294
1217.35,1.316967,534208,25748
1220.85,1.321120,540472,25802
1225.51,1.322885,549929,26147
1229.01,1.317050,556888,26836
1232.5,1.318206,562180,27019
1235.98,1.327395,567975,26726
1239.46,1.319470,574815,27546
1242.94,1.318674,582782,27979
1246.41,1.313435,591476,28741
1251.03,1.317200,604016,29097
1254.5,1.317149,612289,29499
1257.96,1.321868,619125,29506
1261.41,1.334295,624551,28925
1264.86,1.322266,629900,29992
1268.31,1.323211,634345,30138
1271.75,1.323625,638574,30310
1276.33,1.326086,642499,30324
1279.76,1.326581,645905,30450
1283.19,1.329465,648307,30361
1286.61,1.327603,650446,30592
1290.03,1.327863,652132,30653
1293.44,1.320569,653907,31257
1296.85,1.330123,655963,30673
1301.39,1.322155,657349,31307
1304.8,1.331022,657558,30684
1308.19,1.323841,658515,31241
1311.58,1.325466,658804,31138
1314.97,1.325532,659011,31143
1318.36,1.321006,658272,31434
1321.73,1.325340,658022,31110
1326.23,1.327550,657870,30945
1329.6,1.335752,656482,30302
1332.97,1.326431,654926,30886
1336.33,1.323111,653727,31066
1339.69,1.324395,652497,30916
1343.04,1.327759,649913,30556
1346.39,1.321747,647671,30875
1349.73,1.325359,645338,30509
1354.18,1.328223,641175,30113
1357.52,1.324078,638376,30269
1360.85,1.324887,635805,30091
1364.17,1.328069,633413,29759
1367.49,1.325263,631026,29839
1370.81,1.324668,628050,29739
1374.12,1.327246,625034,29421
1378.54,1.325803,620272,29294
1381.84,1.328666,616892,28943
1385.14,1.327975,613613,28835
1388.43,1.322701,611526,29088
1391.72,1.324663,610663,28916
1395.01,1.324237,610634,28943
1398.29,1.320487,611700,29245
1402.66,1.320700,614051,29343
1405.93,1.328286,616268,28939
1409.2,1.337281,617795,28416
1412.46,1.329802,618872,28960
1415.72,1.331741,619795,28874
1418.98,1.328338,620495,29134
1422.23,1.325204,621087,29373
1426.56,1.329118,621375,29123
1429.8,1.330855,621616,29018
1433.04,1.330645,622129,29056
1436.27,1.328463,621526,29174
1439.5,1.325503,621113,29354
1442.72,1.333855,620921,28786
1445.94,1.328345,620270,29123
1450.23,1.332381,618860,28788
1453.44,1.329667,617697,28914
1456.64,1.330239,616264,28809
1459.85,1.333539,614413,28505
1463.04,1.334815,612307,28324
1466.24,1.332953,610032,28340
1469.43,1.336588,607345,27980
1473.67,1.333882,603789,27990
1476.85,1.325897,601175,28386
1480.02,1.334799,597737,27651
1483.19,1.332756,594479,27630
1486.36,1.335166,591232,27327
1489.52,1.326930,587853,27691
1492.68,1.337861,583875,26820
1496.89,1.335512,578062,26697
1500.03,1.336163,574159,26477
1503.18,1.333010,570285,26490
1506.32,1.335799,565444,26097
1509.45,1.333273,560571,26023
1512.58,1.337476,555821,25554
1515.71,1.330870,550344,25690
1519.87,1.325838,543983,25689
1522.99,1.331846,538764,25093
1526.1,1.337009,533692,24563
1529.21,1.329610,527902,24714
1532.32,1.331648,521886,24318
1535.42,1.337404,515888,23722
1538.51,1.329543,509987,23879
1541.6,1.336345,503936,23229
1545.72,1.330913,494694,23090
1548.8,1.334225,488378,22622
1551.88,1.326086,481832,22741
1554.95,1.330663,474989,22183
1558.02,1.333918,467818,21685
1561.08,1.329415,460730,21579
1564.15,1.337967,454170,20857
1568.22,1.331548,444181,20702
1571.27,1.325004,436947,20674
1574.32,1.340098,429598,19632
1577.36,1.327330,422039,19862
1580.4,1.336428,414375,19097
1583.43,1.329192,406354,19042
1586.46,1.328861,398475,18687
1590.49,1.323957,388982,18449
1593.51,1.322218,380708,18129
1596.53,1.328700,372727,17486
1599.54,1.322115,365060,17388
1602.55,1.327167,357543,16833
1605.55,1.310419,349495,17101
1608.55,1.311041,341154,16669
1612.54,1.308199,330877,16273
1615.53,1.311931,322904,15745
1618.51,1.309064,315116,15467
1621.49,1.306889,307217,15155
1624.47,1.315331,299481,14489
1627.44,1.318461,292112,14031
1630.41,1.312212,284245,13851
1634.36,1.312427,274079,13349
1637.32,1.297233,266916,13463
1640.27,1.313541,259612,12612
1643.22,1.308869,251804,12365
1646.16,1.306553,244348,12063
1649.1,1.303206,236703,11776
1652.04,1.311882,228171,11127
1655.95,1.298553,215408,10832
1658.88,1.290514,204937,10498
1661.8,1.273819,193395,10295
1664.72,1.268830,179728,9678
1667.63,1.253805,163642,9122
1670.54,1.227361,146312,8668
1673.44,1.220221,128451,7736
1677.31,1.167700,105080,7142
1680.21,1.155490,88906,6215
1683.1,1.128540,75033,5581
1685.99,1.124028,63520,4774
1688.87,1.140026,53714,3891
1691.75,1.055567,45653,4017
1694.62,1.085001,39137,3218
1697.49,1.085972,33776,2771
1701.31,1.078981,28175,2349