File: ML/samples/unknown/Column 1_078828_20241121_172408.csv
Method:,Column 1,,
Host Date-Time:,21/11/24 @ 17:24:8,,
Header Version:,1,,
System Temp (C):,37.47,,
Detector Temp (C):,35.65,,
Humidity (%):,1.08,,
Lamp PD:,3797,,
Shift Vector Coefficients:,-10.5391,0.0761263,-0.000134223,,
Pixel to Wavelength Coefficients:,1775.68,-0.916766,-0.000235065,,
Serial Number:,5510004,,
Scan Config Name:,Column 1,,
Scan Config Type:,Slew,,
Section 1,,
Start wavelength (nm):,900,,
End wavelength (nm):,1700,,
Pattern Pixel Width (nm):,   7.03,,,,
Exposure (ms):,  0.635,,,,
Digital Resolution:,228,,
Num Repeats:,6,,
PGA Gain:,64,,
Total Measurement Time in sec:,  2.727,,
Wavelength (nm),Absorbance (AU),Reference Signal (unitless),Sample Signal (unitless)
901.51,1.335272,108485,5013
905.376,1.341629,121306,5524
909.237,1.330764,131909,6159
913.095,1.313447,143299,6963
916.948,1.329444,156982,7352
922.079,1.316351,179937,8685
925.923,1.337392,200504,9220
929.762,1.327157,222660,10483
933.597,1.323353,244426,11609
937.427,1.319364,263972,12653
941.254,1.326191,281845,13299
945.076,1.322826,297271,14136
950.165,1.313007,315605,15351
953.978,1.316267,328029,15836
957.786,1.313202,340470,16553
961.59,1.311102,352317,17212
965.389,1.314535,363056,17597
969.185,1.323752,373162,17707
972.976,1.317845,382632,18405
976.763,1.312871,391202,19034
981.806,1.310298,400190,19587
985.583,1.307720,406088,19994
989.355,1.307905,410162,20186
993.124,1.303359,412868,20533
996.888,1.307838,414263,20391
1000.65,1.311307,415476,20288
1004.4,1.306160,415479,20530
1009.41,1.307937,414358,20391
1013.15,1.307241,412923,20353
1016.89,1.308015,411526,20248
1020.63,1.311524,409066,19965
1024.36,1.311333,406777,19862
1028.09,1.311559,404427,19737
1031.82,1.301409,401911,20078
1036.78,1.307875,398410,19609
1040.49,1.306928,396204,19543
1044.2,1.307686,394236,19412
1047.91,1.306315,392042,19365
1051.61,1.310312,389823,19079
1055.31,1.303401,388234,19306
1059,1.314710,387599,18779
1063.92,1.323393,386688,18364
1067.61,1.307981,386598,19023
1071.29,1.307123,387377,19099
1074.96,1.312625,388536,18915
1078.63,1.306134,389855,19265
1082.3,1.308730,391215,19217
1085.96,1.306291,393215,19424
1090.84,1.311872,396270,19325
1094.49,1.321638,398760,19014
1098.14,1.310874,400987,19600
1101.79,1.311198,403477,19707
1105.43,1.310103,406116,19886
1109.06,1.307059,407701,20104
1112.7,1.320644,409859,19588
1117.53,1.326699,412494,19441
1121.15,1.308216,414909,20405
1124.77,1.311582,416559,20328
1128.38,1.327174,418532,19704
1131.99,1.318067,419956,20190
1135.6,1.319863,421946,20202
1139.2,1.318893,423881,20340
1143.99,1.318859,426786,20481
1147.58,1.316687,428617,20672
1151.17,1.318866,431169,20691
1154.75,1.318108,433579,20843
1158.33,1.326304,436264,20580
1161.91,1.317737,439132,21128
1165.48,1.314114,442389,21463
1169.04,1.306616,446101,22020
1173.79,1.320054,451929,21628
1177.34,1.316192,456026,22019
1180.9,1.318910,461306,22135
1184.44,1.317475,467657,22514
1187.99,1.313682,473969,23018
1191.52,1.317837,479856,23082
1195.06,1.321270,487372,23259
1199.76,1.328559,497347,23340
1203.29,1.314846,504311,24426
1206.81,1.323603,511507,24280
1210.33,1.319592,519078,24868
1213.84,1.322254,527163,25101
1217.35,1.323407,534208,25369
1220.85,1.315983,540472,26109
1225.51,1.324299,549929,26062
1229.01,1.322702,556888,26489
1232.5,1.319526,562180,26937
1235.98,1.319393,567975,27223
1239.46,1.324480,574815,27230
1242.94,1.323732,582782,27655
1246.41,1.323293,591476,28096
1251.03,1.321068,604016,28839
1254.5,1.321990,612289,29172
1257.96,1.330370,619125,28934
1261.41,1.322928,624551,29692
1264.86,1.329199,629900,29517
1268.31,1.326741,634345,29894
1271.75,1.323282,638574,30334
1276.33,1.323715,642499,30490
1279.76,1.320309,645905,30893
1283.19,1.318532,648307,31135
1286.61,1.327291,650446,30614
1290.03,1.330563,652132,30463
1293.44,1.330022,653907,30584
1296.85,1.327357,655963,30869
1301.39,1.330870,657349,30685
1304.8,1.331986,657558,30616
1308.19,1.329311,658515,30850
1311.58,1.323795,658804,31258
1314.97,1.331712,659011,30703
1318.36,1.329573,658272,30820
1321.73,1.334069,658022,30491
1326.23,1.329209,657870,30827
1329.6,1.324770,656482,31078
1332.97,1.330570,654926,30593
1336.33,1.329675,653727,30600
1339.69,1.330421,652497,30490
1343.04,1.332029,649913,30257
1346.39,1.331635,647671,30180
1349.73,1.327729,645338,30343
1354.18,1.329494,641175,30025
1357.52,1.327897,638376,30004
1360.85,1.326420,635805,29985
1364.17,1.327310,633413,29811
1367.49,1.323375,631026,29969
1370.81,1.324551,628050,29747
1374.12,1.325229,625034,29558
1378.54,1.327720,620272,29165
1381.84,1.327916,616892,28993
1385.14,1.324151,613613,29090
1388.43,1.326073,611526,28863
1391.72,1.323404,610663,29000
1395.01,1.325831,610634,28837
1398.29,1.328158,611700,28733
1402.66,1.322257,614051,29238
1405.93,1.334240,616268,28545
1409.2,1.330277,617795,28878
1412.46,1.327842,618872,29091
1415.72,1.323783,619795,29408
1418.98,1.325219,620495,29344
1422.23,1.337303,621087,28566
1426.56,1.330148,621375,29054
1429.8,1.335489,621616,28710
1433.04,1.329615,622129,29125
1436.27,1.335305,621526,28718
1439.5,1.332588,621113,28879
1442.72,1.331913,620921,28915
1445.94,1.333128,620270,28804
1450.23,1.337251,618860,28467
1453.44,1.336251,617697,28479
1456.64,1.331734,616264,28710
1459.85,1.337657,614413,28236
1463.04,1.329648,612307,28663
1466.24,1.333259,610032,28320
1469.43,1.332786,607345,28226
1473.67,1.333758,603789,27998
1476.85,1.331269,601175,28037
1480.02,1.341096,597737,27253
1483.19,1.333905,594479,27557
1486.36,1.335420,591232,27311
1489.52,1.336171,587853,27108
1492.68,1.328110,583875,27429
1496.89,1.331980,578062,26915
1500.03,1.336245,574159,26472
1503.18,1.338687,570285,26146
1506.32,1.337116,565444,26018
1509.45,1.328592,560571,26305
1512.58,1.333669,555821,25779
1515.71,1.332462,550344,25596
1519.87,1.334443,543983,25185
1522.99,1.333615,538764,24991
1526.1,1.338923,533692,24455
1529.21,1.335057,527902,24406
1532.32,1.335955,521886,24078
1535.42,1.337972,515888,23691
1538.51,1.336510,509987,23499
1541.6,1.339083,503936,23083
1545.72,1.335108,494694,22868
1548.8,1.330041,488378,22841
1551.88,1.331235,481832,22473
1554.95,1.339304,474989,21746
1558.02,1.342616,467818,21255
1561.08,1.331069,460730,21497
1564.15,1.338905,454170,20812
1568.22,1.334600,444181,20557
1571.27,1.334240,436947,20239
1574.32,1.334493,429598,19887
1577.36,1.329851,422039,19747
1580.4,1.326891,414375,19521
1583.43,1.325332,406354,19212
1586.46,1.325067,398475,18851
1590.49,1.325041,388982,18403
1593.51,1.328419,380708,17872
1596.53,1.329670,372727,17447
1599.54,1.329622,365060,17090
1602.55,1.324851,357543,16923
1605.55,1.321714,349495,16662
1608.55,1.321590,341154,16269
1612.54,1.310286,330877,16195
1615.53,1.320679,322904,15431
1618.51,1.318058,315116,15150
1621.49,1.307033,307217,15150
1624.47,1.313775,299481,14541
1627.44,1.312070,292112,14239
1630.41,1.325746,284245,13426
1634.36,1.312069,274079,13360
1637.32,1.313334,266916,12973
1640.27,1.318737,259612,12462
1643.22,1.330360,251804,11768
1646.16,1.318970,244348,11723
1649.1,1.306538,236703,11686
1652.04,1.302729,228171,11364
1655.95,1.321226,215408,10281
1658.88,1.287381,204937,10574
1661.8,1.289496,193395,9930
1664.72,1.272028,179728,9607
1667.63,1.243501,163642,9341
1670.54,1.233161,146312,8553
1673.44,1.201756,128451,8072
1677.31,1.193634,105080,6728
1680.21,1.154582,88906,6228
1683.1,1.160671,75033,5183
1685.99,1.173297,63520,4262
1688.87,1.140361,53714,3888
1691.75,1.119140,45653,3470
1694.62,1.216924,39137,2375
1697.49,1.188759,33776,2187
1701.31,1.231328,28175,1654