File: ML/samples/unknown/Column 1_078472_20241121_170421.csv
Method:,Column 1,,
Host Date-Time:,21/11/24 @ 17:4:21,,
Header Version:,1,,
System Temp (C):,34.54,,
Detector Temp (C):,33.75,,
Humidity (%):,1.76,,
Lamp PD:,3801,,
Shift Vector Coefficients:,-10.5391,0.0761263,-0.000134223,,
Pixel to Wavelength Coefficients:,1775.68,-0.916766,-0.000235065,,
Serial Number:,5510004,,
Scan Config Name:,Column 1,,
Scan Config Type:,Slew,,
Section 1,,
Start wavelength (nm):,900,,
End wavelength (nm):,1700,,
Pattern Pixel Width (nm):,   7.03,,,,
Exposure (ms):,  0.635,,,,
Digital Resolution:,228,,
Num Repeats:,6,,
PGA Gain:,64,,
Total Measurement Time in sec:,  2.689,,
Wavelength (nm),Absorbance (AU),Reference Signal (unitless),Sample Signal (unitless)
901.51,1.323647,108485,5149
905.376,1.329763,121306,5677
909.237,1.303901,131909,6552
913.095,1.324309,143299,6791
916.948,1.332111,156982,7307
922.079,1.333174,179937,8355
925.923,1.321438,200504,9565
929.762,1.326908,222660,10489
933.597,1.324476,244426,11579
937.427,1.322257,263972,12569
941.254,1.314878,281845,13650
945.076,1.315635,297271,14372
950.165,1.315248,315605,15272
953.978,1.320926,328029,15667
957.786,1.317685,340470,16383
961.59,1.313861,352317,17103
965.389,1.311706,363056,17712
969.185,1.306891,373162,18408
972.976,1.304302,382632,18988
976.763,1.298928,391202,19655
981.806,1.308484,400190,19669
985.583,1.311604,406088,19816
989.355,1.304391,410162,20350
993.124,1.298605,412868,20759
996.888,1.308285,414263,20370
1000.65,1.307853,415476,20450
1004.4,1.307686,415479,20458
1009.41,1.312476,414358,20179
1013.15,1.310389,412923,20206
1016.89,1.305684,411526,20357
1020.63,1.301249,409066,20443
1024.36,1.307892,406777,20020
1028.09,1.304791,404427,20047
1031.82,1.307948,401911,19778
1036.78,1.305578,398410,19713
1040.49,1.311305,396204,19347
1044.2,1.312953,394236,19178
1047.91,1.318598,392042,18825
1051.61,1.309357,389823,19121
1055.31,1.307401,388234,19129
1059,1.313948,387599,18812
1063.92,1.314637,386688,18738
1067.61,1.316371,386598,18659
1071.29,1.319579,387377,18559
1074.96,1.312671,388536,18913
1078.63,1.306157,389855,19264
1082.3,1.312019,391215,19072
1085.96,1.313301,393215,19113
1090.84,1.320932,396270,18926
1094.49,1.309143,398760,19569
1098.14,1.317618,400987,19298
1101.79,1.313784,403477,19590
1105.43,1.319217,406116,19473
1109.06,1.313063,407701,19828
1112.7,1.315334,409859,19829
1117.53,1.310023,412494,20202
1121.15,1.319427,414909,19885
1124.77,1.313187,416559,20253
1128.38,1.314832,418532,20272
1131.99,1.323544,419956,19937
1135.6,1.319562,421946,20216
1139.2,1.324307,423881,20088
1143.99,1.304777,426786,21156
1147.58,1.316435,428617,20684
1151.17,1.320633,431169,20607
1154.75,1.313115,433579,21084
1158.33,1.319977,436264,20882
1161.91,1.313869,439132,21317
1165.48,1.321687,442389,21092
1169.04,1.314296,446101,21634
1173.79,1.319171,451929,21672
1177.34,1.315050,456026,22077
1180.9,1.314401,461306,22366
1184.44,1.314246,467657,22682
1187.99,1.315403,473969,22927
1191.52,1.323043,479856,22807
1195.06,1.324644,487372,23079
1199.76,1.324779,497347,23544
1203.29,1.314811,504311,24428
1206.81,1.332019,511507,23814
1210.33,1.324509,519078,24588
1213.84,1.324127,527163,24993
1217.35,1.323150,534208,25384
1220.85,1.331648,540472,25184
1225.51,1.324516,549929,26049
1229.01,1.319484,556888,26686
1232.5,1.317435,562180,27067
1235.98,1.322306,567975,27041
1239.46,1.321160,574815,27439
1242.94,1.323073,582782,27697
1246.41,1.320765,591476,28260
1251.03,1.323848,604016,28655
1254.5,1.325458,612289,28940
1257.96,1.327408,619125,29132
1261.41,1.322315,624551,29734
1264.86,1.325537,629900,29767
1268.31,1.326538,634345,29908
1271.75,1.323511,638574,30318
1276.33,1.333248,642499,29828
1279.76,1.330824,645905,30154
1283.19,1.329407,648307,30365
1286.61,1.326611,650446,30662
1290.03,1.327905,652132,30650
1293.44,1.326022,653907,30867
1296.85,1.331059,655963,30607
1301.39,1.330361,657349,30721
1304.8,1.330513,657558,30720
1308.19,1.333711,658515,30539
1311.58,1.329163,658804,30874
1314.97,1.331712,659011,30703
1318.36,1.333295,658272,30557
1321.73,1.330621,658022,30734
1326.23,1.333356,657870,30534
1329.6,1.332895,656482,30502
1332.97,1.331082,654926,30557
1336.33,1.332937,653727,30371
1339.69,1.331976,652497,30381
1343.04,1.328441,649913,30508
1346.39,1.330715,647671,30244
1349.73,1.333927,645338,29913
1354.18,1.326869,641175,30207
1357.52,1.334475,638376,29553
1360.85,1.324224,635805,30137
1364.17,1.320459,633413,30285
1367.49,1.329857,631026,29525
1370.81,1.323676,628050,29807
1374.12,1.328947,625034,29306
1378.54,1.332015,620272,28878
1381.84,1.329071,616892,28916
1385.14,1.332593,613613,28530
1388.43,1.323777,611526,29016
1391.72,1.325265,610663,28876
1395.01,1.325124,610634,28884
1398.29,1.328551,611700,28707
1402.66,1.330247,614051,28705
1405.93,1.330498,616268,28792
1409.2,1.326787,617795,29111
1412.46,1.326903,618872,29154
1415.72,1.336962,619795,28529
1418.98,1.333859,620495,28766
1422.23,1.335346,621087,28695
1426.56,1.336335,621375,28643
1429.8,1.330481,621616,29043
1433.04,1.334850,622129,28776
1436.27,1.333720,621526,28823
1439.5,1.337686,621113,28542
1442.72,1.331943,620921,28913
1445.94,1.332540,620270,28843
1450.23,1.335986,618860,28550
1453.44,1.334394,617697,28601
1456.64,1.337275,616264,28346
1459.85,1.335066,614413,28405
1463.04,1.337877,612307,28125
1466.24,1.336399,610032,28116
1469.43,1.334065,607345,28143
1473.67,1.326299,603789,28483
1476.85,1.334550,601175,27826
1480.02,1.337004,597737,27511
1483.19,1.338451,594479,27270
1486.36,1.339832,591232,27035
1489.52,1.335291,587853,27163
1492.68,1.337634,583875,26834
1496.89,1.341606,578062,26325
1500.03,1.338647,574159,26326
1503.18,1.338720,570285,26144
1506.32,1.337867,565444,25973
1509.45,1.336405,560571,25836
1512.58,1.335695,555821,25659
1515.71,1.338941,550344,25217
1519.87,1.339648,543983,24885
1522.99,1.341241,538764,24556
1526.1,1.342579,533692,24250
1529.21,1.344665,527902,23872
1532.32,1.336966,521886,24022
1535.42,1.335486,515888,23827
1538.51,1.335845,509987,23535
1541.6,1.339987,503936,23035
1545.72,1.334672,494694,22891
1548.8,1.342403,488378,22200
1551.88,1.332357,481832,22415
1554.95,1.331565,474989,22137
1558.02,1.338690,467818,21448
1561.08,1.327067,460730,21696
1564.15,1.331641,454170,21163
1568.22,1.333777,444181,20596
1571.27,1.325151,436947,20667
1574.32,1.331381,429598,20030
1577.36,1.336612,422039,19442
1580.4,1.331229,414375,19327
1583.43,1.334885,406354,18794
1586.46,1.325274,398475,18842
1590.49,1.334392,388982,18011
1593.51,1.333528,380708,17663
1596.53,1.322315,372727,17745
1599.54,1.323015,365060,17352
1602.55,1.323212,357543,16987
1605.55,1.331680,349495,16284
1608.55,1.325882,341154,16109
1612.54,1.319966,330877,15838
1615.53,1.318434,322904,15511
1618.51,1.310893,315116,15402
1621.49,1.320838,307217,14676
1624.47,1.314971,299481,14501
1627.44,1.322285,292112,13908
1630.41,1.305893,284245,14054
1634.36,1.325338,274079,12958
1637.32,1.295269,266916,13524
1640.27,1.298116,259612,13068
1643.22,1.306871,251804,12422
1646.16,1.321273,244348,11661
1649.1,1.312902,236703,11516
1652.04,1.290037,228171,11701
1655.95,1.302622,215408,10731
1658.88,1.319465,204937,9821
1661.8,1.286402,193395,10001
1664.72,1.275386,179728,9533
1667.63,1.258688,163642,9020
1670.54,1.244479,146312,8333
1673.44,1.210891,128451,7904
1677.31,1.211019,105080,6464
1680.21,1.159985,88906,6151
1683.1,1.177587,75033,4985
1685.99,1.148734,63520,4510
1688.87,1.177541,53714,3569
1691.75,1.155134,45653,3194
1694.62,1.190326,39137,2525
1697.49,1.130321,33776,2502
1701.31,1.182458,28175,1851