File: ML/samples/unknown/Column 1_078129_20241121_164654.csv
Method:,Column 1,,
Host Date-Time:,21/11/24 @ 16:46:54,,
Header Version:,1,,
System Temp (C):,32.91,,
Detector Temp (C):,28.44,,
Humidity (%):,3.61,,
Lamp PD:,3806,,
Shift Vector Coefficients:,-10.5391,0.0761263,-0.000134223,,
Pixel to Wavelength Coefficients:,1775.68,-0.916766,-0.000235065,,
Serial Number:,5510004,,
Scan Config Name:,Column 1,,
Scan Config Type:,Slew,,
Section 1,,
Start wavelength (nm):,900,,
End wavelength (nm):,1700,,
Pattern Pixel Width (nm):,   7.03,,,,
Exposure (ms):,  0.635,,,,
Digital Resolution:,228,,
Num Repeats:,6,,
PGA Gain:,64,,
Total Measurement Time in sec:,  2.731,,
Wavelength (nm),Absorbance (AU),Reference Signal (unitless),Sample Signal (unitless)
901.51,1.303298,108485,5396
905.376,1.322481,121306,5773
909.237,1.329849,131909,6172
913.095,1.321759,143299,6831
916.948,1.318479,156982,7540
922.079,1.322292,179937,8567
925.923,1.340465,200504,9155
929.762,1.320660,222660,10641
933.597,1.321002,244426,11672
937.427,1.322776,263972,12554
941.254,1.331085,281845,13150
945.076,1.327211,297271,13994
950.165,1.323284,315605,14992
953.978,1.312961,328029,15957
957.786,1.319518,340470,16314
961.59,1.315107,352317,17054
965.389,1.311240,363056,17731
969.185,1.319093,373162,17898
972.976,1.316597,382632,18458
976.763,1.320118,391202,18719
981.806,1.310853,400190,19562
985.583,1.311166,406088,19836
989.355,1.309911,410162,20093
993.124,1.321543,412868,19691
996.888,1.308242,414263,20372
1000.65,1.315804,415476,20079
1004.4,1.314037,415479,20161
1009.41,1.311509,414358,20224
1013.15,1.313863,412923,20045
1016.89,1.311396,411526,20091
1020.63,1.316028,409066,19759
1024.36,1.319745,406777,19481
1028.09,1.313699,404427,19640
1031.82,1.320105,401911,19232
1036.78,1.310897,398410,19473
1040.49,1.311687,396204,19330
1044.2,1.317666,394236,18971
1047.91,1.318598,392042,18825
1051.61,1.316733,389823,18799
1055.31,1.307333,388234,19132
1059,1.314942,387599,18769
1063.92,1.315658,386688,18694
1067.61,1.320699,386598,18474
1071.29,1.318014,387377,18626
1074.96,1.316361,388536,18753
1078.63,1.316399,389855,18815
1082.3,1.308549,391215,19225
1085.96,1.318927,393215,18867
1090.84,1.325755,396270,18717
1094.49,1.323653,398760,18926
1098.14,1.313029,400987,19503
1101.79,1.319205,403477,19347
1105.43,1.328960,406116,19041
1109.06,1.320954,407701,19471
1112.7,1.323626,409859,19454
1117.53,1.327997,412494,19383
1121.15,1.322210,414909,19758
1124.77,1.329909,416559,19488
1128.38,1.329650,418532,19592
1131.99,1.323893,419956,19921
1135.6,1.324357,421946,19994
1139.2,1.327802,423881,19927
1143.99,1.326712,426786,20114
1147.58,1.317528,428617,20632
1151.17,1.322301,431169,20528
1154.75,1.312374,433579,21120
1158.33,1.322208,436264,20775
1161.91,1.331944,439132,20448
1165.48,1.322449,442389,21055
1169.04,1.329536,446101,20888
1173.79,1.325957,451929,21336
1177.34,1.325099,456026,21572
1180.9,1.322377,461306,21959
1184.44,1.321506,467657,22306
1187.99,1.322680,473969,22546
1191.52,1.325104,479856,22699
1195.06,1.317625,487372,23455
1199.76,1.328763,497347,23329
1203.29,1.333891,504311,23378
1206.81,1.323871,511507,24265
1210.33,1.326333,519078,24485
1213.84,1.319391,527163,25267
1217.35,1.329354,534208,25024
1220.85,1.326830,540472,25465
1225.51,1.326303,549929,25942
1229.01,1.326837,556888,26238
1232.5,1.331226,562180,26221
1235.98,1.325336,567975,26853
1239.46,1.328213,574815,26997
1242.94,1.325132,582782,27566
1246.41,1.333363,591476,27452
1251.03,1.326539,604016,28478
1254.5,1.334925,612289,28316
1257.96,1.330655,619125,28915
1261.41,1.329472,624551,29248
1264.86,1.327276,629900,29648
1268.31,1.332430,634345,29505
1271.75,1.330354,638574,29844
1276.33,1.331809,642499,29927
1279.76,1.334265,645905,29916
1283.19,1.331788,648307,30199
1286.61,1.332457,650446,30252
1290.03,1.332449,652132,30331
1293.44,1.335782,653907,30181
1296.85,1.332879,655963,30479
1301.39,1.335780,657349,30340
1304.8,1.336004,657558,30334
1308.19,1.337137,658515,30299
1311.58,1.340536,658804,30076
1314.97,1.338340,659011,30238
1318.36,1.342487,658272,29917
1321.73,1.333357,658022,30541
1326.23,1.333456,657870,30527
1329.6,1.340362,656482,29982
1332.97,1.337727,654926,30093
1336.33,1.331424,653727,30477
1339.69,1.336127,652497,30092
1343.04,1.334953,649913,30054
1346.39,1.333149,647671,30075
1349.73,1.329852,645338,30195
1354.18,1.329928,641175,29995
1357.52,1.336700,638376,29402
1360.85,1.333517,635805,29499
1364.17,1.329648,633413,29651
1367.49,1.336692,631026,29064
1370.81,1.335267,628050,29022
1374.12,1.326096,625034,29499
1378.54,1.335685,620272,28635
1381.84,1.334725,616892,28542
1385.14,1.328412,613613,28806
1388.43,1.334628,611526,28300
1391.72,1.331597,610663,28458
1395.01,1.335855,610634,28179
1398.29,1.337245,611700,28138
1402.66,1.331945,614051,28593
1405.93,1.330981,616268,28760
1409.2,1.338153,617795,28359
1412.46,1.342694,618872,28113
1415.72,1.336459,619795,28562
1418.98,1.330940,620495,28960
1422.23,1.342534,621087,28224
1426.56,1.336441,621375,28636
1429.8,1.338327,621616,28523
1433.04,1.340088,622129,28431
1436.27,1.338355,621526,28517
1439.5,1.336046,621113,28650
1442.72,1.339932,620921,28386
1445.94,1.338957,620270,28420
1450.23,1.339039,618860,28350
1453.44,1.338192,617697,28352
1456.64,1.337306,616264,28344
1459.85,1.336981,614413,28280
1463.04,1.339114,612307,28045
1466.24,1.340730,610032,27837
1469.43,1.341316,607345,27677
1473.67,1.339033,603789,27660
1476.85,1.336835,601175,27680
1480.02,1.342421,597737,27170
1483.19,1.347073,594479,26734
1486.36,1.338869,591232,27095
1489.52,1.338404,587853,26969
1492.68,1.339988,583875,26689
1496.89,1.342531,578062,26269
1500.03,1.342591,574159,26088
1503.18,1.336731,570285,26264
1506.32,1.343505,565444,25638
1509.45,1.341529,560571,25533
1512.58,1.343138,555821,25223
1515.71,1.342607,550344,25005
1519.87,1.336362,543983,25074
1522.99,1.343226,538764,24444
1526.1,1.336214,533692,24608
1529.21,1.351264,527902,23512
1532.32,1.344167,521886,23627
1535.42,1.348399,515888,23129
1538.51,1.345605,509987,23012
1541.6,1.339403,503936,23066
1545.72,1.336726,494694,22783
1548.8,1.342599,488378,22190
1551.88,1.342412,481832,21902
1554.95,1.337351,474989,21844
1558.02,1.338548,467818,21455
1561.08,1.340607,460730,21030
1564.15,1.337363,454170,20886
1568.22,1.338782,444181,20360
1571.27,1.340246,436947,19961
1574.32,1.339302,429598,19668
1577.36,1.337081,422039,19421
1580.4,1.336224,414375,19106
1583.43,1.336877,406354,18708
1586.46,1.338092,398475,18294
1590.49,1.338243,388982,17852
1593.51,1.331957,380708,17727
1596.53,1.334451,372727,17256
1599.54,1.321790,365060,17401
1602.55,1.335423,357543,16516
1605.55,1.327301,349495,16449
1608.55,1.327963,341154,16032
1612.54,1.335401,330877,15285
1615.53,1.339223,322904,14786
1618.51,1.335637,315116,14549
1621.49,1.340388,307217,14030
1624.47,1.332792,299481,13918
1627.44,1.327721,292112,13735
1630.41,1.332560,284245,13217
1634.36,1.335339,274079,12663
1637.32,1.326280,266916,12592
1640.27,1.344324,259612,11749
1643.22,1.323767,251804,11948
1646.16,1.330571,244348,11414
1649.1,1.314981,236703,11461
1652.04,1.316394,228171,11012
1655.95,1.305464,215408,10661
1658.88,1.324759,204937,9702
1661.8,1.314381,193395,9377
1664.72,1.299939,179728,9009
1667.63,1.292937,163642,8336
1670.54,1.306502,146312,7224
1673.44,1.271718,128451,6871
1677.31,1.300039,105080,5266
1680.21,1.326510,88906,4192
1683.1,1.311297,75033,3664
1685.99,1.303911,63520,3155
1688.87,1.366852,53714,2308
1691.75,1.277813,45653,2408
1694.62,1.313149,39137,1903
1697.49,1.371454,33776,1436
1701.31,1.622495,28175,672