File: ML/samples/unknown/Column 1_078307_20241121_165538.csv
Method:,Column 1,,
Host Date-Time:,21/11/24 @ 16:55:38,,
Header Version:,1,,
System Temp (C):,34.58,,
Detector Temp (C):,32.68,,
Humidity (%):,2.35,,
Lamp PD:,3802,,
Shift Vector Coefficients:,-10.5391,0.0761263,-0.000134223,,
Pixel to Wavelength Coefficients:,1775.68,-0.916766,-0.000235065,,
Serial Number:,5510004,,
Scan Config Name:,Column 1,,
Scan Config Type:,Slew,,
Section 1,,
Start wavelength (nm):,900,,
End wavelength (nm):,1700,,
Pattern Pixel Width (nm):,   7.03,,,,
Exposure (ms):,  0.635,,,,
Digital Resolution:,228,,
Num Repeats:,6,,
PGA Gain:,64,,
Total Measurement Time in sec:,  2.726,,
Wavelength (nm),Absorbance (AU),Reference Signal (unitless),Sample Signal (unitless)
901.51,1.344111,108485,4912
905.376,1.329228,121306,5684
909.237,1.338089,131909,6056
913.095,1.318276,143299,6886
916.948,1.348771,156982,7032
922.079,1.319865,179937,8615
925.923,1.332148,200504,9332
929.762,1.330651,222660,10399
933.597,1.319887,244426,11702
937.427,1.329645,263972,12357
941.254,1.324431,281845,13353
945.076,1.313405,297271,14446
950.165,1.319448,315605,15125
953.978,1.314460,328029,15902
957.786,1.318907,340470,16337
961.59,1.315693,352317,17031
965.389,1.319200,363056,17409
969.185,1.309375,373162,18303
972.976,1.308808,382632,18792
976.763,1.308512,391202,19226
981.806,1.305579,400190,19801
985.583,1.316896,406088,19576
989.355,1.318159,410162,19715
993.124,1.318204,412868,19843
996.888,1.306625,414263,20448
1000.65,1.317885,415476,19983
1004.4,1.313929,415479,20166
1009.41,1.316389,414358,19998
1013.15,1.316951,412923,19903
1016.89,1.310252,411526,20144
1020.63,1.306141,409066,20214
1024.36,1.310787,406777,19887
1028.09,1.301854,404427,20183
1031.82,1.314809,401911,19468
1036.78,1.319615,398410,19086
1040.49,1.310184,396204,19397
1044.2,1.310334,394236,19294
1047.91,1.310258,392042,19190
1051.61,1.316248,389823,18820
1055.31,1.318182,388234,18660
1059,1.312864,387599,18859
1063.92,1.308310,386688,19013
1067.61,1.303416,386598,19224
1071.29,1.311396,387377,18912
1074.96,1.321041,388536,18552
1078.63,1.309188,389855,19130
1082.3,1.316782,391215,18864
1085.96,1.315785,393215,19004
1090.84,1.315868,396270,19148
1094.49,1.321182,398760,19034
1098.14,1.317933,400987,19284
1101.79,1.316899,403477,19450
1105.43,1.319864,406116,19444
1109.06,1.317731,407701,19616
1112.7,1.317860,409859,19714
1117.53,1.321326,412494,19683
1121.15,1.319471,414909,19883
1124.77,1.322376,416559,19829
1128.38,1.308220,418532,20583
1131.99,1.318907,419956,20151
1135.6,1.334310,421946,19541
1139.2,1.318317,423881,20367
1143.99,1.314975,426786,20665
1147.58,1.318793,428617,20572
1151.17,1.319244,431169,20673
1154.75,1.324785,433579,20525
1158.33,1.326536,436264,20569
1161.91,1.321142,439132,20963
1165.48,1.318016,442389,21271
1169.04,1.319954,446101,21354
1173.79,1.320838,451929,21589
1177.34,1.322910,456026,21681
1180.9,1.320325,461306,22063
1184.44,1.317012,467657,22538
1187.99,1.324495,473969,22452
1191.52,1.313233,479856,23328
1195.06,1.322822,487372,23176
1199.76,1.324945,497347,23535
1203.29,1.322813,504311,23982
1206.81,1.323692,511507,24275
1210.33,1.327043,519078,24445
1213.84,1.325711,527163,24902
1217.35,1.320762,534208,25524
1220.85,1.327444,540472,25429
1225.51,1.331016,549929,25662
1229.01,1.324938,556888,26353
1232.5,1.327368,562180,26455
1235.98,1.326097,567975,26806
1239.46,1.324018,574815,27259
1242.94,1.327565,582782,27412
1246.41,1.332447,591476,27510
1251.03,1.326783,604016,28462
1254.5,1.333302,612289,28422
1257.96,1.331527,619125,28857
1261.41,1.333260,624551,28994
1264.86,1.333383,629900,29234
1268.31,1.328226,634345,29792
1271.75,1.335036,638574,29524
1276.33,1.332594,642499,29873
1279.76,1.330867,645905,30151
1283.19,1.327581,648307,30493
1286.61,1.329453,650446,30462
1290.03,1.335654,652132,30108
1293.44,1.331530,653907,30478
1296.85,1.333363,655963,30445
1301.39,1.327528,657349,30922
1304.8,1.332142,657558,30605
1308.19,1.332192,658515,30646
1311.58,1.328166,658804,30945
1314.97,1.336119,659011,30393
1318.36,1.333238,658272,30561
1321.73,1.336425,658022,30326
1326.23,1.340382,657870,30044
1329.6,1.332212,656482,30550
1332.97,1.332477,654926,30459
1336.33,1.330798,653727,30521
1339.69,1.330849,652497,30460
1343.04,1.336647,649913,29937
1346.39,1.334233,647671,30000
1349.73,1.331885,645338,30054
1354.18,1.332251,641175,29835
1357.52,1.328230,638376,29981
1360.85,1.331812,635805,29615
1364.17,1.333842,633413,29366
1367.49,1.326823,631026,29732
1370.81,1.335028,628050,29038
1374.12,1.333581,625034,28995
1378.54,1.330394,620272,28986
1381.84,1.329747,616892,28871
1385.14,1.330982,613613,28636
1388.43,1.329988,611526,28604
1391.72,1.334000,610663,28301
1395.01,1.333596,610634,28326
1398.29,1.330932,611700,28550
1402.66,1.333924,614051,28463
1405.93,1.330860,616268,28768
1409.2,1.332857,617795,28707
1412.46,1.332887,618872,28755
1415.72,1.333323,619795,28769
1418.98,1.333829,620495,28768
1422.23,1.331849,621087,28927
1426.56,1.331180,621375,28985
1429.8,1.335913,621616,28682
1433.04,1.336983,622129,28635
1436.27,1.335729,621526,28690
1439.5,1.342829,621113,28206
1442.72,1.336518,620921,28610
1445.94,1.335092,620270,28674
1450.23,1.346814,618860,27847
1453.44,1.336708,617697,28449
1456.64,1.341138,616264,28095
1459.85,1.333768,614413,28490
1463.04,1.342472,612307,27829
1466.24,1.331820,610032,28414
1469.43,1.336619,607345,27978
1473.67,1.338955,603789,27665
1476.85,1.339069,601175,27538
1480.02,1.339299,597737,27366
1483.19,1.337497,594479,27330
1486.36,1.340958,591232,26965
1489.52,1.340227,587853,26856
1492.68,1.336019,583875,26934
1496.89,1.339056,578062,26480
1500.03,1.340582,574159,26209
1503.18,1.342708,570285,25905
1506.32,1.338537,565444,25933
1509.45,1.339950,560571,25626
1512.58,1.343414,555821,25207
1515.71,1.338442,550344,25246
1519.87,1.341694,543983,24768
1522.99,1.339388,538764,24661
1526.1,1.341953,533692,24285
1529.21,1.342179,527902,24009
1532.32,1.342223,521886,23733
1535.42,1.346263,515888,23243
1538.51,1.341435,509987,23234
1541.6,1.344555,503936,22794
1545.72,1.336688,494694,22785
1548.8,1.336496,488378,22504
1551.88,1.338484,481832,22101
1554.95,1.339924,474989,21715
1558.02,1.332518,467818,21755
1561.08,1.336681,460730,21221
1564.15,1.333863,454170,21055
1568.22,1.343522,444181,20139
1571.27,1.335508,436947,20180
1574.32,1.334668,429598,19879
1577.36,1.340787,422039,19256
1580.4,1.337681,414375,19042
1583.43,1.332765,406354,18886
1586.46,1.338781,398475,18265
1590.49,1.332899,388982,18073
1593.51,1.338448,380708,17464
1596.53,1.334174,372727,17267
1599.54,1.335842,365060,16847
1602.55,1.339731,357543,16353
1605.55,1.325352,349495,16523
1608.55,1.326691,341154,16079
1612.54,1.326125,330877,15615
1615.53,1.320370,322904,15442
1618.51,1.326101,315116,14872
1621.49,1.330926,307217,14339
1624.47,1.318278,299481,14391
1627.44,1.322847,292112,13890
1630.41,1.318433,284245,13654
1634.36,1.304433,274079,13597
1637.32,1.329083,266916,12511
1640.27,1.322236,259612,12362
1643.22,1.314845,251804,12196
1646.16,1.316900,244348,11779
1649.1,1.325801,236703,11179
1652.04,1.310091,228171,11173
1655.95,1.315686,215408,10413
1658.88,1.296428,204937,10356
1661.8,1.296417,193395,9773
1664.72,1.284548,179728,9334
1667.63,1.269906,163642,8790
1670.54,1.236321,146312,8491
1673.44,1.240269,128451,7387
1677.31,1.207206,105080,6521
1680.21,1.206677,88906,5524
1683.1,1.219922,75033,4522
1685.99,1.231202,63520,3730
1688.87,1.242808,53714,3071
1691.75,1.185690,45653,2977
1694.62,1.253733,39137,2182
1697.49,1.283342,33776,1759
1701.31,1.092310,28175,2278