File: ML/samples/unknown/Column 1_078491_20241121_170517.csv
Method:,Column 1,,
Host Date-Time:,21/11/24 @ 17:5:17,,
Header Version:,1,,
System Temp (C):,34.93,,
Detector Temp (C):,33.85,,
Humidity (%):,2.06,,
Lamp PD:,3800,,
Shift Vector Coefficients:,-10.5391,0.0761263,-0.000134223,,
Pixel to Wavelength Coefficients:,1775.68,-0.916766,-0.000235065,,
Serial Number:,5510004,,
Scan Config Name:,Column 1,,
Scan Config Type:,Slew,,
Section 1,,
Start wavelength (nm):,900,,
End wavelength (nm):,1700,,
Pattern Pixel Width (nm):,   7.03,,,,
Exposure (ms):,  0.635,,,,
Digital Resolution:,228,,
Num Repeats:,6,,
PGA Gain:,64,,
Total Measurement Time in sec:,  2.726,,
Wavelength (nm),Absorbance (AU),Reference Signal (unitless),Sample Signal (unitless)
901.51,1.301611,108485,5417
905.376,1.330529,121306,5667
909.237,1.302974,131909,6566
913.095,1.334010,143299,6641
916.948,1.317328,156982,7560
922.079,1.333954,179937,8340
925.923,1.326967,200504,9444
929.762,1.319641,222660,10666
933.597,1.326017,244426,11538
937.427,1.341762,263972,12017
941.254,1.315642,281845,13626
945.076,1.317756,297271,14302
950.165,1.311905,315605,15390
953.978,1.319543,328029,15717
957.786,1.311892,340470,16603
961.59,1.310195,352317,17248
965.389,1.317308,363056,17485
969.185,1.310325,373162,18263
972.976,1.315351,382632,18511
976.763,1.304398,391202,19409
981.806,1.304987,400190,19828
985.583,1.314661,406088,19677
989.355,1.308961,410162,20137
993.124,1.309708,412868,20235
996.888,1.307199,414263,20421
1000.65,1.305417,415476,20565
1004.4,1.302894,415479,20685
1009.41,1.310543,414358,20269
1013.15,1.307155,412923,20357
1016.89,1.308230,411526,20238
1020.63,1.309636,409066,20052
1024.36,1.304478,406777,20178
1028.09,1.302953,404427,20132
1031.82,1.312650,401911,19565
1036.78,1.308806,398410,19567
1040.49,1.304424,396204,19656
1044.2,1.302991,394236,19623
1047.91,1.314054,392042,19023
1051.61,1.311337,389823,19034
1055.31,1.304550,388234,19255
1059,1.313740,387599,18821
1063.92,1.309362,386688,18967
1067.61,1.306818,386598,19074
1071.29,1.317804,387377,18635
1074.96,1.312441,388536,18923
1078.63,1.320644,389855,18632
1082.3,1.308278,391215,19237
1085.96,1.318766,393215,18874
1090.84,1.309563,396270,19428
1094.49,1.312373,398760,19424
1098.14,1.311539,400987,19570
1101.79,1.323378,403477,19162
1105.43,1.317548,406116,19548
1109.06,1.319084,407701,19555
1112.7,1.317199,409859,19744
1117.53,1.317788,412494,19844
1121.15,1.318162,414909,19943
1124.77,1.316697,416559,20090
1128.38,1.317367,418532,20154
1131.99,1.317251,419956,20228
1135.6,1.321564,421946,20123
1139.2,1.317082,423881,20425
1143.99,1.321710,426786,20347
1147.58,1.322269,428617,20408
1151.17,1.320022,431169,20636
1154.75,1.320197,433579,20743
1158.33,1.323360,436264,20720
1161.91,1.317223,439132,21153
1165.48,1.310086,442389,21663
1169.04,1.319629,446101,21370
1173.79,1.316933,451929,21784
1177.34,1.315758,456026,22041
1180.9,1.314828,461306,22344
1184.44,1.315992,467657,22591
1187.99,1.319609,473969,22706
1191.52,1.326119,479856,22646
1195.06,1.315317,487372,23580
1199.76,1.319208,497347,23848
1203.29,1.320772,504311,24095
1206.81,1.330018,511507,23924
1210.33,1.310998,519078,25365
1213.84,1.326129,527163,24878
1217.35,1.315670,534208,25825
1220.85,1.325910,540472,25519
1225.51,1.322237,549929,26186
1229.01,1.322325,556888,26512
1232.5,1.320430,562180,26881
1235.98,1.318803,567975,27260
1239.46,1.324162,574815,27250
1242.94,1.320603,582782,27855
1246.41,1.321165,591476,28234
1251.03,1.323333,604016,28689
1254.5,1.329332,612289,28683
1257.96,1.323594,619125,29389
1261.41,1.328878,624551,29288
1264.86,1.321890,629900,30018
1268.31,1.326437,634345,29915
1271.75,1.327714,638574,30026
1276.33,1.326272,642499,30311
1279.76,1.325954,645905,30494
1283.19,1.324529,648307,30708
1286.61,1.323464,650446,30885
1290.03,1.325869,652132,30794
1293.44,1.330931,653907,30520
1296.85,1.334764,655963,30347
1301.39,1.330304,657349,30725
1304.8,1.333520,657558,30508
1308.19,1.326756,658515,31032
1311.58,1.327829,658804,30969
1314.97,1.326482,659011,31075
1318.36,1.334063,658272,30503
1321.73,1.330282,658022,30758
1326.23,1.332078,657870,30624
1329.6,1.329886,656482,30714
1332.97,1.333062,654926,30418
1336.33,1.347981,653727,29337
1339.69,1.331734,652497,30398
1343.04,1.333683,649913,30142
1346.39,1.325066,647671,30640
1349.73,1.328804,645338,30268
1354.18,1.330478,641175,29957
1357.52,1.328752,638376,29945
1360.85,1.321638,635805,30317
1364.17,1.332233,633413,29475
1367.49,1.330240,631026,29499
1370.81,1.329204,628050,29430
1374.12,1.323147,625034,29700
1378.54,1.327125,620272,29205
1381.84,1.325630,616892,29146
1385.14,1.321962,613613,29237
1388.43,1.326374,611526,28843
1391.72,1.329041,610663,28626
1395.01,1.325951,610634,28829
1398.29,1.331739,611700,28497
1402.66,1.329960,614051,28724
1405.93,1.330709,616268,28778
1409.2,1.332056,617795,28760
1412.46,1.332797,618872,28761
1415.72,1.329925,619795,28995
1418.98,1.333949,620495,28760
1422.23,1.333037,621087,28848
1426.56,1.327466,621375,29234
1429.8,1.335051,621616,28739
1433.04,1.337408,622129,28607
1436.27,1.333253,621526,28854
1439.5,1.332077,621113,28913
1442.72,1.335018,620921,28709
1445.94,1.332209,620270,28865
1450.23,1.331657,618860,28836
1453.44,1.334015,617697,28626
1456.64,1.333826,616264,28572
1459.85,1.333676,614413,28496
1463.04,1.340883,612307,27931
1466.24,1.335350,610032,28184
1469.43,1.336060,607345,28014
1473.67,1.337075,603789,27785
1476.85,1.330635,601175,28078
1480.02,1.334470,597737,27672
1483.19,1.336592,594479,27387
1486.36,1.332409,591232,27501
1489.52,1.332724,587853,27324
1492.68,1.337214,583875,26860
1496.89,1.333321,578062,26832
1500.03,1.336016,574159,26486
1503.18,1.333404,570285,26466
1506.32,1.336065,565444,26081
1509.45,1.335801,560571,25872
1512.58,1.340717,555821,25364
1515.71,1.339423,550344,25189
1519.87,1.332139,543983,25319
1522.99,1.336352,538764,24834
1526.1,1.331458,533692,24879
1529.21,1.334132,527902,24458
1532.32,1.338179,521886,23955
1535.42,1.328614,515888,24207
1538.51,1.338696,509987,23381
1541.6,1.332288,503936,23447
1545.72,1.332496,494694,23006
1548.8,1.334686,488378,22598
1551.88,1.332589,481832,22403
1554.95,1.339884,474989,21717
1558.02,1.338832,467818,21441
1561.08,1.324651,460730,21817
1564.15,1.333039,454170,21095
1568.22,1.327559,444181,20893
1571.27,1.330373,436947,20420
1574.32,1.332793,429598,19965
1577.36,1.332676,422039,19619
1580.4,1.335838,414375,19123
1583.43,1.323798,406354,19280
1586.46,1.325781,398475,18820
1590.49,1.323228,388982,18480
1593.51,1.332741,380708,17695
1596.53,1.332066,372727,17351
1599.54,1.326205,365060,17225
1602.55,1.323058,357543,16993
1605.55,1.326826,349495,16467
1608.55,1.320576,341154,16307
1612.54,1.320597,330877,15815
1615.53,1.330758,322904,15077
1618.51,1.338032,315116,14469
1621.49,1.320986,307217,14671
1624.47,1.323286,299481,14226
1627.44,1.315838,292112,14116
1630.41,1.316624,284245,13711
1634.36,1.320936,274079,13090
1637.32,1.308606,266916,13115
1640.27,1.323890,259612,12315
1643.22,1.316236,251804,12157
1646.16,1.310132,244348,11964
1649.1,1.302616,236703,11792
1652.04,1.311414,228171,11139
1655.95,1.316688,215408,10389
1658.88,1.286151,204937,10604
1661.8,1.281393,193395,10117
1664.72,1.265388,179728,9755
1667.63,1.256335,163642,9069
1670.54,1.263168,146312,7982
1673.44,1.205702,128451,7999
1677.31,1.184247,105080,6875
1680.21,1.179997,88906,5874
1683.1,1.214387,75033,4580
1685.99,1.163723,63520,4357
1688.87,1.141144,53714,3881
1691.75,1.176739,45653,3039
1694.62,1.220228,39137,2357
1697.49,1.186976,33776,2196
1701.31,1.267164,28175,1523