File: ML/samples/unknown/Column 1_078560_20241121_170841.csv
Method:,Column 1,,
Host Date-Time:,21/11/24 @ 17:8:41,,
Header Version:,1,,
System Temp (C):,35.86,,
Detector Temp (C):,34.46,,
Humidity (%):,1.37,,
Lamp PD:,3799,,
Shift Vector Coefficients:,-10.5391,0.0761263,-0.000134223,,
Pixel to Wavelength Coefficients:,1775.68,-0.916766,-0.000235065,,
Serial Number:,5510004,,
Scan Config Name:,Column 1,,
Scan Config Type:,Slew,,
Section 1,,
Start wavelength (nm):,900,,
End wavelength (nm):,1700,,
Pattern Pixel Width (nm):,   7.03,,,,
Exposure (ms):,  0.635,,,,
Digital Resolution:,228,,
Num Repeats:,6,,
PGA Gain:,64,,
Total Measurement Time in sec:,  2.726,,
Wavelength (nm),Absorbance (AU),Reference Signal (unitless),Sample Signal (unitless)
901.51,1.304668,108485,5379
905.376,1.327627,121306,5705
909.237,1.291615,131909,6740
913.095,1.324245,143299,6792
916.948,1.312586,156982,7643
922.079,1.313112,179937,8750
925.923,1.322120,200504,9550
929.762,1.319478,222660,10670
933.597,1.312272,244426,11909
937.427,1.328171,263972,12399
941.254,1.325637,281845,13316
945.076,1.313435,297271,14445
950.165,1.314254,315605,15307
953.978,1.299482,328029,16460
957.786,1.311343,340470,16624
961.59,1.308963,352317,17297
965.389,1.310873,363056,17746
969.185,1.306914,373162,18407
972.976,1.305539,382632,18934
976.763,1.306237,391202,19327
981.806,1.313034,400190,19464
985.583,1.315965,406088,19618
989.355,1.303986,410162,20369
993.124,1.313524,412868,20058
996.888,1.310294,414263,20276
1000.65,1.306284,415476,20524
1004.4,1.311867,415479,20262
1009.41,1.302982,414358,20625
1013.15,1.317715,412923,19868
1016.89,1.308294,411526,20235
1020.63,1.306163,409066,20213
1024.36,1.312889,406777,19791
1028.09,1.304076,404427,20080
1031.82,1.304535,401911,19934
1036.78,1.300387,398410,19950
1040.49,1.298869,396204,19909
1044.2,1.317872,394236,18962
1047.91,1.306562,392042,19354
1051.61,1.314567,389823,18893
1055.31,1.309449,388234,19039
1059,1.301814,387599,19345
1063.92,1.306282,386688,19102
1067.61,1.310844,386598,18898
1071.29,1.302037,387377,19324
1074.96,1.303424,388536,19320
1078.63,1.309007,389855,19138
1082.3,1.300536,391215,19583
1085.96,1.307523,393215,19369
1090.84,1.307000,396270,19543
1094.49,1.299421,398760,20012
1098.14,1.312006,400987,19549
1101.79,1.310714,403477,19729
1105.43,1.313369,406116,19737
1109.06,1.314555,407701,19760
1112.7,1.315794,409859,19808
1117.53,1.312567,412494,20084
1121.15,1.305903,414909,20514
1124.77,1.309876,416559,20408
1128.38,1.314511,418532,20287
1131.99,1.317337,419956,20224
1135.6,1.310148,421946,20659
1139.2,1.317316,423881,20414
1143.99,1.314975,426786,20665
1147.58,1.315386,428617,20734
1151.17,1.314480,431169,20901
1154.75,1.324066,433579,20559
1158.33,1.318255,436264,20965
1161.91,1.313849,439132,21318
1165.48,1.318200,442389,21262
1169.04,1.314618,446101,21618
1173.79,1.312766,451929,21994
1177.34,1.316764,456026,21990
1180.9,1.318008,461306,22181
1184.44,1.316338,467657,22573
1187.99,1.311875,473969,23114
1191.52,1.316898,479856,23132
1195.06,1.311685,487372,23778
1199.76,1.313760,497347,24149
1203.29,1.319206,504311,24182
1206.81,1.318959,511507,24541
1210.33,1.327434,519078,24423
1213.84,1.318516,527163,25318
1217.35,1.317879,534208,25694
1220.85,1.339110,540472,24755
1225.51,1.323699,549929,26098
1229.01,1.315822,556888,26912
1232.5,1.316970,562180,27096
1235.98,1.315898,567975,27443
1239.46,1.327024,574815,27071
1242.94,1.323371,582782,27678
1246.41,1.320105,591476,28303
1251.03,1.321234,604016,28828
1254.5,1.321633,612289,29196
1257.96,1.317009,619125,29838
1261.41,1.323397,624551,29660
1264.86,1.324677,629900,29826
1268.31,1.321098,634345,30285
1271.75,1.327960,638574,30009
1276.33,1.320437,642499,30721
1279.76,1.320112,645905,30907
1283.19,1.323696,648307,30767
1286.61,1.326512,650446,30669
1290.03,1.323717,652132,30947
1293.44,1.326317,653907,30846
1296.85,1.319659,655963,31421
1301.39,1.328949,657349,30821
1304.8,1.327835,657558,30910
1308.19,1.329099,658515,30865
1311.58,1.328854,658804,30896
1314.97,1.328148,659011,30956
1318.36,1.324098,658272,31211
1321.73,1.330183,658022,30765
1326.23,1.326232,657870,31039
1329.6,1.325805,656482,31004
1332.97,1.327472,654926,30812
1336.33,1.335203,653727,30213
1339.69,1.325126,652497,30864
1343.04,1.331269,649913,30310
1346.39,1.324896,647671,30652
1349.73,1.326785,645338,30409
1354.18,1.325233,641175,30321
1357.52,1.320606,638376,30512
1360.85,1.320636,635805,30387
1364.17,1.324392,633413,30012
1367.49,1.327247,631026,29703
1370.81,1.325457,628050,29685
1374.12,1.332205,625034,29087
1378.54,1.323541,620272,29447
1381.84,1.323075,616892,29318
1385.14,1.325556,613613,28996
1388.43,1.321836,611526,29146
1391.72,1.325897,610663,28834
1395.01,1.322485,610634,29060
1398.29,1.321185,611700,29198
1402.66,1.325103,614051,29047
1405.93,1.323258,616268,29276
1409.2,1.328671,617795,28985
1412.46,1.326739,618872,29165
1415.72,1.323192,619795,29448
1418.98,1.326731,620495,29242
1422.23,1.331834,621087,28928
1426.56,1.328462,621375,29167
1429.8,1.328824,621616,29154
1433.04,1.327339,622129,29278
1436.27,1.328836,621526,29149
1439.5,1.326748,621113,29270
1442.72,1.332259,620921,28892
1445.94,1.327317,620270,29192
1450.23,1.325823,618860,29226
1453.44,1.335017,617697,28560
1456.64,1.328238,616264,28942
1459.85,1.333981,614413,28476
1463.04,1.334064,612307,28373
1466.24,1.333045,610032,28334
1469.43,1.333865,607345,28156
1473.67,1.328455,603789,28342
1476.85,1.333070,601175,27921
1480.02,1.328562,597737,28051
1483.19,1.335816,594479,27436
1486.36,1.329702,591232,27673
1489.52,1.328816,587853,27571
1492.68,1.334313,583875,27040
1496.89,1.328749,578062,27116
1500.03,1.334102,574159,26603
1503.18,1.335328,570285,26349
1506.32,1.331774,565444,26340
1509.45,1.336792,560571,25813
1512.58,1.338207,555821,25511
1515.71,1.332411,550344,25599
1519.87,1.337350,543983,25017
1522.99,1.334990,538764,24912
1526.1,1.336886,533692,24570
1529.21,1.333458,527902,24496
1532.32,1.329670,521886,24429
1535.42,1.329387,515888,24164
1538.51,1.329434,509987,23885
1541.6,1.337881,503936,23147
1545.72,1.330386,494694,23118
1548.8,1.327463,488378,22977
1551.88,1.331409,481832,22464
1554.95,1.332232,474989,22103
1558.02,1.332598,467818,21751
1561.08,1.328872,460730,21606
1564.15,1.332627,454170,21115
1568.22,1.328100,444181,20867
1571.27,1.337600,436947,20083
1574.32,1.324839,429598,20334
1577.36,1.330181,422039,19732
1580.4,1.329838,414375,19389
1583.43,1.327031,406354,19137
1586.46,1.332948,398475,18512
1590.49,1.324098,388982,18443
1593.51,1.329636,380708,17822
1596.53,1.327262,372727,17544
1599.54,1.323942,365060,17315
1602.55,1.322752,357543,17005
1605.55,1.332107,349495,16268
1608.55,1.325909,341154,16108
1612.54,1.314787,330877,16028
1615.53,1.320905,322904,15423
1618.51,1.314347,315116,15280
1621.49,1.326347,307217,14491
1624.47,1.315031,299481,14499
1627.44,1.309606,292112,14320
1630.41,1.321081,284245,13571
1634.36,1.317137,274079,13205
1637.32,1.312966,266916,12984
1640.27,1.302793,259612,12928
1643.22,1.310769,251804,12311
1646.16,1.322392,244348,11631
1649.1,1.309559,236703,11605
1652.04,1.301165,228171,11405
1655.95,1.310215,215408,10545
1658.88,1.290762,204937,10492
1661.8,1.292392,193395,9864
1664.72,1.273613,179728,9572
1667.63,1.250863,163642,9184
1670.54,1.248090,146312,8264
1673.44,1.230791,128451,7550
1677.31,1.196419,105080,6685
1680.21,1.167750,88906,6042
1683.1,1.191125,75033,4832
1685.99,1.166523,63520,4329
1688.87,1.216737,53714,3261
1691.75,1.144789,45653,3271
1694.62,1.165914,39137,2671
1697.49,1.151120,33776,2385
1701.31,1.136419,28175,2058