File: ML/samples/unknown/Column 1_078372_20241121_165848.csv
Method:,Column 1,,
Host Date-Time:,21/11/24 @ 16:58:48,,
Header Version:,1,,
System Temp (C):,35.06,,
Detector Temp (C):,33.44,,
Humidity (%):,1.81,,
Lamp PD:,3801,,
Shift Vector Coefficients:,-10.5391,0.0761263,-0.000134223,,
Pixel to Wavelength Coefficients:,1775.68,-0.916766,-0.000235065,,
Serial Number:,5510004,,
Scan Config Name:,Column 1,,
Scan Config Type:,Slew,,
Section 1,,
Start wavelength (nm):,900,,
End wavelength (nm):,1700,,
Pattern Pixel Width (nm):,   7.03,,,,
Exposure (ms):,  0.635,,,,
Digital Resolution:,228,,
Num Repeats:,6,,
PGA Gain:,64,,
Total Measurement Time in sec:, 39.923,,
Wavelength (nm),Absorbance (AU),Reference Signal (unitless),Sample Signal (unitless)
901.51,1.312983,108485,5277
905.376,1.344943,121306,5482
909.237,1.332318,131909,6137
913.095,1.324949,143299,6781
916.948,1.325797,156982,7414
922.079,1.332758,179937,8363
925.923,1.327013,200504,9443
929.762,1.328484,222660,10451
933.597,1.343177,244426,11091
937.427,1.325831,263972,12466
941.254,1.324334,281845,13356
945.076,1.331139,297271,13868
950.165,1.310159,315605,15452
953.978,1.311006,328029,16029
957.786,1.319838,340470,16302
961.59,1.310472,352317,17237
965.389,1.305063,363056,17985
969.185,1.309399,373162,18302
972.976,1.318909,382632,18360
976.763,1.312438,391202,19053
981.806,1.309523,400190,19622
985.583,1.311977,406088,19799
989.355,1.310343,410162,20073
993.124,1.305798,412868,20418
996.888,1.316529,414263,19987
1000.65,1.307577,415476,20463
1004.4,1.312789,415479,20219
1009.41,1.307426,414358,20415
1013.15,1.319665,412923,19779
1016.89,1.309239,411526,20191
1020.63,1.310959,409066,19991
1024.36,1.306355,406777,20091
1028.09,1.320002,404427,19357
1031.82,1.305866,401911,19873
1036.78,1.317550,398410,19177
1040.49,1.303012,396204,19720
1044.2,1.307149,394236,19436
1047.91,1.315678,392042,18952
1051.61,1.309857,389823,19099
1055.31,1.311966,388234,18929
1059,1.318613,387599,18611
1063.92,1.309293,386688,18970
1067.61,1.311120,386598,18886
1071.29,1.316106,387377,18708
1074.96,1.319405,388536,18622
1078.63,1.320620,389855,18633
1082.3,1.323510,391215,18574
1085.96,1.322139,393215,18728
1090.84,1.318347,396270,19039
1094.49,1.318022,398760,19173
1098.14,1.320486,400987,19171
1101.79,1.314916,403477,19539
1105.43,1.322126,406116,19343
1109.06,1.325776,407701,19256
1112.7,1.307133,409859,20207
1117.53,1.316107,412494,19921
1121.15,1.328052,414909,19494
1124.77,1.316589,416559,20095
1128.38,1.323881,418532,19854
1131.99,1.313637,419956,20397
1135.6,1.317825,421946,20297
1139.2,1.315321,423881,20508
1143.99,1.319517,426786,20450
1147.58,1.325366,428617,20263
1151.17,1.324103,431169,20443
1154.75,1.315739,433579,20957
1158.33,1.326747,436264,20559
1161.91,1.314134,439132,21304
1165.48,1.320412,442389,21154
1169.04,1.314899,446101,21604
1173.79,1.316016,451929,21830
1177.34,1.320872,456026,21783
1180.9,1.319616,461306,22099
1184.44,1.318788,467657,22446
1187.99,1.316560,473969,22866
1191.52,1.326945,479856,22603
1195.06,1.316978,487372,23490
1199.76,1.324116,497347,23580
1203.29,1.323447,504311,23947
1206.81,1.321871,511507,24377
1210.33,1.332226,519078,24155
1213.84,1.321252,527163,25159
1217.35,1.327259,534208,25145
1220.85,1.321524,540472,25778
1225.51,1.322022,549929,26199
1229.01,1.325268,556888,26333
1232.5,1.331740,562180,26190
1235.98,1.321568,567975,27087
1239.46,1.324178,574815,27249
1242.94,1.327217,582782,27434
1246.41,1.322937,591476,28119
1251.03,1.328603,604016,28343
1254.5,1.324080,612289,29032
1257.96,1.326663,619125,29182
1261.41,1.324496,624551,29585
1264.86,1.327042,629900,29664
1268.31,1.328430,634345,29778
1271.75,1.324242,638574,30267
1276.33,1.326086,642499,30324
1279.76,1.328697,645905,30302
1283.19,1.328022,648307,30462
1286.61,1.325748,650446,30723
1290.03,1.332105,652132,30355
1293.44,1.334432,653907,30275
1296.85,1.332679,655963,30493
1301.39,1.333439,657349,30504
1304.8,1.332057,657558,30611
1308.19,1.330452,658515,30769
1311.58,1.341331,658804,30021
1314.97,1.330737,659011,30772
1318.36,1.329841,658272,30801
1321.73,1.333812,658022,30509
1326.23,1.336268,657870,30330
1329.6,1.332752,656482,30512
1332.97,1.331039,654926,30560
1336.33,1.333309,653727,30345
1339.69,1.331605,652497,30407
1343.04,1.333971,649913,30122
1346.39,1.331304,647671,30203
1349.73,1.330658,645338,30139
1354.18,1.329436,641175,30029
1357.52,1.335741,638376,29467
1360.85,1.323979,635805,30154
1364.17,1.327208,633413,29818
1367.49,1.331995,631026,29380
1370.81,1.331275,628050,29290
1374.12,1.331220,625034,29153
1378.54,1.332783,620272,28827
1381.84,1.329777,616892,28869
1385.14,1.327824,613613,28845
1388.43,1.324751,611526,28951
1391.72,1.324949,610663,28897
1395.01,1.327219,610634,28745
1398.29,1.327342,611700,28787
1402.66,1.333451,614051,28494
1405.93,1.333161,616268,28616
1409.2,1.331452,617795,28800
1412.46,1.329832,618872,28958
1415.72,1.331440,619795,28894
1418.98,1.331510,620495,28922
1422.23,1.333866,621087,28793
1426.56,1.336517,621375,28631
1429.8,1.332159,621616,28931
1433.04,1.341511,622129,28338
1436.27,1.338066,621526,28536
1439.5,1.337169,621113,28576
1442.72,1.333629,620921,28801
1445.94,1.332555,620270,28842
1450.23,1.330800,618860,28893
1453.44,1.343307,617697,28020
1456.64,1.332915,616264,28632
1459.85,1.337642,614413,28237
1463.04,1.336228,612307,28232
1466.24,1.329154,610032,28589
1469.43,1.339313,607345,27805
1473.67,1.335063,603789,27914
1476.85,1.332821,601175,27937
1480.02,1.334784,597737,27652
1483.19,1.336434,594479,27397
1486.36,1.343429,591232,26812
1489.52,1.336829,587853,27067
1492.68,1.342534,583875,26533
1496.89,1.338532,578062,26512
1500.03,1.340416,574159,26219
1503.18,1.335048,570285,26366
1506.32,1.335982,565444,26086
1509.45,1.335532,560571,25888
1512.58,1.338855,555821,25473
1515.71,1.343703,550344,24942
1519.87,1.334926,543983,25157
1522.99,1.339987,538764,24627
1526.1,1.340471,533692,24368
1529.21,1.339852,527902,24138
1532.32,1.345511,521886,23554
1535.42,1.344976,515888,23312
1538.51,1.327891,509987,23970
1541.6,1.340364,503936,23015
1545.72,1.338732,494694,22678
1548.8,1.345899,488378,22022
1551.88,1.331177,481832,22476
1554.95,1.342371,474989,21593
1558.02,1.346495,467818,21066
1561.08,1.334395,460730,21333
1564.15,1.337842,454170,20863
1568.22,1.325672,444181,20984
1571.27,1.336477,436947,20135
1574.32,1.346606,429598,19340
1577.36,1.336634,422039,19441
1580.4,1.333211,414375,19239
1583.43,1.322583,406354,19334
1586.46,1.332291,398475,18540
1590.49,1.340560,388982,17757
1593.51,1.334956,380708,17605
1596.53,1.324154,372727,17670
1599.54,1.320718,365060,17444
1602.55,1.319825,357543,17120
1605.55,1.328624,349495,16399
1608.55,1.325666,341154,16117
1612.54,1.328271,330877,15538
1615.53,1.314504,322904,15652
1618.51,1.325926,315116,14878
1621.49,1.321786,307217,14644
1624.47,1.341459,299481,13643
1627.44,1.332394,292112,13588
1630.41,1.321049,284245,13572
1634.36,1.313730,274079,13309
1637.32,1.330230,266916,12478
1640.27,1.324349,259612,12302
1643.22,1.314134,251804,12216
1646.16,1.301400,244348,12207
1649.1,1.318481,236703,11369
1652.04,1.311219,228171,11144
1655.95,1.298233,215408,10840
1658.88,1.298277,204937,10312
1661.8,1.288535,193395,9952
1664.72,1.289979,179728,9218
1667.63,1.264310,163642,8904
1670.54,1.250514,146312,8218
1673.44,1.230273,128451,7559
1677.31,1.209476,105080,6487
1680.21,1.180811,88906,5863
1683.1,1.200299,75033,4731
1685.99,1.196852,63520,4037
1688.87,1.192143,53714,3451
1691.75,1.147452,45653,3251
1694.62,1.152308,39137,2756
1697.49,1.234142,33776,1970
1701.31,1.162734,28175,1937