File: ML/samples/unknown/Column 1_078202_20241121_165029.csv
Method:,Column 1,,
Host Date-Time:,21/11/24 @ 16:50:29,,
Header Version:,1,,
System Temp (C):,33.84,,
Detector Temp (C):,30.71,,
Humidity (%):,3.03,,
Lamp PD:,3804,,
Shift Vector Coefficients:,-10.5391,0.0761263,-0.000134223,,
Pixel to Wavelength Coefficients:,1775.68,-0.916766,-0.000235065,,
Serial Number:,5510004,,
Scan Config Name:,Column 1,,
Scan Config Type:,Slew,,
Section 1,,
Start wavelength (nm):,900,,
End wavelength (nm):,1700,,
Pattern Pixel Width (nm):,   7.03,,,,
Exposure (ms):,  0.635,,,,
Digital Resolution:,228,,
Num Repeats:,6,,
PGA Gain:,64,,
Total Measurement Time in sec:,  2.707,,
Wavelength (nm),Absorbance (AU),Reference Signal (unitless),Sample Signal (unitless)
901.51,1.294139,108485,5511
905.376,1.330529,121306,5667
909.237,1.346269,131909,5943
913.095,1.306701,143299,7072
916.948,1.310432,156982,7681
922.079,1.320067,179937,8611
925.923,1.308114,200504,9863
929.762,1.328609,222660,10448
933.597,1.317223,244426,11774
937.427,1.320189,263972,12629
941.254,1.314878,281845,13650
945.076,1.321997,297271,14163
950.165,1.307051,315605,15563
953.978,1.305620,328029,16229
957.786,1.309596,340470,16691
961.59,1.309692,352317,17268
965.389,1.303256,363056,18060
969.185,1.310444,373162,18258
972.976,1.316408,382632,18466
976.763,1.315824,391202,18905
981.806,1.303762,400190,19884
985.583,1.306549,406088,20048
989.355,1.302857,410162,20422
993.124,1.302999,412868,20550
996.888,1.302482,414263,20644
1000.65,1.312829,415476,20217
1004.4,1.302348,415479,20711
1009.41,1.312605,414358,20173
1013.15,1.314015,412923,20038
1016.89,1.316396,411526,19861
1020.63,1.308835,409066,20089
1024.36,1.316790,406777,19614
1028.09,1.322906,404427,19228
1031.82,1.312073,401911,19591
1036.78,1.305996,398410,19694
1040.49,1.305109,396204,19625
1044.2,1.309817,394236,19317
1047.91,1.306024,392042,19378
1051.61,1.306437,389823,19250
1055.31,1.316509,388234,18732
1059,1.313440,387599,18834
1063.92,1.306100,386688,19110
1067.61,1.314722,386598,18730
1071.29,1.310708,387377,18942
1074.96,1.311272,388536,18974
1078.63,1.313294,389855,18950
1082.3,1.307962,391215,19251
1085.96,1.314781,393215,19048
1090.84,1.312907,396270,19279
1094.49,1.313649,398760,19367
1098.14,1.309922,400987,19643
1101.79,1.322925,403477,19182
1105.43,1.318259,406116,19516
1109.06,1.316427,407701,19675
1112.7,1.318190,409859,19699
1117.53,1.312243,412494,20099
1121.15,1.308898,414909,20373
1124.77,1.312266,416559,20296
1128.38,1.325524,418532,19779
1131.99,1.315986,419956,20287
1135.6,1.324922,421946,19968
1139.2,1.323983,423881,20103
1143.99,1.316069,426786,20613
1147.58,1.319321,428617,20547
1151.17,1.319160,431169,20677
1154.75,1.314064,433579,21038
1158.33,1.311023,436264,21317
1161.91,1.311188,439132,21449
1165.48,1.316488,442389,21346
1169.04,1.325542,446101,21081
1173.79,1.322046,451929,21529
1177.34,1.322770,456026,21688
1180.9,1.316796,461306,22243
1184.44,1.321078,467657,22328
1187.99,1.319017,473969,22737
1191.52,1.321541,479856,22886
1195.06,1.316534,487372,23514
1199.76,1.327147,497347,23416
1203.29,1.325265,504311,23847
1206.81,1.314242,511507,24809
1210.33,1.317797,519078,24971
1213.84,1.323814,527163,25011
1217.35,1.316613,534208,25769
1220.85,1.320413,540472,25844
1225.51,1.322752,549929,26155
1229.01,1.321115,556888,26586
1232.5,1.326073,562180,26534
1235.98,1.328404,567975,26664
1239.46,1.324704,574815,27216
1242.94,1.316939,582782,28091
1246.41,1.319047,591476,28372
1251.03,1.325518,604016,28545
1254.5,1.323661,612289,29060
1257.96,1.331211,619125,28878
1261.41,1.325202,624551,29537
1264.86,1.325041,629900,29801
1268.31,1.330213,634345,29656
1271.75,1.331418,638574,29771
1276.33,1.331171,642499,29971
1279.76,1.324518,645905,30595
1283.19,1.328407,648307,30435
1286.61,1.328598,650446,30522
1290.03,1.330363,652132,30477
1293.44,1.324028,653907,31009
1296.85,1.327469,655963,30861
1301.39,1.330262,657349,30728
1304.8,1.324881,657558,31121
1308.19,1.330805,658515,30744
1311.58,1.333461,658804,30570
1314.97,1.331556,659011,30714
1318.36,1.334390,658272,30480
1321.73,1.326795,658022,31006
1326.23,1.331285,657870,30680
1329.6,1.328954,656482,30780
1332.97,1.330074,654926,30628
1336.33,1.333982,653727,30298
1339.69,1.334514,652497,30204
1343.04,1.330067,649913,30394
1346.39,1.329797,647671,30308
1349.73,1.330658,645338,30139
1354.18,1.335186,641175,29634
1357.52,1.332539,638376,29685
1360.85,1.325638,635805,30039
1364.17,1.319972,633413,30319
1367.49,1.326692,631026,29741
1370.81,1.326996,628050,29580
1374.12,1.322037,625034,29776
1378.54,1.325952,620272,29284
1381.84,1.332267,616892,28704
1385.14,1.331726,613613,28587
1388.43,1.327188,611526,28789
1391.72,1.323464,610663,28996
1395.01,1.324087,610634,28953
1398.29,1.332517,611700,28446
1402.66,1.332203,614051,28576
1405.93,1.328992,616268,28892
1409.2,1.328746,617795,28980
1412.46,1.329517,618872,28979
1415.72,1.326196,619795,29245
1418.98,1.333376,620495,28798
1422.23,1.331159,621087,28973
1426.56,1.333359,621375,28840
1429.8,1.332669,621616,28897
1433.04,1.329227,622129,29151
1436.27,1.335275,621526,28720
1439.5,1.331852,621113,28928
1442.72,1.331028,620921,28974
1445.94,1.337858,620270,28492
1450.23,1.343845,618860,28038
1453.44,1.328542,617697,28989
1456.64,1.333477,616264,28595
1459.85,1.329339,614413,28782
1463.04,1.337090,612307,28176
1466.24,1.334749,610032,28223
1469.43,1.337971,607345,27891
1473.67,1.340133,603789,27590
1476.85,1.338990,601175,27543
1480.02,1.336483,597737,27544
1483.19,1.339105,594479,27229
1486.36,1.340861,591232,26971
1489.52,1.331439,587853,27405
1492.68,1.333351,583875,27100
1496.89,1.335903,578062,26673
1500.03,1.340068,574159,26240
1503.18,1.330590,570285,26638
1506.32,1.335283,565444,26128
1509.45,1.338174,560571,25731
1512.58,1.335255,555821,25685
1515.71,1.336965,550344,25332
1519.87,1.334116,543983,25204
1522.99,1.340728,538764,24585
1526.1,1.335104,533692,24671
1529.21,1.339996,527902,24130
1532.32,1.331041,521886,24352
1535.42,1.339110,515888,23629
1538.51,1.337713,509987,23434
1541.6,1.333178,503936,23399
1545.72,1.332609,494694,23000
1548.8,1.337791,488378,22437
1551.88,1.337247,481832,22164
1554.95,1.336279,474989,21898
1558.02,1.334118,467818,21675
1561.08,1.325129,460730,21793
1564.15,1.331703,454170,21160
1568.22,1.333082,444181,20629
1571.27,1.327237,436947,20568
1574.32,1.338640,429598,19698
1577.36,1.333939,422039,19562
1580.4,1.338594,414375,19002
1583.43,1.334539,406354,18809
1586.46,1.325920,398475,18814
1590.49,1.337732,388982,17873
1593.51,1.332422,380708,17708
1596.53,1.330542,372727,17412
1599.54,1.333784,365060,16927
1602.55,1.323007,357543,16995
1605.55,1.325221,349495,16528
1608.55,1.331717,341154,15894
1612.54,1.329840,330877,15482
1615.53,1.320623,322904,15433
1618.51,1.326890,315116,14845
1621.49,1.317330,307217,14795
1624.47,1.329931,299481,14010
1627.44,1.315223,292112,14136
1630.41,1.315485,284245,13747
1634.36,1.330293,274079,12811
1637.32,1.325143,266916,12625
1640.27,1.314506,259612,12584
1643.22,1.334178,251804,11665
1646.16,1.308538,244348,12008
1649.1,1.311622,236703,11550
1652.04,1.317975,228171,10972
1655.95,1.306933,215408,10625
1658.88,1.299881,204937,10274
1661.8,1.299674,193395,9700
1664.72,1.292483,179728,9165
1667.63,1.282946,163642,8530
1670.54,1.264149,146312,7964
1673.44,1.248999,128451,7240
1677.31,1.251626,105080,5887
1680.21,1.258027,88906,4908
1683.1,1.193830,75033,4802
1685.99,1.221986,63520,3810
1688.87,1.200016,53714,3389
1691.75,1.241334,45653,2619
1694.62,1.205198,39137,2440
1697.49,1.259095,33776,1860
1701.31,1.112005,28175,2177