File: ML/samples/unknown/Column 1_078079_20241121_164426.csv
Method:,Column 1,,
Host Date-Time:,21/11/24 @ 16:44:26,,
Header Version:,1,,
System Temp (C):,31.74,,
Detector Temp (C):,26.63,,
Humidity (%):,4.93,,
Lamp PD:,3808,,
Shift Vector Coefficients:,-10.5391,0.0761263,-0.000134223,,
Pixel to Wavelength Coefficients:,1775.68,-0.916766,-0.000235065,,
Serial Number:,5510004,,
Scan Config Name:,Column 1,,
Scan Config Type:,Slew,,
Section 1,,
Start wavelength (nm):,900,,
End wavelength (nm):,1700,,
Pattern Pixel Width (nm):,   7.03,,,,
Exposure (ms):,  0.635,,,,
Digital Resolution:,228,,
Num Repeats:,6,,
PGA Gain:,64,,
Total Measurement Time in sec:,  2.706,,
Wavelength (nm),Absorbance (AU),Reference Signal (unitless),Sample Signal (unitless)
901.51,1.308154,108485,5336
905.376,1.353261,121306,5378
909.237,1.339669,131909,6034
913.095,1.329003,143299,6718
916.948,1.331932,156982,7310
922.079,1.322799,179937,8557
925.923,1.320939,200504,9576
929.762,1.325420,222660,10525
933.597,1.311289,244426,11936
937.427,1.307147,263972,13014
941.254,1.325245,281845,13328
945.076,1.315786,297271,14367
950.165,1.316758,315605,15219
953.978,1.313233,328029,15947
957.786,1.313045,340470,16559
961.59,1.319433,352317,16885
965.389,1.312934,363056,17662
969.185,1.315396,373162,18051
972.976,1.307355,382632,18855
976.763,1.315159,391202,18934
981.806,1.314465,400190,19400
985.583,1.307959,406088,19983
989.355,1.319858,410162,19638
993.124,1.305352,412868,20439
996.888,1.313929,414263,20107
1000.65,1.305882,415476,20543
1004.4,1.310433,415479,20329
1009.41,1.313726,414358,20121
1013.15,1.315317,412923,19978
1016.89,1.306239,411526,20331
1020.63,1.312460,409066,19922
1024.36,1.313987,406777,19741
1028.09,1.319218,404427,19392
1031.82,1.309906,401911,19689
1036.78,1.311366,398410,19452
1040.49,1.313917,396204,19231
1044.2,1.302770,394236,19633
1047.91,1.315128,392042,18976
1051.61,1.315948,389823,18833
1055.31,1.310912,388234,18975
1059,1.313948,387599,18812
1063.92,1.312142,386688,18846
1067.61,1.320887,386598,18466
1071.29,1.319860,387377,18547
1074.96,1.326269,388536,18330
1078.63,1.310666,389855,19065
1082.3,1.318951,391215,18770
1085.96,1.313392,393215,19109
1090.84,1.320611,396270,18940
1094.49,1.317094,398760,19214
1098.14,1.323965,400987,19018
1101.79,1.327980,403477,18960
1105.43,1.318415,406116,19509
1109.06,1.324942,407701,19293
1112.7,1.325326,409859,19378
1117.53,1.318117,412494,19829
1121.15,1.323002,414909,19722
1124.77,1.324505,416559,19732
1128.38,1.318489,418532,20102
1131.99,1.319101,419956,20142
1135.6,1.321025,421946,20148
1139.2,1.316763,423881,20440
1143.99,1.312168,426786,20799
1147.58,1.312589,428617,20868
1151.17,1.323445,431169,20474
1154.75,1.315553,433579,20966
1158.33,1.329885,436264,20411
1161.91,1.329635,439132,20557
1165.48,1.327449,442389,20814
1169.04,1.318776,446101,21412
1173.79,1.317811,451929,21740
1177.34,1.320912,456026,21781
1180.9,1.323783,461306,21888
1184.44,1.318769,467657,22447
1187.99,1.322623,473969,22549
1191.52,1.318968,479856,23022
1195.06,1.324061,487372,23110
1199.76,1.326665,497347,23442
1203.29,1.326249,504311,23793
1206.81,1.323674,511507,24276
1210.33,1.326883,519078,24454
1213.84,1.330533,527163,24627
1217.35,1.322979,534208,25394
1220.85,1.327717,540472,25413
1225.51,1.331253,549929,25648
1229.01,1.331329,556888,25968
1232.5,1.327893,562180,26423
1235.98,1.324416,567975,26910
1239.46,1.331620,574815,26786
1242.94,1.328469,582782,27355
1246.41,1.328361,591476,27770
1251.03,1.329369,604016,28293
1254.5,1.327654,612289,28794
1257.96,1.333065,619125,28755
1261.41,1.323968,624551,29621
1264.86,1.328273,629900,29580
1268.31,1.328415,634345,29779
1271.75,1.330136,638574,29859
1276.33,1.330100,642499,30045
1279.76,1.331386,645905,30115
1283.19,1.330266,648307,30305
1286.61,1.329510,650446,30458
1290.03,1.327990,652132,30644
1293.44,1.329270,653907,30637
1296.85,1.334592,655963,30359
1301.39,1.334880,657349,30403
1304.8,1.332624,657558,30571
1308.19,1.328973,658515,30874
1311.58,1.331137,658804,30734
1314.97,1.334564,659011,30502
1318.36,1.335918,658272,30373
1321.73,1.330268,658022,30759
1326.23,1.334339,657870,30465
1329.6,1.333137,656482,30485
1332.97,1.339216,654926,29990
1336.33,1.335965,653727,30160
1339.69,1.331219,652497,30434
1343.04,1.331226,649913,30313
1346.39,1.334233,647671,30000
1349.73,1.332420,645338,30017
1354.18,1.334132,641175,29706
1357.52,1.328564,638376,29958
1360.85,1.336338,635805,29308
1364.17,1.331571,633413,29520
1367.49,1.330372,631026,29490
1370.81,1.325970,628050,29650
1374.12,1.330327,625034,29213
1378.54,1.330619,620272,28971
1381.84,1.334299,616892,28570
1385.14,1.331863,613613,28578
1388.43,1.328427,611526,28707
1391.72,1.327557,610663,28724
1395.01,1.329932,610634,28566
1398.29,1.329005,611700,28677
1402.66,1.333482,614051,28492
1405.93,1.328797,616268,28905
1409.2,1.334327,617795,28610
1412.46,1.336010,618872,28549
1415.72,1.330975,619795,28925
1418.98,1.331540,620495,28920
1422.23,1.331744,621087,28934
1426.56,1.333735,621375,28815
1429.8,1.329226,621616,29127
1433.04,1.335469,622129,28735
1436.27,1.334429,621526,28776
1439.5,1.328085,621113,29180
1442.72,1.332379,620921,28884
1445.94,1.335699,620270,28634
1450.23,1.337007,618860,28483
1453.44,1.335580,617697,28523
1456.64,1.335990,616264,28430
1459.85,1.337796,614413,28227
1463.04,1.341396,612307,27898
1466.24,1.334365,610032,28248
1469.43,1.333865,607345,28156
1473.67,1.338155,603789,27716
1476.85,1.342139,601175,27344
1480.02,1.339902,597737,27328
1483.19,1.334678,594479,27508
1486.36,1.343915,591232,26782
1489.52,1.344240,587853,26609
1492.68,1.340362,583875,26666
1496.89,1.341045,578062,26359
1500.03,1.345146,574159,25935
1503.18,1.336715,570285,26265
1506.32,1.340164,565444,25836
1509.45,1.336557,560571,25827
1512.58,1.342708,555821,25248
1515.71,1.338442,550344,25246
1519.87,1.339875,543983,24872
1522.99,1.345596,538764,24311
1526.1,1.347750,533692,23963
1529.21,1.340266,527902,24115
1532.32,1.350518,521886,23284
1535.42,1.345498,515888,23284
1538.51,1.337676,509987,23436
1541.6,1.345070,503936,22767
1545.72,1.338809,494694,22674
1548.8,1.350419,488378,21794
1551.88,1.340493,481832,21999
1554.95,1.335823,474989,21921
1558.02,1.341738,467818,21298
1561.08,1.342823,460730,20923
1564.15,1.335496,454170,20976
1568.22,1.339294,444181,20336
1571.27,1.340246,436947,19961
1574.32,1.335959,429598,19820
1577.36,1.340516,422039,19268
1580.4,1.335565,414375,19135
1583.43,1.333985,406354,18833
1586.46,1.333605,398475,18484
1590.49,1.336810,388982,17911
1593.51,1.340992,380708,17362
1596.53,1.334249,372727,17264
1599.54,1.342047,365060,16608
1602.55,1.347799,357543,16052
1605.55,1.332401,349495,16257
1608.55,1.342395,341154,15508
1612.54,1.335458,330877,15283
1615.53,1.328804,322904,15145
1618.51,1.336295,315116,14527
1621.49,1.334240,307217,14230
1624.47,1.328168,299481,14067
1627.44,1.324100,292112,13850
1630.41,1.335296,284245,13134
1634.36,1.322831,274079,13033
1637.32,1.321614,266916,12728
1640.27,1.326011,259612,12255
1643.22,1.312678,251804,12257
1646.16,1.329659,244348,11438
1649.1,1.323515,236703,11238
1652.04,1.331523,228171,10635
1655.95,1.310339,215408,10542
1658.88,1.325745,204937,9680
1661.8,1.329030,193395,9066
1664.72,1.332358,179728,8361
1667.63,1.318362,163642,7862
1670.54,1.296812,146312,7387
1673.44,1.328564,128451,6028
1677.31,1.282581,105080,5482
1680.21,1.308748,88906,4367
1683.1,1.321976,75033,3575
1685.99,1.339316,63520,2908
1688.87,1.322357,53714,2557
1691.75,1.290253,45653,2340
1694.62,1.278088,39137,2063
1697.49,1.243952,33776,1926
1701.31,1.315368,28175,1363