File: ML/samples/unknown/Column 1_078331_20241121_165648.csv
Method:,Column 1,,
Host Date-Time:,21/11/24 @ 16:56:48,,
Header Version:,1,,
System Temp (C):,34.77,,
Detector Temp (C):,33.02,,
Humidity (%):,2.3,,
Lamp PD:,3802,,
Shift Vector Coefficients:,-10.5391,0.0761263,-0.000134223,,
Pixel to Wavelength Coefficients:,1775.68,-0.916766,-0.000235065,,
Serial Number:,5510004,,
Scan Config Name:,Column 1,,
Scan Config Type:,Slew,,
Section 1,,
Start wavelength (nm):,900,,
End wavelength (nm):,1700,,
Pattern Pixel Width (nm):,   7.03,,,,
Exposure (ms):,  0.635,,,,
Digital Resolution:,228,,
Num Repeats:,6,,
PGA Gain:,64,,
Total Measurement Time in sec:,  2.724,,
Wavelength (nm),Absorbance (AU),Reference Signal (unitless),Sample Signal (unitless)
901.51,1.318949,108485,5205
905.376,1.301123,121306,6064
909.237,1.316681,131909,6362
913.095,1.313634,143299,6960
916.948,1.311678,156982,7659
922.079,1.318707,179937,8638
925.923,1.337816,200504,9211
929.762,1.323773,222660,10565
933.597,1.316707,244426,11788
937.427,1.322257,263972,12569
941.254,1.314782,281845,13653
945.076,1.325940,297271,14035
950.165,1.318473,315605,15159
953.978,1.323875,328029,15561
957.786,1.314674,340470,16497
961.59,1.312492,352317,17157
965.389,1.304991,363056,17988
969.185,1.315950,373162,18028
972.976,1.312312,382632,18641
976.763,1.302701,391202,19485
981.806,1.308616,400190,19663
985.583,1.309985,406088,19890
989.355,1.313405,410162,19932
993.124,1.309665,412868,20237
996.888,1.305099,414263,20520
1000.65,1.307174,415476,20482
1004.4,1.314619,415479,20134
1009.41,1.310801,414358,20257
1013.15,1.316384,412923,19929
1016.89,1.312110,411526,20058
1020.63,1.305390,409066,20249
1024.36,1.306355,406777,20091
1028.09,1.310438,404427,19788
1031.82,1.311807,401911,19603
1036.78,1.311120,398410,19463
1040.49,1.312519,396204,19293
1044.2,1.309862,394236,19315
1047.91,1.309173,392042,19238
1051.61,1.313075,389823,18958
1055.31,1.303176,388234,19316
1059,1.307873,387599,19077
1063.92,1.307990,386688,19027
1067.61,1.310752,386598,18902
1071.29,1.313145,387377,18836
1074.96,1.309103,388536,19069
1078.63,1.312859,389855,18969
1082.3,1.308256,391215,19238
1085.96,1.311329,393215,19200
1090.84,1.313989,396270,19231
1094.49,1.313537,398760,19372
1098.14,1.314479,400987,19438
1101.79,1.322269,403477,19211
1105.43,1.318304,406116,19514
1109.06,1.318751,407701,19570
1112.7,1.314896,409859,19849
1117.53,1.313542,412494,20039
1121.15,1.321792,414909,19777
1124.77,1.320758,416559,19903
1128.38,1.323487,418532,19872
1131.99,1.316157,419956,20279
1135.6,1.315116,421946,20424
1139.2,1.323832,423881,20110
1143.99,1.317525,426786,20544
1147.58,1.322631,428617,20391
1151.17,1.318614,431169,20703
1154.75,1.324531,433579,20537
1158.33,1.314213,436264,21161
1161.91,1.324365,439132,20808
1165.48,1.321604,442389,21096
1169.04,1.314035,446101,21647
1173.79,1.323704,451929,21447
1177.34,1.323993,456026,21627
1180.9,1.314712,461306,22350
1184.44,1.322227,467657,22269
1187.99,1.324785,473969,22437
1191.52,1.317612,479856,23094
1195.06,1.319816,487372,23337
1199.76,1.324964,497347,23534
1203.29,1.318991,504311,24194
1206.81,1.319526,511507,24509
1210.33,1.325872,519078,24511
1213.84,1.322116,527163,25109
1217.35,1.325002,534208,25276
1220.85,1.324992,540472,25573
1225.51,1.316406,549929,26540
1229.01,1.326837,556888,26238
1232.5,1.325010,562180,26599
1235.98,1.323255,567975,26982
1239.46,1.324082,574815,27255
1242.94,1.321758,582782,27781
1246.41,1.326785,591476,27871
1251.03,1.322441,604016,28748
1254.5,1.327398,612289,28811
1257.96,1.321456,619125,29534
1261.41,1.324511,624551,29584
1264.86,1.332197,629900,29314
1268.31,1.326582,634345,29905
1271.75,1.331680,638574,29753
1276.33,1.326473,642499,30297
1279.76,1.330277,645905,30192
1283.19,1.326343,648307,30580
1286.61,1.325536,650446,30738
1290.03,1.326025,652132,30783
1293.44,1.327727,653907,30746
1296.85,1.333392,655963,30443
1301.39,1.335051,657349,30391
1304.8,1.331461,657558,30653
1308.19,1.332206,658515,30645
1311.58,1.333361,658804,30577
1314.97,1.333583,659011,30571
1318.36,1.331677,658272,30671
1321.73,1.335710,658022,30376
1326.23,1.329801,657870,30785
1329.6,1.334664,656482,30378
1332.97,1.335323,654926,30260
1336.33,1.330883,653727,30515
1339.69,1.333911,652497,30246
1343.04,1.330196,649913,30385
1346.39,1.325576,647671,30604
1349.73,1.335265,645338,29821
1354.18,1.324904,641175,30344
1357.52,1.324193,638376,30261
1360.85,1.334165,635805,29455
1364.17,1.325537,633413,29933
1367.49,1.325962,631026,29791
1370.81,1.326556,628050,29610
1374.12,1.326023,625034,29504
1378.54,1.323069,620272,29479
1381.84,1.328471,616892,28956
1385.14,1.329030,613613,28765
1388.43,1.324991,611526,28935
1391.72,1.327239,610663,28745
1395.01,1.326072,610634,28821
1398.29,1.320962,611700,29213
1402.66,1.331019,614051,28654
1405.93,1.329233,616268,28876
1409.2,1.333402,617795,28671
1412.46,1.331004,618872,28880
1415.72,1.331816,619795,28869
1418.98,1.330940,620495,28960
1422.23,1.335437,621087,28689
1426.56,1.334520,621375,28763
1429.8,1.330346,621616,29052
1433.04,1.334081,622129,28827
1436.27,1.333133,621526,28862
1439.5,1.340296,621113,28371
1442.72,1.334368,620921,28752
1445.94,1.335562,620270,28643
1450.23,1.335485,618860,28583
1453.44,1.332470,617697,28728
1456.64,1.331461,616264,28728
1459.85,1.333905,614413,28481
1463.04,1.330710,612307,28593
1466.24,1.336492,610032,28110
1469.43,1.334219,607345,28133
1473.67,1.334892,603789,27925
1476.85,1.337321,601175,27649
1480.02,1.339172,597737,27374
1483.19,1.336751,594479,27377
1486.36,1.332646,591232,27486
1489.52,1.339097,587853,26926
1492.68,1.336729,583875,26890
1496.89,1.334846,578062,26738
1500.03,1.341262,574159,26168
1503.18,1.335889,570285,26315
1506.32,1.334536,565444,26173
1509.45,1.340645,560571,25585
1512.58,1.342038,555821,25287
1515.71,1.339872,550344,25163
1519.87,1.336986,543983,25038
1522.99,1.337788,538764,24752
1526.1,1.339581,533692,24418
1529.21,1.339942,527902,24133
1532.32,1.334784,521886,24143
1535.42,1.335997,515888,23799
1538.51,1.332188,509987,23734
1541.6,1.339384,503936,23067
1545.72,1.339019,494694,22663
1548.8,1.334168,488378,22625
1551.88,1.333910,481832,22335
1554.95,1.337014,474989,21861
1558.02,1.336348,467818,21564
1561.08,1.341144,460730,21004
1564.15,1.336947,454170,20906
1568.22,1.338804,444181,20359
1571.27,1.332847,436947,20304
1574.32,1.338552,429598,19702
1577.36,1.330027,422039,19739
1580.4,1.334183,414375,19196
1583.43,1.334377,406354,18816
1586.46,1.330795,398475,18604
1590.49,1.329882,388982,18199
1593.51,1.328711,380708,17860
1596.53,1.328924,372727,17477
1599.54,1.332554,365060,16975
1602.55,1.328666,357543,16775
1605.55,1.331760,349495,16281
1608.55,1.327746,341154,16040
1612.54,1.314273,330877,16047
1615.53,1.327116,322904,15204
1618.51,1.322003,315116,15013
1621.49,1.328450,307217,14421
1624.47,1.320214,299481,14327
1627.44,1.324727,292112,13830
1630.41,1.325714,284245,13427
1634.36,1.320936,274079,13090
1637.32,1.311530,266916,13027
1640.27,1.309906,259612,12718
1643.22,1.315951,251804,12165
1646.16,1.309298,244348,11987
1649.1,1.301844,236703,11813
1652.04,1.300861,228171,11413
1655.95,1.297432,215408,10860
1658.88,1.307299,204937,10100
1661.8,1.279936,193395,10151
1664.72,1.271531,179728,9618
1667.63,1.262606,163642,8939
1670.54,1.263386,146312,7978
1673.44,1.234662,128451,7483
1677.31,1.197850,105080,6663
1680.21,1.190625,88906,5732
1683.1,1.229732,75033,4421
1685.99,1.239192,63520,3662
1688.87,1.157216,53714,3740
1691.75,1.207069,45653,2834
1694.62,1.160581,39137,2704
1697.49,1.241254,33776,1938
1701.31,1.187176,28175,1831