File: ML/samples/unknown/Column 1_078259_20241121_165318.csv
Method:,Column 1,,
Host Date-Time:,21/11/24 @ 16:53:18,,
Header Version:,1,,
System Temp (C):,34.31,,
Detector Temp (C):,31.93,,
Humidity (%):,2.35,,
Lamp PD:,3803,,
Shift Vector Coefficients:,-10.5391,0.0761263,-0.000134223,,
Pixel to Wavelength Coefficients:,1775.68,-0.916766,-0.000235065,,
Serial Number:,5510004,,
Scan Config Name:,Column 1,,
Scan Config Type:,Slew,,
Section 1,,
Start wavelength (nm):,900,,
End wavelength (nm):,1700,,
Pattern Pixel Width (nm):,   7.03,,,,
Exposure (ms):,  0.635,,,,
Digital Resolution:,228,,
Num Repeats:,6,,
PGA Gain:,64,,
Total Measurement Time in sec:,  2.711,,
Wavelength (nm),Absorbance (AU),Reference Signal (unitless),Sample Signal (unitless)
901.51,1.323478,108485,5151
905.376,1.337404,121306,5578
909.237,1.298041,131909,6641
913.095,1.327132,143299,6747
916.948,1.322122,156982,7477
922.079,1.316851,179937,8675
925.923,1.323760,200504,9514
929.762,1.333248,222660,10337
933.597,1.329608,244426,11443
937.427,1.317994,263972,12693
941.254,1.324529,281845,13350
945.076,1.321323,297271,14185
950.165,1.315903,315605,15249
953.978,1.320760,328029,15673
957.786,1.311552,340470,16616
961.59,1.316919,352317,16983
965.389,1.302991,363056,18071
969.185,1.313883,373162,18114
972.976,1.309178,382632,18776
976.763,1.300012,391202,19606
981.806,1.312521,400190,19487
985.583,1.308373,406088,19964
989.355,1.311795,410162,20006
993.124,1.311084,412868,20171
996.888,1.311237,414263,20232
1000.65,1.306157,415476,20530
1004.4,1.316456,415479,20049
1009.41,1.316911,414358,19974
1013.15,1.313062,412923,20082
1016.89,1.311352,411526,20093
1020.63,1.309506,409066,20058
1024.36,1.312450,406777,19811
1028.09,1.316182,404427,19528
1031.82,1.337639,401911,18471
1036.78,1.325042,398410,18849
1040.49,1.308798,396204,19459
1044.2,1.311461,394236,19244
1047.91,1.306854,392042,19341
1051.61,1.308767,389823,19147
1055.31,1.313161,388234,18877
1059,1.305851,387599,19166
1063.92,1.320306,386688,18495
1067.61,1.321664,386598,18433
1071.29,1.305580,387377,19167
1074.96,1.303829,388536,19302
1078.63,1.322559,389855,18550
1082.3,1.317934,391215,18814
1085.96,1.322905,393215,18695
1090.84,1.322150,396270,18873
1094.49,1.324572,398760,18886
1098.14,1.325132,400987,18967
1101.79,1.316944,403477,19448
1105.43,1.315663,406116,19633
1109.06,1.326204,407701,19237
1112.7,1.320002,409859,19617
1117.53,1.330130,412494,19288
1121.15,1.324612,414909,19649
1124.77,1.317800,416559,20039
1128.38,1.322374,418532,19923
1131.99,1.316521,419956,20262
1135.6,1.321284,421946,20136
1139.2,1.323012,423881,20148
1143.99,1.331488,426786,19894
1147.58,1.328571,428617,20114
1151.17,1.313484,431169,20949
1154.75,1.324552,433579,20536
1158.33,1.330034,436264,20404
1161.91,1.313808,439132,21320
1165.48,1.319940,442389,21177
1169.04,1.319182,446101,21392
1173.79,1.322006,451929,21531
1177.34,1.320892,456026,21782
1180.9,1.320049,461306,22077
1184.44,1.320514,467657,22357
1187.99,1.318330,473969,22773
1191.52,1.312044,479856,23392
1195.06,1.323328,487372,23149
1199.76,1.325259,497347,23518
1203.29,1.328904,504311,23648
1206.81,1.323621,511507,24279
1210.33,1.331489,519078,24196
1213.84,1.326846,527163,24837
1217.35,1.329319,534208,25026
1220.85,1.329292,540472,25321
1225.51,1.332168,549929,25594
1229.01,1.324740,556888,26365
1232.5,1.327121,562180,26470
1235.98,1.331165,567975,26495
1239.46,1.327537,574815,27039
1242.94,1.321305,582782,27810
1246.41,1.329520,591476,27696
1251.03,1.327638,604016,28406
1254.5,1.325458,612289,28940
1257.96,1.332461,619125,28795
1261.41,1.330527,624551,29177
1264.86,1.329950,629900,29466
1268.31,1.329598,634345,29698
1271.75,1.327902,638574,30013
1276.33,1.326115,642499,30322
1279.76,1.324575,645905,30591
1283.19,1.332882,648307,30123
1286.61,1.331783,650446,30299
1290.03,1.326886,652132,30722
1293.44,1.330079,653907,30580
1296.85,1.331470,655963,30578
1301.39,1.336812,657349,30268
1304.8,1.332468,657558,30582
1308.19,1.333086,658515,30583
1311.58,1.327338,658804,31004
1314.97,1.330652,659011,30778
1318.36,1.336147,658272,30357
1321.73,1.336325,658022,30333
1326.23,1.336740,657870,30297
1329.6,1.338671,656482,30099
1332.97,1.334263,654926,30334
1336.33,1.331267,653727,30488
1339.69,1.328914,652497,30596
1343.04,1.329953,649913,30402
1346.39,1.332701,647671,30106
1349.73,1.330990,645338,30116
1354.18,1.331829,641175,29864
1357.52,1.334872,638376,29526
1360.85,1.338045,635805,29193
1364.17,1.331865,633413,29500
1367.49,1.333283,631026,29293
1370.81,1.329721,628050,29395
1374.12,1.331012,625034,29167
1378.54,1.334050,620272,28743
1381.84,1.333555,616892,28619
1385.14,1.334668,613613,28394
1388.43,1.332928,611526,28411
1391.72,1.333647,610663,28324
1395.01,1.337709,610634,28059
1398.29,1.327886,611700,28751
1402.66,1.330217,614051,28707
1405.93,1.336115,616268,28422
1409.2,1.327758,617795,29046
1412.46,1.330928,618872,28885
1415.72,1.333097,619795,28784
1418.98,1.337254,620495,28542
1422.23,1.339024,621087,28453
1426.56,1.332471,621375,28899
1429.8,1.338571,621616,28507
1433.04,1.332727,622129,28917
1436.27,1.334821,621526,28750
1439.5,1.337124,621113,28579
1442.72,1.341726,620921,28269
1445.94,1.333747,620270,28763
1450.23,1.333741,618860,28698
1453.44,1.339250,617697,28283
1456.64,1.336846,616264,28374
1459.85,1.334485,614413,28443
1463.04,1.335213,612307,28298
1466.24,1.341824,610032,27767
1469.43,1.336433,607345,27990
1473.67,1.336747,603789,27806
1476.85,1.335769,601175,27748
1480.02,1.336278,597737,27557
1483.19,1.334157,594479,27541
1486.36,1.344938,591232,26719
1489.52,1.335979,587853,27120
1492.68,1.346942,583875,26265
1496.89,1.331899,578062,26920
1500.03,1.343808,574159,26015
1503.18,1.343212,570285,25875
1506.32,1.333641,565444,26227
1509.45,1.336674,560571,25820
1512.58,1.341900,555821,25295
1515.71,1.343773,550344,24938
1519.87,1.345782,543983,24536
1522.99,1.336982,538764,24798
1526.1,1.339598,533692,24417
1529.21,1.339510,527902,24157
1532.32,1.338506,521886,23937
1535.42,1.335358,515888,23834
1538.51,1.335236,509987,23568
1541.6,1.331363,503936,23497
1545.72,1.341229,494694,22548
1548.8,1.342266,488378,22207
1551.88,1.344479,481832,21798
1554.95,1.342431,474989,21590
1558.02,1.343946,467818,21190
1561.08,1.340669,460730,21027
1564.15,1.334524,454170,21023
1568.22,1.330103,444181,20771
1571.27,1.337665,436947,20080
1574.32,1.339214,429598,19672
1577.36,1.328644,422039,19802
1580.4,1.337978,414375,19029
1583.43,1.329420,406354,19032
1586.46,1.330935,398475,18598
1590.49,1.331963,388982,18112
1593.51,1.336439,380708,17545
1596.53,1.335106,372727,17230
1599.54,1.339986,365060,16687
1602.55,1.336187,357543,16487
1605.55,1.326089,349495,16495
1608.55,1.336194,341154,15731
1612.54,1.327294,330877,15573
1615.53,1.329292,322904,15128
1618.51,1.323800,315116,14951
1621.49,1.339059,307217,14073
1624.47,1.316802,299481,14440
1627.44,1.339450,292112,13369
1630.41,1.341893,284245,12936
1634.36,1.323231,274079,13021
1637.32,1.320388,266916,12764
1640.27,1.322834,259612,12345
1643.22,1.327088,251804,11857
1646.16,1.314400,244348,11847
1649.1,1.323553,236703,11237
1652.04,1.333364,228171,10590
1655.95,1.303716,215408,10704
1658.88,1.303745,204937,10183
1661.8,1.305533,193395,9570
1664.72,1.284408,179728,9337
1667.63,1.272185,163642,8744
1670.54,1.243178,146312,8358
1673.44,1.246129,128451,7288
1677.31,1.213985,105080,6420
1680.21,1.224246,88906,5305
1683.1,1.225723,75033,4462
1685.99,1.218806,63520,3838
1688.87,1.221692,53714,3224
1691.75,1.241666,45653,2617
1694.62,1.228600,39137,2312
1697.49,1.288059,33776,1740
1701.31,1.235815,28175,1637