File: ML/samples/unknown/Column 1_078027_20241121_164154.csv
Method:,Column 1,,
Host Date-Time:,21/11/24 @ 16:41:54,,
Header Version:,1,,
System Temp (C):,29.98,,
Detector Temp (C):,25.06,,
Humidity (%):,6.48,,
Lamp PD:,3813,,
Shift Vector Coefficients:,-10.5391,0.0761263,-0.000134223,,
Pixel to Wavelength Coefficients:,1775.68,-0.916766,-0.000235065,,
Serial Number:,5510004,,
Scan Config Name:,Column 1,,
Scan Config Type:,Slew,,
Section 1,,
Start wavelength (nm):,900,,
End wavelength (nm):,1700,,
Pattern Pixel Width (nm):,   7.03,,,,
Exposure (ms):,  0.635,,,,
Digital Resolution:,228,,
Num Repeats:,6,,
PGA Gain:,64,,
Total Measurement Time in sec:,  2.735,,
Wavelength (nm),Absorbance (AU),Reference Signal (unitless),Sample Signal (unitless)
901.51,1.309866,108485,5315
905.376,1.303637,121306,6029
909.237,1.311052,131909,6445
913.095,1.311704,143299,6991
916.948,1.309077,156982,7705
922.079,1.311774,179937,8777
925.923,1.303341,200504,9972
929.762,1.310854,222660,10884
933.597,1.305829,244426,12087
937.427,1.317105,263972,12719
941.254,1.304752,281845,13972
945.076,1.316240,297271,14352
950.165,1.302222,315605,15737
953.978,1.312281,328029,15982
957.786,1.315913,340470,16450
961.59,1.304193,352317,17488
965.389,1.302871,363056,18076
969.185,1.310944,373162,18237
972.976,1.310475,382632,18720
976.763,1.313602,391202,19002
981.806,1.306260,400190,19770
985.583,1.310204,406088,19880
989.355,1.316861,410162,19774
993.124,1.315151,412868,19983
996.888,1.312721,414263,20163
1000.65,1.307916,415476,20447
1004.4,1.310219,415479,20339
1009.41,1.311466,414358,20226
1013.15,1.323259,412923,19616
1016.89,1.313128,411526,20011
1020.63,1.316600,409066,19733
1024.36,1.313196,406777,19777
1028.09,1.316338,404427,19521
1031.82,1.315769,401911,19425
1036.78,1.308939,398410,19561
1040.49,1.313398,396204,19254
1044.2,1.300035,394236,19757
1047.91,1.312140,392042,19107
1051.61,1.309925,389823,19096
1055.31,1.310180,388234,19007
1059,1.315938,387599,18726
1063.92,1.305623,386688,19131
1067.61,1.304004,386598,19198
1071.29,1.311557,387377,18905
1074.96,1.318846,388536,18646
1078.63,1.313500,389855,18941
1082.3,1.310043,391215,19159
1085.96,1.310109,393215,19254
1090.84,1.310301,396270,19395
1094.49,1.314188,398760,19343
1098.14,1.325957,400987,18931
1101.79,1.308759,403477,19818
1105.43,1.316128,406116,19612
1109.06,1.312538,407701,19852
1112.7,1.324117,409859,19432
1117.53,1.307729,412494,20309
1121.15,1.326362,414909,19570
1124.77,1.313724,416559,20228
1128.38,1.317260,418532,20159
1131.99,1.316672,419956,20255
1135.6,1.319282,421946,20229
1139.2,1.320540,423881,20263
1143.99,1.327101,426786,20096
1147.58,1.315344,428617,20736
1151.17,1.321815,431169,20551
1154.75,1.317712,433579,20862
1158.33,1.329290,436264,20439
1161.91,1.312933,439132,21363
1165.48,1.319366,442389,21205
1169.04,1.320911,446101,21307
1173.79,1.316454,451929,21808
1177.34,1.321351,456026,21759
1180.9,1.323188,461306,21918
1184.44,1.324769,467657,22139
1187.99,1.318998,473969,22738
1191.52,1.323824,479856,22766
1195.06,1.323798,487372,23124
1199.76,1.332165,497347,23147
1203.29,1.324573,504311,23885
1206.81,1.326276,511507,24131
1210.33,1.319819,519078,24855
1213.84,1.326776,527163,24841
1217.35,1.318894,534208,25634
1220.85,1.323246,540472,25676
1225.51,1.324232,549929,26066
1229.01,1.328014,556888,26167
1232.5,1.320430,562180,26881
1235.98,1.322917,567975,27003
1239.46,1.323652,574815,27282
1242.94,1.326284,582782,27493
1246.41,1.324996,591476,27986
1251.03,1.323636,604016,28669
1254.5,1.326254,612289,28887
1257.96,1.322737,619125,29447
1261.41,1.327841,624551,29358
1264.86,1.330777,629900,29410
1268.31,1.328649,634345,29763
1271.75,1.328481,638574,29973
1276.33,1.326874,642499,30269
1279.76,1.331083,645905,30136
1283.19,1.330180,648307,30311
1286.61,1.336727,650446,29956
1290.03,1.326886,652132,30722
1293.44,1.329100,653907,30649
1296.85,1.334234,655963,30384
1301.39,1.332614,657349,30562
1304.8,1.332610,657558,30572
1308.19,1.331173,658515,30718
1311.58,1.332156,658804,30662
1314.97,1.331373,659011,30727
1318.36,1.337135,658272,30288
1321.73,1.329323,658022,30826
1326.23,1.332475,657870,30596
1329.6,1.333222,656482,30479
1332.97,1.331522,654926,30526
1336.33,1.328640,653727,30673
1339.69,1.329852,652497,30530
1343.04,1.333438,649913,30159
1346.39,1.336628,647671,29835
1349.73,1.333550,645338,29939
1354.18,1.333460,641175,29752
1357.52,1.331794,638376,29736
1360.85,1.329268,635805,29789
1364.17,1.332233,633413,29475
1367.49,1.327101,631026,29713
1370.81,1.330549,628050,29339
1374.12,1.329570,625034,29264
1378.54,1.328913,620272,29085
1381.84,1.328111,616892,28980
1385.14,1.327027,613613,28898
1388.43,1.323927,611526,29006
1391.72,1.332912,610663,28372
1395.01,1.332524,610634,28396
1398.29,1.331343,611700,28523
1402.66,1.327833,614051,28865
1405.93,1.332327,616268,28671
1409.2,1.336442,617795,28471
1412.46,1.334294,618872,28662
1415.72,1.330945,619795,28927
1418.98,1.335720,620495,28643
1422.23,1.335785,621087,28666
1426.56,1.334716,621375,28750
1429.8,1.327159,621616,29266
1433.04,1.335258,622129,28749
1436.27,1.329716,621526,29090
1439.5,1.332980,621113,28853
1442.72,1.339015,620921,28446
1445.94,1.331533,620270,28910
1450.23,1.338810,618860,28365
1453.44,1.339480,617697,28268
1456.64,1.337766,616264,28314
1459.85,1.342374,614413,27931
1463.04,1.332841,612307,28453
1466.24,1.338520,610032,27979
1469.43,1.347002,607345,27317
1473.67,1.335842,603789,27864
1476.85,1.334722,601175,27815
1480.02,1.338221,597737,27434
1483.19,1.339983,594479,27174
1486.36,1.333722,591232,27418
1489.52,1.336845,587853,27066
1492.68,1.335584,583875,26961
1496.89,1.339861,578062,26431
1500.03,1.338120,574159,26358
1503.18,1.340268,570285,26051
1506.32,1.336399,565444,26061
1509.45,1.363937,560571,24249
1512.58,1.337935,555821,25527
1515.71,1.337668,550344,25291
1519.87,1.336743,543983,25052
1522.99,1.344668,538764,24363
1526.1,1.336356,533692,24600
1529.21,1.338128,527902,24234
1532.32,1.336226,521886,24063
1535.42,1.338064,515888,23686
1538.51,1.336547,509987,23497
1541.6,1.334070,503936,23351
1545.72,1.338368,494694,22697
1548.8,1.335995,488378,22530
1551.88,1.343862,481832,21829
1554.95,1.341507,474989,21636
1558.02,1.335221,467818,21620
1561.08,1.338321,460730,21141
1564.15,1.337301,454170,20889
1568.22,1.337313,444181,20429
1571.27,1.339247,436947,20007
1574.32,1.343028,429598,19500
1577.36,1.338672,422039,19350
1580.4,1.339372,414375,18968
1583.43,1.337807,406354,18668
1586.46,1.333864,398475,18473
1590.49,1.340854,388982,17745
1593.51,1.333306,380708,17672
1596.53,1.325755,372727,17605
1599.54,1.335816,365060,16848
1602.55,1.327528,357543,16819
1605.55,1.336534,349495,16103
1608.55,1.328641,341154,16007
1612.54,1.330260,330877,15467
1615.53,1.322484,322904,15367
1618.51,1.332959,315116,14639
1621.49,1.334393,307217,14225
1624.47,1.318943,299481,14369
1627.44,1.329336,292112,13684
1630.41,1.316687,284245,13709
1634.36,1.331583,274079,12773
1637.32,1.328389,266916,12531
1640.27,1.322236,259612,12362
1643.22,1.311617,251804,12287
1646.16,1.328938,244348,11457
1649.1,1.334790,236703,10950
1652.04,1.310013,228171,11175
1655.95,1.298393,215408,10836
1658.88,1.335225,204937,9471
1661.8,1.320820,193395,9239
1664.72,1.311963,179728,8763
1667.63,1.347371,163642,7354
1670.54,1.312922,146312,7118
1673.44,1.344935,128451,5805
1677.31,1.319521,105080,5035
1680.21,1.336677,88906,4095
1683.1,1.313317,75033,3647
1685.99,1.350511,63520,2834
1688.87,1.314113,53714,2606
1691.75,1.286741,45653,2359
1694.62,1.425566,39137,1469
1697.49,1.323675,33776,1603
1701.31,1.314095,28175,1367