File: ML/samples/unknown/Column 1_078857_20241121_172532.csv
Method:,Column 1,,
Host Date-Time:,21/11/24 @ 17:25:32,,
Header Version:,1,,
System Temp (C):,37.31,,
Detector Temp (C):,35.94,,
Humidity (%):,0.58,,
Lamp PD:,3796,,
Shift Vector Coefficients:,-10.5391,0.0761263,-0.000134223,,
Pixel to Wavelength Coefficients:,1775.68,-0.916766,-0.000235065,,
Serial Number:,5510004,,
Scan Config Name:,Column 1,,
Scan Config Type:,Slew,,
Section 1,,
Start wavelength (nm):,900,,
End wavelength (nm):,1700,,
Pattern Pixel Width (nm):,   7.03,,,,
Exposure (ms):,  0.635,,,,
Digital Resolution:,228,,
Num Repeats:,6,,
PGA Gain:,64,,
Total Measurement Time in sec:,  2.726,,
Wavelength (nm),Absorbance (AU),Reference Signal (unitless),Sample Signal (unitless)
901.51,1.306529,108485,5356
905.376,1.312001,121306,5914
909.237,1.297192,131909,6654
913.095,1.323543,143299,6803
916.948,1.352181,156982,6977
922.079,1.303880,179937,8938
925.923,1.328903,200504,9402
929.762,1.333626,222660,10328
933.597,1.318516,244426,11739
937.427,1.319605,263972,12646
941.254,1.325506,281845,13320
945.076,1.314760,297271,14401
950.165,1.317700,315605,15186
953.978,1.304631,328029,16266
957.786,1.314095,340470,16519
961.59,1.313811,352317,17105
965.389,1.312148,363056,17694
969.185,1.304421,373162,18513
972.976,1.299842,382632,19184
976.763,1.307722,391202,19261
981.806,1.311853,400190,19517
985.583,1.302989,406088,20213
989.355,1.311513,410162,20019
993.124,1.308957,412868,20270
996.888,1.306116,414263,20472
1000.65,1.304974,415476,20586
1004.4,1.306562,415479,20511
1009.41,1.313036,414358,20153
1013.15,1.309787,412923,20234
1016.89,1.307672,411526,20264
1020.63,1.306937,409066,20177
1024.36,1.300067,406777,20384
1028.09,1.306006,404427,19991
1031.82,1.313828,401911,19512
1036.78,1.305181,398410,19731
1040.49,1.312362,396204,19300
1044.2,1.310221,394236,19299
1047.91,1.308496,392042,19268
1051.61,1.301524,389823,19469
1055.31,1.308379,388234,19086
1059,1.306146,387599,19153
1063.92,1.310072,386688,18936
1067.61,1.310913,386598,18895
1071.29,1.311764,387377,18896
1074.96,1.315736,388536,18780
1078.63,1.306360,389855,19255
1082.3,1.320365,391215,18709
1085.96,1.308623,393215,19320
1090.84,1.308246,396270,19487
1094.49,1.312910,398760,19400
1098.14,1.313943,400987,19462
1101.79,1.317704,403477,19414
1105.43,1.306471,406116,20053
1109.06,1.312713,407701,19844
1112.7,1.317750,409859,19719
1117.53,1.315192,412494,19963
1121.15,1.317988,414909,19951
1124.77,1.311539,416559,20330
1128.38,1.319788,418532,20042
1131.99,1.319015,419956,20146
1135.6,1.324901,421946,19969
1139.2,1.315067,423881,20520
1143.99,1.313067,426786,20756
1147.58,1.319807,428617,20524
1151.17,1.316689,431169,20795
1154.75,1.314105,433579,21036
1158.33,1.319936,436264,20884
1161.91,1.311918,439132,21413
1165.48,1.321337,442389,21109
1169.04,1.320463,446101,21329
1173.79,1.317811,451929,21740
1177.34,1.315010,456026,22079
1180.9,1.311864,461306,22497
1184.44,1.321350,467657,22314
1187.99,1.321238,473969,22621
1191.52,1.320536,479856,22939
1195.06,1.314857,487372,23605
1199.76,1.330068,497347,23259
1203.29,1.318184,504311,24239
1206.81,1.323460,511507,24288
1210.33,1.312954,519078,25251
1213.84,1.318996,527163,25290
1217.35,1.321204,534208,25498
1220.85,1.327649,540472,25417
1225.51,1.318999,549929,26382
1229.01,1.326242,556888,26274
1232.5,1.319526,562180,26937
1235.98,1.322628,567975,27021
1239.46,1.323159,574815,27313
1242.94,1.320478,582782,27863
1246.41,1.312726,591476,28788
1251.03,1.324606,604016,28605
1254.5,1.324543,612289,29001
1257.96,1.320061,619125,29629
1261.41,1.321687,624551,29777
1264.86,1.320532,629900,30112
1268.31,1.322721,634345,30172
1271.75,1.319390,638574,30607
1276.33,1.325886,642499,30338
1279.76,1.324461,645905,30599
1283.19,1.323216,648307,30801
1286.61,1.322312,650446,30967
1290.03,1.325742,652132,30803
1293.44,1.324393,653907,30983
1296.85,1.328540,655963,30785
1301.39,1.326014,657349,31030
1304.8,1.331135,657558,30676
1308.19,1.330495,658515,30766
1311.58,1.319936,658804,31537
1314.97,1.330779,659011,30769
1318.36,1.333025,658272,30576
1321.73,1.330014,658022,30777
1326.23,1.323999,657870,31199
1329.6,1.324211,656482,31118
1332.97,1.333433,654926,30392
1336.33,1.325199,653727,30917
1339.69,1.331748,652497,30397
1343.04,1.330067,649913,30394
1346.39,1.327739,647671,30452
1349.73,1.323243,645338,30658
1354.18,1.325118,641175,30329
1357.52,1.321090,638376,30478
1360.85,1.324166,635805,30141
1364.17,1.324493,633413,30005
1367.49,1.324289,631026,29906
1370.81,1.324755,628050,29733
1374.12,1.324421,625034,29613
1378.54,1.323379,620272,29458
1381.84,1.323861,616892,29265
1385.14,1.329771,613613,28716
1388.43,1.322507,611526,29101
1391.72,1.321506,610663,29127
1395.01,1.326992,610634,28760
1398.29,1.323258,611700,29059
1402.66,1.326031,614051,28985
1405.93,1.323703,616268,29246
1409.2,1.329541,617795,28927
1412.46,1.331305,618872,28860
1415.72,1.327059,619795,29187
1418.98,1.327147,620495,29214
1422.23,1.326923,621087,29257
1426.56,1.326501,621375,29299
1429.8,1.328362,621616,29185
1433.04,1.322691,622129,29593
1436.27,1.328359,621526,29181
1439.5,1.332243,621113,28902
1442.72,1.329337,620921,29087
1445.94,1.336427,620270,28586
1450.23,1.337525,618860,28449
1453.44,1.332470,617697,28728
1456.64,1.332703,616264,28646
1459.85,1.333753,614413,28491
1463.04,1.330027,612307,28638
1466.24,1.329108,610032,28592
1469.43,1.331971,607345,28279
1473.67,1.330267,603789,28224
1476.85,1.325148,601175,28435
1480.02,1.334030,597737,27700
1483.19,1.332834,594479,27625
1486.36,1.332378,591232,27503
1489.52,1.335947,587853,27122
1492.68,1.330922,583875,27252
1496.89,1.333661,578062,26811
1500.03,1.330590,574159,26819
1503.18,1.334356,570285,26408
1506.32,1.335433,565444,26119
1509.45,1.343985,560571,25389
1512.58,1.337068,555821,25578
1515.71,1.339096,550344,25208
1519.87,1.332705,543983,25286
1522.99,1.332591,538764,25050
1526.1,1.331493,533692,24877
1529.21,1.333104,527902,24516
1532.32,1.329866,521886,24418
1535.42,1.337093,515888,23739
1538.51,1.337546,509987,23443
1541.6,1.336307,503936,23231
1545.72,1.327914,494694,23250
1548.8,1.337695,488378,22442
1551.88,1.331834,481832,22442
1554.95,1.321175,474989,22673
1558.02,1.329474,467818,21908
1561.08,1.329757,460730,21562
1564.15,1.332340,454170,21129
1568.22,1.332430,444181,20660
1571.27,1.332334,436947,20328
1574.32,1.326873,429598,20239
1577.36,1.326107,422039,19918
1580.4,1.321870,414375,19748
1583.43,1.331135,406354,18957
1586.46,1.324790,398475,18863
1590.49,1.330097,388982,18190
1593.51,1.336018,380708,17562
1596.53,1.320386,372727,17824
1599.54,1.323415,365060,17336
1602.55,1.325159,357543,16911
1605.55,1.321584,349495,16667
1608.55,1.327827,341154,16037
1612.54,1.326347,330877,15607
1615.53,1.317818,322904,15533
1618.51,1.327710,315116,14817
1621.49,1.322468,307217,14621
1624.47,1.313954,299481,14535
1627.44,1.314762,292112,14151
1630.41,1.315074,284245,13760
1634.36,1.311517,274079,13377
1637.32,1.310997,266916,13043
1640.27,1.307794,259612,12780
1643.22,1.304431,251804,12492
1646.16,1.292177,244348,12469
1649.1,1.304721,236703,11735
1652.04,1.301927,228171,11385
1655.95,1.283966,215408,11202
1658.88,1.282927,204937,10683
1661.8,1.276782,193395,10225
1664.72,1.251241,179728,10078
1667.63,1.252949,163642,9140
1670.54,1.240123,146312,8417
1673.44,1.205810,128451,7997
1677.31,1.176794,105080,6994
1680.21,1.134351,88906,6525
1683.1,1.125671,75033,5618
1685.99,1.157586,63520,4419
1688.87,1.128788,53714,3993
1691.75,1.209066,45653,2821
1694.62,1.147139,39137,2789
1697.49,1.171245,33776,2277
1701.31,1.125376,28175,2111