File: ML/samples/unknown/Column 1_078697_20241121_171749.csv
Method:,Column 1,,
Host Date-Time:,21/11/24 @ 17:17:49,,
Header Version:,1,,
System Temp (C):,35.14,,
Detector Temp (C):,34.37,,
Humidity (%):,1.66,,
Lamp PD:,3801,,
Shift Vector Coefficients:,-10.5391,0.0761263,-0.000134223,,
Pixel to Wavelength Coefficients:,1775.68,-0.916766,-0.000235065,,
Serial Number:,5510004,,
Scan Config Name:,Column 1,,
Scan Config Type:,Slew,,
Section 1,,
Start wavelength (nm):,900,,
End wavelength (nm):,1700,,
Pattern Pixel Width (nm):,   7.03,,,,
Exposure (ms):,  0.635,,,,
Digital Resolution:,228,,
Num Repeats:,6,,
PGA Gain:,64,,
Total Measurement Time in sec:,  2.727,,
Wavelength (nm),Absorbance (AU),Reference Signal (unitless),Sample Signal (unitless)
901.51,1.303137,108485,5398
905.376,1.284197,121306,6305
909.237,1.311389,131909,6440
913.095,1.330752,143299,6691
916.948,1.321948,156982,7480
922.079,1.311033,179937,8792
925.923,1.338571,200504,9195
929.762,1.309022,222660,10930
933.597,1.317113,244426,11777
937.427,1.323399,263972,12536
941.254,1.314496,281845,13662
945.076,1.316967,297271,14328
950.165,1.309036,315605,15492
953.978,1.314624,328029,15896
957.786,1.312783,340470,16569
961.59,1.310396,352317,17240
965.389,1.308262,363056,17853
969.185,1.303671,373162,18545
972.976,1.301862,382632,19095
976.763,1.313419,391202,19010
981.806,1.296592,400190,20215
985.583,1.308634,406088,19952
989.355,1.295561,410162,20768
993.124,1.305649,412868,20425
996.888,1.303240,414263,20608
1000.65,1.301612,415476,20746
1004.4,1.304956,415479,20587
1009.41,1.299626,414358,20785
1013.15,1.297597,412923,20810
1016.89,1.310964,411526,20111
1020.63,1.306614,409066,20192
1024.36,1.298132,406777,20475
1028.09,1.308315,404427,19885
1031.82,1.295075,401911,20373
1036.78,1.304060,398410,19782
1040.49,1.300969,396204,19813
1044.2,1.303988,394236,19578
1047.91,1.308676,392042,19260
1051.61,1.304613,389823,19331
1055.31,1.306245,388234,19180
1059,1.300402,387599,19408
1063.92,1.302772,386688,19257
1067.61,1.315999,386598,18675
1071.29,1.305217,387377,19183
1074.96,1.298929,388536,19521
1078.63,1.303751,389855,19371
1082.3,1.312566,391215,19048
1085.96,1.317181,393215,18943
1090.84,1.304761,396270,19644
1094.49,1.314727,398760,19319
1098.14,1.304889,400987,19872
1101.79,1.315918,403477,19494
1105.43,1.313611,406116,19726
1109.06,1.313019,407701,19830
1112.7,1.308791,409859,20130
1117.53,1.310776,412494,20167
1121.15,1.311893,414909,20233
1124.77,1.321982,416559,19847
1128.38,1.323968,418532,19850
1131.99,1.323413,419956,19943
1135.6,1.312974,421946,20525
1139.2,1.310477,423881,20738
1143.99,1.316870,426786,20575
1147.58,1.303527,428617,21308
1151.17,1.306717,431169,21278
1154.75,1.313734,433579,21054
1158.33,1.315467,436264,21100
1161.91,1.311127,439132,21452
1165.48,1.305916,442389,21872
1169.04,1.312194,446101,21739
1173.79,1.313557,451929,21954
1177.34,1.313420,456026,22160
1180.9,1.318615,461306,22150
1184.44,1.309864,467657,22912
1187.99,1.321622,473969,22601
1191.52,1.315398,479856,23212
1195.06,1.319258,487372,23367
1199.76,1.316521,497347,23996
1203.29,1.318829,504311,24203
1206.81,1.319278,511507,24523
1210.33,1.316425,519078,25050
1213.84,1.318807,527163,25301
1217.35,1.317473,534208,25718
1220.85,1.316233,540472,26094
1225.51,1.314105,549929,26681
1229.01,1.313906,556888,27031
1232.5,1.316794,562180,27107
1235.98,1.316246,567975,27421
1239.46,1.315843,574815,27777
1242.94,1.312356,582782,28389
1246.41,1.318084,591476,28435
1251.03,1.327165,604016,28437
1254.5,1.319985,612289,29307
1257.96,1.316151,619125,29897
1261.41,1.324042,624551,29616
1264.86,1.318575,629900,30248
1268.31,1.328197,634345,29794
1271.75,1.323339,638574,30330
1276.33,1.319618,642499,30779
1279.76,1.324050,645905,30628
1283.19,1.329450,648307,30362
1286.61,1.323984,650446,30848
1290.03,1.330064,652132,30498
1293.44,1.322574,653907,31113
1296.85,1.323686,655963,31131
1301.39,1.327627,657349,30915
1304.8,1.330810,657558,30699
1308.19,1.326350,658515,31061
1311.58,1.319289,658804,31584
1314.97,1.325295,659011,31160
1318.36,1.323694,658272,31240
1321.73,1.330833,658022,30719
1326.23,1.325659,657870,31080
1329.6,1.326155,656482,30979
1332.97,1.327106,654926,30838
1336.33,1.329647,653727,30602
1339.69,1.324395,652497,30916
1343.04,1.325759,649913,30697
1346.39,1.324768,647671,30661
1349.73,1.325929,645338,30469
1354.18,1.321057,641175,30614
1357.52,1.323319,638376,30322
1360.85,1.329108,635805,29800
1364.17,1.321925,633413,30183
1367.49,1.322969,631026,29997
1370.81,1.325121,628050,29708
1374.12,1.324407,625034,29614
1378.54,1.321981,620272,29553
1381.84,1.320520,616892,29491
1385.14,1.318736,613613,29455
1388.43,1.323822,611526,29013
1391.72,1.323568,610663,28989
1395.01,1.326253,610634,28809
1398.29,1.324815,611700,28955
1402.66,1.323506,614051,29154
1405.93,1.317335,616268,29678
1409.2,1.326191,617795,29151
1412.46,1.327022,618872,29146
1415.72,1.323473,619795,29429
1418.98,1.330520,620495,28988
1422.23,1.322845,621087,29533
1426.56,1.324682,621375,29422
1429.8,1.331184,621616,28996
1433.04,1.330630,622129,29057
1436.27,1.333103,621526,28864
1439.5,1.332483,621113,28886
1442.72,1.330713,620921,28995
1445.94,1.330872,620270,28954
1450.23,1.325838,618860,29225
1453.44,1.332259,617697,28742
1456.64,1.325934,616264,29096
1459.85,1.333296,614413,28521
1463.04,1.326974,612307,28840
1466.24,1.328061,610032,28661
1469.43,1.325538,607345,28701
1473.67,1.332442,603789,28083
1476.85,1.330604,601175,28080
1480.02,1.332122,597737,27822
1483.19,1.335610,594479,27449
1486.36,1.331605,591232,27552
1489.52,1.333488,587853,27276
1492.68,1.334153,583875,27050
1496.89,1.331738,578062,26930
1500.03,1.330007,574159,26855
1503.18,1.330199,570285,26662
1506.32,1.334221,565444,26192
1509.45,1.332790,560571,26052
1512.58,1.333080,555821,25814
1515.71,1.333073,550344,25560
1519.87,1.328398,543983,25538
1522.99,1.328570,538764,25283
1526.1,1.336515,533692,24591
1529.21,1.336876,527902,24304
1532.32,1.328800,521886,24478
1535.42,1.333649,515888,23928
1538.51,1.336824,509987,23482
1541.6,1.328654,503936,23644
1545.72,1.327951,494694,23248
1548.8,1.326424,488378,23032
1551.88,1.330539,481832,22509
1554.95,1.333551,474989,22036
1558.02,1.329276,467818,21918
1561.08,1.334476,460730,21329
1564.15,1.326825,454170,21399
1568.22,1.330249,444181,20764
1571.27,1.326477,436947,20604
1574.32,1.330385,429598,20076
1577.36,1.325149,422039,19962
1580.4,1.327626,414375,19488
1583.43,1.324993,406354,19227
1586.46,1.318527,398475,19137
1590.49,1.326341,388982,18348
1593.51,1.334020,380708,17643
1596.53,1.319364,372727,17866
1599.54,1.322489,365060,17373
1602.55,1.324107,357543,16952
1605.55,1.337993,349495,16049
1608.55,1.316758,341154,16451
1612.54,1.318597,330877,15888
1615.53,1.312483,322904,15725
1618.51,1.321280,315116,15038
1621.49,1.319095,307217,14735
1624.47,1.309288,299481,14692
1627.44,1.313843,292112,14181
1630.41,1.332987,284245,13204
1634.36,1.311614,274079,13374
1637.32,1.327869,266916,12546
1640.27,1.314679,259612,12579
1643.22,1.330581,251804,11762
1646.16,1.324863,244348,11565
1649.1,1.310795,236703,11572
1652.04,1.314780,228171,11053
1655.95,1.294403,215408,10936
1658.88,1.297184,204937,10338
1661.8,1.277079,193395,10218
1664.72,1.283108,179728,9365
1667.63,1.270895,163642,8770
1670.54,1.248247,146312,8261
1673.44,1.233271,128451,7507
1677.31,1.201122,105080,6613
1680.21,1.167319,88906,6048
1683.1,1.165220,75033,5129
1685.99,1.157980,63520,4415
1688.87,1.198864,53714,3398
1691.75,1.135983,45653,3338
1694.62,1.151678,39137,2760
1697.49,1.103400,33776,2662
1701.31,1.121688,28175,2129