File: ML/samples/unknown/Column 1_078561_20241121_170844.csv
Method:,Column 1,,
Host Date-Time:,21/11/24 @ 17:8:44,,
Header Version:,1,,
System Temp (C):,35.86,,
Detector Temp (C):,34.47,,
Humidity (%):,1.27,,
Lamp PD:,3799,,
Shift Vector Coefficients:,-10.5391,0.0761263,-0.000134223,,
Pixel to Wavelength Coefficients:,1775.68,-0.916766,-0.000235065,,
Serial Number:,5510004,,
Scan Config Name:,Column 1,,
Scan Config Type:,Slew,,
Section 1,,
Start wavelength (nm):,900,,
End wavelength (nm):,1700,,
Pattern Pixel Width (nm):,   7.03,,,,
Exposure (ms):,  0.635,,,,
Digital Resolution:,228,,
Num Repeats:,6,,
PGA Gain:,64,,
Total Measurement Time in sec:,  2.725,,
Wavelength (nm),Absorbance (AU),Reference Signal (unitless),Sample Signal (unitless)
901.51,1.314384,108485,5260
905.376,1.305514,121306,6003
909.237,1.323561,131909,6262
913.095,1.304312,143299,7111
916.948,1.315208,156982,7597
922.079,1.316951,179937,8673
925.923,1.319174,200504,9615
929.762,1.330901,222660,10393
933.597,1.317999,244426,11753
937.427,1.309322,263972,12949
941.254,1.321676,281845,13438
945.076,1.309306,297271,14583
950.165,1.327330,315605,14853
953.978,1.312580,328029,15971
957.786,1.307960,340470,16754
961.59,1.313404,352317,17121
965.389,1.315078,363056,17575
969.185,1.306396,373162,18429
972.976,1.312732,382632,18623
976.763,1.320583,391202,18699
981.806,1.305667,400190,19797
985.583,1.297036,406088,20492
989.355,1.306917,410162,20232
993.124,1.311773,412868,20139
996.888,1.303156,414263,20612
1000.65,1.303878,415476,20638
1004.4,1.304260,415479,20620
1009.41,1.300965,414358,20721
1013.15,1.305473,412923,20436
1016.89,1.300277,411526,20612
1020.63,1.309333,409066,20066
1024.36,1.305599,406777,20126
1028.09,1.310394,404427,19790
1031.82,1.311741,401911,19606
1036.78,1.313717,398410,19347
1040.49,1.309133,396204,19444
1044.2,1.313361,394236,19160
1047.91,1.300656,392042,19619
1051.61,1.297240,389823,19662
1055.31,1.305815,388234,19199
1059,1.295706,387599,19619
1063.92,1.306396,386688,19097
1067.61,1.310407,386598,18917
1071.29,1.310158,387377,18966
1074.96,1.304685,388536,19264
1078.63,1.309075,389855,19135
1082.3,1.310996,391215,19117
1085.96,1.317847,393215,18914
1090.84,1.312389,396270,19302
1094.49,1.308611,398760,19593
1098.14,1.310077,400987,19636
1101.79,1.308847,403477,19814
1105.43,1.314846,406116,19670
1109.06,1.311161,407701,19915
1112.7,1.308942,409859,20123
1117.53,1.310862,412494,20163
1121.15,1.317053,414909,19994
1124.77,1.311539,416559,20330
1128.38,1.319051,418532,20076
1131.99,1.307968,419956,20665
1135.6,1.319884,421946,20201
1139.2,1.316933,423881,20432
1143.99,1.314639,426786,20681
1147.58,1.308384,428617,21071
1151.17,1.311169,431169,21061
1154.75,1.310343,433579,21219
1158.33,1.314193,436264,21162
1161.91,1.307719,439132,21621
1165.48,1.310447,442389,21645
1169.04,1.316450,446101,21527
1173.79,1.312529,451929,22006
1177.34,1.310743,456026,22297
1180.9,1.310766,461306,22554
1184.44,1.310111,467657,22899
1187.99,1.310861,473969,23168
1191.52,1.309932,479856,23506
1195.06,1.318366,487372,23415
1199.76,1.315256,497347,24066
1203.29,1.322578,504311,23995
1206.81,1.321053,511507,24423
1210.33,1.318214,519078,24947
1213.84,1.311067,527163,25756
1217.35,1.317642,534208,25708
1220.85,1.331873,540472,25171
1225.51,1.317963,549929,26445
1229.01,1.317795,556888,26790
1232.5,1.318656,562180,26991
1235.98,1.320383,567975,27161
1239.46,1.313893,574815,27902
1242.94,1.313935,582782,28286
1246.41,1.314888,591476,28645
1251.03,1.315443,604016,29215
1254.5,1.320979,612289,29240
1257.96,1.317314,619125,29817
1261.41,1.324452,624551,29588
1264.86,1.322875,629900,29950
1268.31,1.318881,634345,30440
1271.75,1.323969,638574,30286
1276.33,1.324885,642499,30408
1279.76,1.320928,645905,30849
1283.19,1.323992,648307,30746
1286.61,1.326129,650446,30696
1290.03,1.323100,652132,30991
1293.44,1.320569,653907,31257
1296.85,1.325448,655963,31005
1301.39,1.324045,657349,31171
1304.8,1.320631,657558,31427
1308.19,1.331894,658515,30667
1311.58,1.327170,658804,31016
1314.97,1.325727,659011,31129
1318.36,1.330391,658272,30762
1321.73,1.333300,658022,30545
1326.23,1.328899,657870,30849
1329.6,1.325007,656482,31061
1332.97,1.328277,654926,30755
1336.33,1.327198,653727,30775
1339.69,1.326437,652497,30771
1343.04,1.324262,649913,30803
1346.39,1.323636,647671,30741
1349.73,1.328502,645338,30289
1354.18,1.324189,641175,30394
1357.52,1.318618,638376,30652
1360.85,1.327987,635805,29877
1364.17,1.323063,633413,30104
1367.49,1.321582,631026,30093
1370.81,1.321438,628050,29961
1374.12,1.329347,625034,29279
1378.54,1.321760,620272,29568
1381.84,1.319108,616892,29587
1385.14,1.324181,613613,29088
1388.43,1.319636,611526,29294
1391.72,1.328647,610663,28652
1395.01,1.317907,610634,29368
1398.29,1.322660,611700,29099
1402.66,1.327547,614051,28884
1405.93,1.329353,616268,28868
1409.2,1.321111,617795,29494
1412.46,1.325831,618872,29226
1415.72,1.325321,619795,29304
1418.98,1.328607,620495,29116
1422.23,1.327532,621087,29216
1426.56,1.326872,621375,29274
1429.8,1.330197,621616,29062
1433.04,1.326791,622129,29315
1436.27,1.329283,621526,29119
1439.5,1.329830,621113,29063
1442.72,1.334232,620921,28761
1445.94,1.336655,620270,28571
1450.23,1.328297,618860,29060
1453.44,1.326241,617697,29143
1456.64,1.327264,616264,29007
1459.85,1.332961,614413,28543
1463.04,1.329012,612307,28705
1466.24,1.325779,610032,28812
1469.43,1.331849,607345,28287
1473.67,1.331438,603789,28148
1476.85,1.335613,601175,27758
1480.02,1.329073,597737,28018
1483.19,1.331610,594479,27703
1486.36,1.334975,591232,27339
1489.52,1.331011,587853,27432
1492.68,1.332998,583875,27122
1496.89,1.341045,578062,26359
1500.03,1.338928,574159,26309
1503.18,1.330965,570285,26615
1506.32,1.334320,565444,26186
1509.45,1.339780,560571,25636
1512.58,1.339708,555821,25423
1515.71,1.327905,550344,25866
1519.87,1.335566,543983,25120
1522.99,1.331292,538764,25125
1526.1,1.330064,533692,24959
1529.21,1.329944,527902,24695
1532.32,1.326482,521886,24609
1535.42,1.329405,515888,24163
1538.51,1.334831,509987,23590
1541.6,1.337431,503936,23171
1545.72,1.330199,494694,23128
1548.8,1.325013,488378,23107
1551.88,1.327176,481832,22684
1554.95,1.334439,474989,21991
1558.02,1.329831,467818,21890
1561.08,1.331352,460730,21483
1564.15,1.326298,454170,21425
1568.22,1.332346,444181,20664
1571.27,1.334347,436947,20234
1574.32,1.334755,429598,19875
1577.36,1.327395,422039,19859
1580.4,1.330040,414375,19380
1583.43,1.325287,406354,19214
1586.46,1.318232,398475,19150
1590.49,1.324781,388982,18414
1593.51,1.330367,380708,17792
1596.53,1.321923,372727,17761
1599.54,1.327493,365060,17174
1602.55,1.331184,357543,16678
1605.55,1.322027,349495,16650
1608.55,1.325828,341154,16111
1612.54,1.318734,330877,15883
1615.53,1.320595,322904,15434
1618.51,1.326422,315116,14861
1621.49,1.321430,307217,14656
1624.47,1.326319,299481,14127
1627.44,1.304661,292112,14484
1630.41,1.310772,284245,13897
1634.36,1.320571,274079,13101
1637.32,1.311797,266916,13019
1640.27,1.309292,259612,12736
1643.22,1.304222,251804,12498
1646.16,1.314657,244348,11840
1649.1,1.311133,236703,11563
1652.04,1.297600,228171,11499
1655.95,1.293451,215408,10960
1658.88,1.296344,204937,10358
1661.8,1.273650,193395,10299
1664.72,1.267934,179728,9698
1667.63,1.245178,163642,9305
1670.54,1.247512,146312,8275
1673.44,1.199663,128451,8111
1677.31,1.185069,105080,6862
1680.21,1.191611,88906,5719
1683.1,1.164627,75033,5136
1685.99,1.163026,63520,4364
1688.87,1.113927,53714,4132
1691.75,1.184525,45653,2985
1694.62,1.218756,39137,2365
1697.49,1.210963,33776,2078
1701.31,1.266594,28175,1525