File: ML/samples/unknown/Column 1_078345_20241121_165729.csv
Method:,Column 1,,
Host Date-Time:,21/11/24 @ 16:57:29,,
Header Version:,1,,
System Temp (C):,34.78,,
Detector Temp (C):,33.2,,
Humidity (%):,2.3,,
Lamp PD:,3801,,
Shift Vector Coefficients:,-10.5391,0.0761263,-0.000134223,,
Pixel to Wavelength Coefficients:,1775.68,-0.916766,-0.000235065,,
Serial Number:,5510004,,
Scan Config Name:,Column 1,,
Scan Config Type:,Slew,,
Section 1,,
Start wavelength (nm):,900,,
End wavelength (nm):,1700,,
Pattern Pixel Width (nm):,   7.03,,,,
Exposure (ms):,  0.635,,,,
Digital Resolution:,228,,
Num Repeats:,6,,
PGA Gain:,64,,
Total Measurement Time in sec:,  2.726,,
Wavelength (nm),Absorbance (AU),Reference Signal (unitless),Sample Signal (unitless)
901.51,1.324153,108485,5143
905.376,1.332526,121306,5641
909.237,1.305428,131909,6529
913.095,1.322204,143299,6824
916.948,1.324277,156982,7440
922.079,1.317302,179937,8666
925.923,1.327934,200504,9423
929.762,1.332828,222660,10347
933.597,1.331624,244426,11390
937.427,1.329153,263972,12371
941.254,1.328286,281845,13235
945.076,1.321721,297271,14172
950.165,1.316016,315605,15245
953.978,1.320732,328029,15674
957.786,1.314148,340470,16517
961.59,1.314217,352317,17089
965.389,1.319824,363056,17384
969.185,1.317954,373162,17945
972.976,1.306733,382632,18882
976.763,1.314128,391202,18979
981.806,1.317542,400190,19263
985.583,1.310750,406088,19855
989.355,1.307110,410162,20223
993.124,1.305755,412868,20420
996.888,1.315660,414263,20027
1000.65,1.315155,415476,20109
1004.4,1.308004,415479,20443
1009.41,1.310479,414358,20272
1013.15,1.309058,412923,20268
1016.89,1.305321,411526,20374
1020.63,1.314449,409066,19831
1024.36,1.309718,406777,19936
1028.09,1.314185,404427,19618
1031.82,1.316373,401911,19398
1036.78,1.317278,398410,19189
1040.49,1.313285,396204,19259
1044.2,1.313202,394236,19167
1047.91,1.319267,392042,18796
1051.61,1.316109,389823,18826
1055.31,1.311851,388234,18934
1059,1.307054,387599,19113
1063.92,1.314197,386688,18757
1067.61,1.316721,386598,18644
1071.29,1.322279,387377,18444
1074.96,1.321368,388536,18538
1078.63,1.312287,389855,18994
1082.3,1.317058,391215,18852
1085.96,1.319181,393215,18856
1090.84,1.314238,396270,19220
1094.49,1.323240,398760,18944
1098.14,1.317011,400987,19325
1101.79,1.317525,403477,19422
1105.43,1.320804,406116,19402
1109.06,1.324177,407701,19327
1112.7,1.319935,409859,19620
1117.53,1.308521,412494,20272
1121.15,1.325453,414909,19611
1124.77,1.322332,416559,19831
1128.38,1.323640,418532,19865
1131.99,1.318283,419956,20180
1135.6,1.317590,421946,20308
1139.2,1.318872,423881,20341
1143.99,1.323378,426786,20269
1147.58,1.324616,428617,20298
1151.17,1.322978,431169,20496
1154.75,1.328056,433579,20371
1158.33,1.330098,436264,20401
1161.91,1.323364,439132,20856
1165.48,1.332169,442389,20589
1169.04,1.326635,446101,21028
1173.79,1.308014,451929,22236
1177.34,1.319876,456026,21833
1180.9,1.317441,461306,22210
1184.44,1.318614,467657,22455
1187.99,1.315895,473969,22901
1191.52,1.320574,479856,22937
1195.06,1.321363,487372,23254
1199.76,1.328931,497347,23320
1203.29,1.326779,504311,23764
1206.81,1.327195,511507,24080
1210.33,1.328324,519078,24373
1213.84,1.318275,527163,25332
1217.35,1.331860,534208,24880
1220.85,1.329533,540472,25307
1225.51,1.325534,549929,25988
1229.01,1.327748,556888,26183
1232.5,1.333152,562180,26105
1235.98,1.325126,567975,26866
1239.46,1.323493,574815,27292
1242.94,1.328152,582782,27375
1246.41,1.326162,591476,27911
1251.03,1.322426,604016,28749
1254.5,1.324454,612289,29007
1257.96,1.331301,619125,28872
1261.41,1.331451,624551,29115
1264.86,1.331397,629900,29368
1268.31,1.331048,634345,29599
1271.75,1.331418,638574,29771
1276.33,1.326616,642499,30287
1279.76,1.332671,645905,30026
1283.19,1.330281,648307,30304
1286.61,1.329852,650446,30434
1290.03,1.339362,652132,29852
1293.44,1.331501,653907,30480
1296.85,1.333392,655963,30443
1301.39,1.332572,657349,30565
1304.8,1.330810,657558,30699
1308.19,1.338027,658515,30237
1311.58,1.334642,658804,30487
1314.97,1.330539,659011,30786
1318.36,1.330391,658272,30762
1321.73,1.328099,658022,30913
1326.23,1.330634,657870,30726
1329.6,1.333350,656482,30470
1332.97,1.334248,654926,30335
1336.33,1.335907,653727,30164
1339.69,1.338109,652497,29955
1343.04,1.340318,649913,29685
1346.39,1.336381,647671,29852
1349.73,1.331871,645338,30055
1354.18,1.334396,641175,29688
1357.52,1.332671,638376,29676
1360.85,1.337599,635805,29223
1364.17,1.330219,633413,29612
1367.49,1.332572,631026,29341
1370.81,1.330075,628050,29371
1374.12,1.331161,625034,29157
1378.54,1.329182,620272,29067
1381.84,1.327048,616892,29051
1385.14,1.328668,613613,28789
1388.43,1.329427,611526,28641
1391.72,1.328313,610663,28674
1395.01,1.332554,610634,28394
1398.29,1.325385,611700,28917
1402.66,1.329536,614051,28752
1405.93,1.330483,616268,28793
1409.2,1.336838,617795,28445
1412.46,1.332450,618872,28784
1415.72,1.334230,619795,28709
1418.98,1.333723,620495,28775
1422.23,1.334802,621087,28731
1426.56,1.328090,621375,29192
1429.8,1.333949,621616,28812
1433.04,1.330974,622129,29034
1436.27,1.335245,621526,28722
1439.5,1.336987,621113,28588
1442.72,1.334202,620921,28763
1445.94,1.338132,620270,28474
1450.23,1.339637,618860,28311
1453.44,1.343245,617697,28024
1456.64,1.342097,616264,28033
1459.85,1.339646,614413,28107
1463.04,1.338263,612307,28100
1466.24,1.335550,610032,28171
1469.43,1.340141,607345,27752
1473.67,1.337575,603789,27753
1476.85,1.339289,601175,27524
1480.02,1.337936,597737,27452
1483.19,1.340911,594479,27116
1486.36,1.336934,591232,27216
1489.52,1.331075,587853,27428
1492.68,1.336600,583875,26898
1496.89,1.345317,578062,26101
1500.03,1.340698,574159,26202
1503.18,1.338853,570285,26136
1506.32,1.341646,565444,25748
1509.45,1.342687,560571,25465
1512.58,1.345279,555821,25099
1515.71,1.341931,550344,25044
1519.87,1.337281,543983,25021
1522.99,1.348841,538764,24130
1526.1,1.345436,533692,24091
1529.21,1.343629,527902,23929
1532.32,1.339305,521886,23893
1535.42,1.339423,515888,23612
1538.51,1.340557,509987,23281
1541.6,1.342426,503936,22906
1545.72,1.333346,494694,22961
1548.8,1.345229,488378,22056
1551.88,1.341046,481832,21971
1554.95,1.338785,474989,21772
1558.02,1.341514,467818,21309
1561.08,1.332424,460730,21430
1564.15,1.340347,454170,20743
1568.22,1.330563,444181,20749
1571.27,1.345500,436947,19721
1574.32,1.335521,429598,19840
1577.36,1.341622,422039,19219
1580.4,1.335293,414375,19147
1583.43,1.337109,406354,18698
1586.46,1.327956,398475,18726
1590.49,1.335526,388982,17964
1593.51,1.331859,380708,17731
1596.53,1.331516,372727,17373
1599.54,1.326962,365060,17195
1602.55,1.335818,357543,16501
1605.55,1.345582,349495,15771
1608.55,1.330844,341154,15926
1612.54,1.337480,330877,15212
1615.53,1.328661,322904,15150
1618.51,1.319839,315116,15088
1621.49,1.325628,307217,14515
1624.47,1.330334,299481,13997
1627.44,1.325136,292112,13817
1630.41,1.311366,284245,13878
1634.36,1.318983,274079,13149
1637.32,1.319199,266916,12799
1640.27,1.317172,259612,12507
1643.22,1.315308,251804,12183
1646.16,1.308104,244348,12020
1649.1,1.307580,236703,11658
1652.04,1.325481,228171,10784
1655.95,1.305586,215408,10658
1658.88,1.308763,204937,10066
1661.8,1.312026,193395,9428
1664.72,1.287677,179728,9267
1667.63,1.274226,163642,8703
1670.54,1.249405,146312,8239
1673.44,1.251586,128451,7197
1677.31,1.213377,105080,6429
1680.21,1.233095,88906,5198
1683.1,1.208173,75033,4646
1685.99,1.213296,63520,3887
1688.87,1.219677,53714,3239
1691.75,1.293046,45653,2325
1694.62,1.225791,39137,2327
1697.49,1.221754,33776,2027
1701.31,1.250932,28175,1581