File: ML/samples/unknown/Column 1_078760_20241121_172051.csv
Method:,Column 1,,
Host Date-Time:,21/11/24 @ 17:20:51,,
Header Version:,1,,
System Temp (C):,36.86,,
Detector Temp (C):,35.01,,
Humidity (%):,1.22,,
Lamp PD:,3798,,
Shift Vector Coefficients:,-10.5391,0.0761263,-0.000134223,,
Pixel to Wavelength Coefficients:,1775.68,-0.916766,-0.000235065,,
Serial Number:,5510004,,
Scan Config Name:,Column 1,,
Scan Config Type:,Slew,,
Section 1,,
Start wavelength (nm):,900,,
End wavelength (nm):,1700,,
Pattern Pixel Width (nm):,   7.03,,,,
Exposure (ms):,  0.635,,,,
Digital Resolution:,228,,
Num Repeats:,6,,
PGA Gain:,64,,
Total Measurement Time in sec:,  2.726,,
Wavelength (nm),Absorbance (AU),Reference Signal (unitless),Sample Signal (unitless)
901.51,1.354762,108485,4793
905.376,1.366961,121306,5211
909.237,1.319970,131909,6314
913.095,1.319539,143299,6866
916.948,1.312529,156982,7644
922.079,1.313063,179937,8751
925.923,1.314904,200504,9710
929.762,1.333206,222660,10338
933.597,1.325641,244426,11548
937.427,1.326528,263972,12446
941.254,1.320482,281845,13475
945.076,1.313225,297271,14452
950.165,1.302305,315605,15734
953.978,1.313233,328029,15947
957.786,1.314411,340470,16507
961.59,1.315566,352317,17036
965.389,1.295534,363056,18384
969.185,1.305901,373162,18450
972.976,1.307977,382632,18828
976.763,1.302678,391202,19486
981.806,1.317317,400190,19273
985.583,1.305359,406088,20103
989.355,1.306938,410162,20231
993.124,1.316217,412868,19934
996.888,1.304485,414263,20549
1000.65,1.304342,415476,20616
1004.4,1.310882,415479,20308
1009.41,1.304543,414358,20551
1013.15,1.313235,412923,20074
1016.89,1.305598,411526,20361
1020.63,1.307475,409066,20152
1024.36,1.319055,406777,19512
1028.09,1.314739,404427,19593
1031.82,1.308277,401911,19763
1036.78,1.308984,398410,19559
1040.49,1.306639,396204,19556
1044.2,1.308290,394236,19385
1047.91,1.297370,392042,19768
1051.61,1.306798,389823,19234
1055.31,1.304279,388234,19267
1059,1.307236,387599,19105
1063.92,1.313388,386688,18792
1067.61,1.309055,386598,18976
1071.29,1.310021,387377,18972
1074.96,1.315320,388536,18798
1078.63,1.318203,389855,18737
1082.3,1.307692,391215,19263
1085.96,1.304907,393215,19486
1090.84,1.309429,396270,19434
1094.49,1.322553,398760,18974
1098.14,1.306180,400987,19813
1101.79,1.313208,403477,19616
1105.43,1.314647,406116,19679
1109.06,1.312428,407701,19857
1112.7,1.314655,409859,19860
1117.53,1.310583,412494,20176
1121.15,1.309132,414909,20362
1124.77,1.311838,416559,20316
1128.38,1.307524,418532,20616
1131.99,1.315793,419956,20296
1135.6,1.317568,421946,20309
1139.2,1.317358,423881,20412
1143.99,1.317631,426786,20539
1147.58,1.314236,428617,20789
1151.17,1.314127,431169,20918
1154.75,1.318129,433579,20842
1158.33,1.317696,436264,20992
1161.91,1.322719,439132,20887
1165.48,1.317262,442389,21308
1169.04,1.311974,446101,21750
1173.79,1.313319,451929,21966
1177.34,1.313087,456026,22177
1180.9,1.318184,461306,22172
1184.44,1.319040,467657,22433
1187.99,1.317663,473969,22808
1191.52,1.308899,479856,23562
1195.06,1.314231,487372,23639
1199.76,1.320229,497347,23792
1203.29,1.321295,504311,24066
1206.81,1.322406,511507,24347
1210.33,1.316893,519078,25023
1213.84,1.318155,527163,25339
1217.35,1.322347,534208,25431
1220.85,1.319021,540472,25927
1225.51,1.316651,549929,26525
1229.01,1.320674,556888,26613
1232.5,1.320769,562180,26860
1235.98,1.323529,567975,26965
1239.46,1.318540,574815,27605
1242.94,1.318084,582782,28017
1246.41,1.321596,591476,28206
1251.03,1.324743,604016,28596
1254.5,1.318329,612289,29419
1257.96,1.319534,619125,29665
1261.41,1.322461,624551,29724
1264.86,1.323034,629900,29939
1268.31,1.323326,634345,30130
1271.75,1.326472,638574,30112
1276.33,1.322094,642499,30604
1279.76,1.321731,645905,30792
1283.19,1.324345,648307,30721
1286.61,1.320549,650446,31093
1290.03,1.325390,652132,30828
1293.44,1.329227,653907,30640
1296.85,1.322099,655963,31245
1301.39,1.326294,657349,31010
1304.8,1.328538,657558,30860
1308.19,1.331286,658515,30710
1311.58,1.327058,658804,31024
1314.97,1.324070,659011,31248
1318.36,1.326722,658272,31023
1321.73,1.324894,658022,31142
1326.23,1.326764,657870,31001
1329.6,1.323388,656482,31177
1332.97,1.325686,654926,30939
1336.33,1.326057,653727,30856
1339.69,1.330364,652497,30494
1343.04,1.329140,649913,30459
1346.39,1.327425,647671,30474
1349.73,1.326599,645338,30422
1354.18,1.326208,641175,30253
1357.52,1.321290,638376,30464
1360.85,1.330758,635805,29687
1364.17,1.329794,633413,29641
1367.49,1.329402,631026,29556
1370.81,1.324799,628050,29730
1374.12,1.328044,625034,29367
1378.54,1.325729,620272,29299
1381.84,1.324514,616892,29221
1385.14,1.322378,613613,29209
1388.43,1.321419,611526,29174
1391.72,1.325219,610663,28879
1395.01,1.329096,610634,28621
1398.29,1.326603,611700,28836
1402.66,1.327532,614051,28885
1405.93,1.328241,616268,28942
1409.2,1.329947,617795,28900
1412.46,1.330508,618872,28913
1415.72,1.330120,619795,28982
1418.98,1.332021,620495,28888
1422.23,1.324584,621087,29415
1426.56,1.332681,621375,28885
1429.8,1.328303,621616,29189
1433.04,1.333689,622129,28853
1436.27,1.329835,621526,29082
1439.5,1.334276,621113,28767
1442.72,1.331013,620921,28975
1445.94,1.332375,620270,28854
1450.23,1.330484,618860,28914
1453.44,1.332682,617697,28714
1456.64,1.335578,616264,28457
1459.85,1.333113,614413,28533
1463.04,1.334003,612307,28377
1466.24,1.332080,610032,28397
1469.43,1.334374,607345,28123
1473.67,1.333386,603789,28022
1476.85,1.331688,601175,28010
1480.02,1.330470,597737,27928
1483.19,1.326792,594479,28012
1486.36,1.332757,591232,27479
1489.52,1.325037,587853,27812
1492.68,1.333767,583875,27074
1496.89,1.334634,578062,26751
1500.03,1.355260,574159,25338
1503.18,1.332109,570285,26545
1506.32,1.337633,565444,25987
1509.45,1.341172,560571,25554
1512.58,1.335458,555821,25673
1515.71,1.336091,550344,25383
1519.87,1.337038,543983,25035
1522.99,1.330895,538764,25148
1526.1,1.331755,533692,24862
1529.21,1.335662,527902,24372
1532.32,1.324053,521886,24747
1535.42,1.329566,515888,24154
1538.51,1.325758,509987,24088
1541.6,1.333067,503936,23405
1545.72,1.334141,494694,22919
1548.8,1.325652,488378,23073
1551.88,1.326965,481832,22695
1554.95,1.332488,474989,22090
1558.02,1.333177,467818,21722
1561.08,1.337131,460730,21199
1564.15,1.331333,454170,21178
1568.22,1.329288,444181,20810
1571.27,1.340421,436947,19953
1574.32,1.327582,429598,20206
1577.36,1.327373,422039,19860
1580.4,1.329323,414375,19412
1583.43,1.328896,406354,19055
1586.46,1.317756,398475,19171
1590.49,1.323957,388982,18449
1593.51,1.322003,380708,18138
1596.53,1.323418,372727,17700
1599.54,1.321216,365060,17424
1602.55,1.319014,357543,17152
1605.55,1.318856,349495,16772
1608.55,1.327638,341154,16044
1612.54,1.320021,330877,15836
1615.53,1.321271,322904,15410
1618.51,1.339264,315116,14428
1621.49,1.319892,307217,14708
1624.47,1.315841,299481,14472
1627.44,1.315315,292112,14133
1630.41,1.300732,284245,14222
1634.36,1.317532,274079,13193
1637.32,1.310165,266916,13068
1640.27,1.325728,259612,12263
1643.22,1.305789,251804,12453
1646.16,1.311623,244348,11923
1649.1,1.322164,236703,11273
1652.04,1.305259,228171,11298
1655.95,1.302379,215408,10737
1658.88,1.294754,204937,10396
1661.8,1.298779,193395,9720
1664.72,1.289414,179728,9230
1667.63,1.241461,163642,9385
1670.54,1.236270,146312,8492
1673.44,1.226498,128451,7625
1677.31,1.201647,105080,6605
1680.21,1.174195,88906,5953
1683.1,1.161090,75033,5178
1685.99,1.185072,63520,4148
1688.87,1.148593,53714,3815
1691.75,1.127225,45653,3406
1694.62,1.142492,39137,2819
1697.49,1.101284,33776,2675
1701.31,1.168831,28175,1910