File: ML/samples/unknown/Column 1_078298_20241121_165512.csv
Method:,Column 1,,
Host Date-Time:,21/11/24 @ 16:55:12,,
Header Version:,1,,
System Temp (C):,34.44,,
Detector Temp (C):,32.51,,
Humidity (%):,2.15,,
Lamp PD:,3802,,
Shift Vector Coefficients:,-10.5391,0.0761263,-0.000134223,,
Pixel to Wavelength Coefficients:,1775.68,-0.916766,-0.000235065,,
Serial Number:,5510004,,
Scan Config Name:,Column 1,,
Scan Config Type:,Slew,,
Section 1,,
Start wavelength (nm):,900,,
End wavelength (nm):,1700,,
Pattern Pixel Width (nm):,   7.03,,,,
Exposure (ms):,  0.635,,,,
Digital Resolution:,228,,
Num Repeats:,6,,
PGA Gain:,64,,
Total Measurement Time in sec:,  2.676,,
Wavelength (nm),Absorbance (AU),Reference Signal (unitless),Sample Signal (unitless)
901.51,1.343228,108485,4922
905.376,1.349563,121306,5424
909.237,1.324812,131909,6244
913.095,1.305230,143299,7096
916.948,1.323169,156982,7459
922.079,1.331359,179937,8390
925.923,1.338099,200504,9205
929.762,1.327074,222660,10485
933.597,1.318368,244426,11743
937.427,1.317071,263972,12720
941.254,1.318777,281845,13528
945.076,1.327490,297271,13985
950.165,1.323487,315605,14985
953.978,1.317530,328029,15790
957.786,1.316309,340470,16435
961.59,1.318610,352317,16917
965.389,1.315919,363056,17541
969.185,1.311158,373162,18228
972.976,1.316173,382632,18476
976.763,1.311868,391202,19078
981.806,1.307293,400190,19723
985.583,1.309745,406088,19901
989.355,1.305695,410162,20289
993.124,1.311472,412868,20153
996.888,1.311173,414263,20235
1000.65,1.317255,415476,20012
1004.4,1.308706,415479,20410
1009.41,1.308854,414358,20348
1013.15,1.319599,412923,19782
1016.89,1.309089,411526,20198
1020.63,1.309073,409066,20078
1024.36,1.315067,406777,19692
1028.09,1.318032,404427,19445
1031.82,1.311143,401911,19633
1036.78,1.309317,398410,19544
1040.49,1.313330,396204,19257
1044.2,1.310739,394236,19276
1047.91,1.308812,392042,19254
1051.61,1.319746,389823,18669
1055.31,1.324252,388234,18401
1059,1.310430,387599,18965
1063.92,1.310233,386688,18929
1067.61,1.307205,386598,19057
1071.29,1.315387,387377,18739
1074.96,1.314281,388536,18843
1078.63,1.315177,389855,18868
1082.3,1.318974,391215,18769
1085.96,1.312597,393215,19144
1090.84,1.317140,396270,19092
1094.49,1.317614,398760,19191
1098.14,1.324560,400987,18992
1101.79,1.315784,403477,19500
1105.43,1.312819,406116,19762
1109.06,1.319284,407701,19546
1112.7,1.320556,409859,19592
1117.53,1.313845,412494,20025
1121.15,1.321068,414909,19810
1124.77,1.325762,416559,19675
1128.38,1.318705,418532,20092
1131.99,1.322217,419956,19998
1135.6,1.319433,421946,20222
1139.2,1.325780,423881,20020
1143.99,1.325483,426786,20171
1147.58,1.326417,428617,20214
1151.17,1.329942,431169,20170
1154.75,1.319485,433579,20777
1158.33,1.319977,436264,20882
1161.91,1.324031,439132,20824
1165.48,1.321481,442389,21102
1169.04,1.323979,446101,21157
1173.79,1.321180,451929,21572
1177.34,1.322290,456026,21712
1180.9,1.329113,461306,21621
1184.44,1.317301,467657,22523
1187.99,1.323799,473969,22488
1191.52,1.323005,479856,22809
1195.06,1.327438,487372,22931
1199.76,1.321252,497347,23736
1203.29,1.319602,504311,24160
1206.81,1.323281,511507,24298
1210.33,1.322588,519078,24697
1213.84,1.327318,527163,24810
1217.35,1.322672,534208,25412
1220.85,1.351514,540472,24058
1225.51,1.318917,549929,26387
1229.01,1.326010,556888,26288
1232.5,1.331574,562180,26200
1235.98,1.321088,567975,27117
1239.46,1.324576,574815,27224
1242.94,1.326173,582782,27500
1246.41,1.326769,591476,27872
1251.03,1.327073,604016,28443
1254.5,1.326419,612289,28876
1257.96,1.325519,619125,29259
1261.41,1.331317,624551,29124
1264.86,1.325201,629900,29790
1268.31,1.333225,634345,29451
1271.75,1.333260,638574,29645
1276.33,1.332317,642499,29892
1279.76,1.332411,645905,30044
1283.19,1.330367,648307,30298
1286.61,1.335266,650446,30057
1290.03,1.336997,652132,30015
1293.44,1.333601,653907,30333
1296.85,1.333620,655963,30427
1301.39,1.330149,657349,30736
1304.8,1.330117,657558,30748
1308.19,1.329353,658515,30847
1311.58,1.330008,658804,30814
1314.97,1.334507,659011,30506
1318.36,1.332627,658272,30604
1321.73,1.334839,658022,30437
1326.23,1.333627,657870,30515
1329.6,1.335036,656482,30352
1332.97,1.337049,654926,30140
1336.33,1.331609,653727,30464
1339.69,1.330535,652497,30482
1343.04,1.332374,649913,30233
1346.39,1.333163,647671,30074
1349.73,1.334203,645338,29894
1354.18,1.331422,641175,29892
1357.52,1.338505,638376,29280
1360.85,1.332531,635805,29566
1364.17,1.334419,633413,29327
1367.49,1.327759,631026,29668
1370.81,1.328526,628050,29476
1374.12,1.333027,625034,29032
1378.54,1.327795,620272,29160
1381.84,1.331692,616892,28742
1385.14,1.328457,613613,28803
1388.43,1.335981,611526,28212
1391.72,1.333049,610663,28363
1395.01,1.328474,610634,28662
1398.29,1.327659,611700,28766
1402.66,1.336464,614051,28297
1405.93,1.331736,616268,28710
1409.2,1.335558,617795,28529
1412.46,1.340290,618872,28269
1415.72,1.331260,619795,28906
1418.98,1.334493,620495,28724
1422.23,1.337516,621087,28552
1426.56,1.339409,621375,28441
1429.8,1.335202,621616,28729
1433.04,1.331033,622129,29030
1436.27,1.337154,621526,28596
1439.5,1.342337,621113,28238
1442.72,1.342649,620921,28209
1445.94,1.336108,620270,28607
1450.23,1.337602,618860,28444
1453.44,1.338805,617697,28312
1456.64,1.335898,616264,28436
1459.85,1.339337,614413,28127
1463.04,1.335060,612307,28308
1466.24,1.336152,610032,28132
1469.43,1.343834,607345,27517
1473.67,1.341853,603789,27481
1476.85,1.338045,601175,27603
1480.02,1.339712,597737,27340
1483.19,1.341328,594479,27090
1486.36,1.341296,591232,26944
1489.52,1.338791,587853,26945
1492.68,1.338104,583875,26805
1496.89,1.341326,578062,26342
1500.03,1.337280,574159,26409
1503.18,1.332944,570285,26494
1506.32,1.347265,565444,25417
1509.45,1.334343,560571,25959
1512.58,1.334377,555821,25737
1515.71,1.341774,550344,25053
1519.87,1.339473,543983,24895
1522.99,1.337192,538764,24786
1526.1,1.346483,533692,24033
1529.21,1.332767,527902,24535
1532.32,1.331934,521886,24302
1535.42,1.337148,515888,23736
1538.51,1.338585,509987,23387
1541.6,1.333178,503936,23399
1545.72,1.339921,494694,22616
1548.8,1.339071,488378,22371
1551.88,1.334454,481832,22307
1554.95,1.339704,474989,21726
1558.02,1.337841,467818,21490
1561.08,1.330160,460730,21542
1564.15,1.337883,454170,20861
1568.22,1.336188,444181,20482
1571.27,1.345302,436947,19730
1574.32,1.348767,429598,19244
1577.36,1.338245,422039,19369
1580.4,1.333844,414375,19211
1583.43,1.340397,406354,18557
1586.46,1.331332,398475,18581
1590.49,1.343825,388982,17624
1593.51,1.334217,380708,17635
1596.53,1.334652,372727,17248
1599.54,1.346119,365060,16453
1602.55,1.331914,357543,16650
1605.55,1.333256,349495,16225
1608.55,1.340049,341154,15592
1612.54,1.338452,330877,15178
1615.53,1.319246,322904,15482
1618.51,1.326978,315116,14842
1621.49,1.328450,307217,14421
1624.47,1.305257,299481,14829
1627.44,1.317410,292112,14065
1630.41,1.326037,284245,13417
1634.36,1.310123,274079,13420
1637.32,1.324902,266916,12632
1640.27,1.330070,259612,12141
1643.22,1.327161,251804,11855
1646.16,1.316606,244348,11787
1649.1,1.317642,236703,11391
1652.04,1.323592,228171,10831
1655.95,1.299557,215408,10807
1658.88,1.298867,204937,10298
1661.8,1.307580,193395,9525
1664.72,1.286133,179728,9300
1667.63,1.282081,163642,8547
1670.54,1.267103,146312,7910
1673.44,1.245891,128451,7292
1677.31,1.216836,105080,6378
1680.21,1.215573,88906,5412
1683.1,1.183022,75033,4923
1685.99,1.142614,63520,4574
1688.87,1.115507,53714,4117
1691.75,1.185690,45653,2977
1694.62,1.173458,39137,2625
1697.49,1.162372,33776,2324
1701.31,1.206082,28175,1753