File: ML/samples/unknown/Column 1_078717_20241121_171847.csv
Method:,Column 1,,
Host Date-Time:,21/11/24 @ 17:18:47,,
Header Version:,1,,
System Temp (C):,35.74,,
Detector Temp (C):,34.44,,
Humidity (%):,1.57,,
Lamp PD:,3799,,
Shift Vector Coefficients:,-10.5391,0.0761263,-0.000134223,,
Pixel to Wavelength Coefficients:,1775.68,-0.916766,-0.000235065,,
Serial Number:,5510004,,
Scan Config Name:,Column 1,,
Scan Config Type:,Slew,,
Section 1,,
Start wavelength (nm):,900,,
End wavelength (nm):,1700,,
Pattern Pixel Width (nm):,   7.03,,,,
Exposure (ms):,  0.635,,,,
Digital Resolution:,228,,
Num Repeats:,6,,
PGA Gain:,64,,
Total Measurement Time in sec:,  2.728,,
Wavelength (nm),Absorbance (AU),Reference Signal (unitless),Sample Signal (unitless)
901.51,1.297303,108485,5471
905.376,1.307617,121306,5974
909.237,1.302775,131909,6569
913.095,1.304496,143299,7108
916.948,1.327441,156982,7386
922.079,1.325140,179937,8511
925.923,1.328764,200504,9405
929.762,1.314500,222660,10793
933.597,1.329266,244426,11452
937.427,1.327716,263972,12412
941.254,1.325930,281845,13307
945.076,1.317543,297271,14309
950.165,1.301974,315605,15746
953.978,1.309869,328029,16071
957.786,1.307675,340470,16765
961.59,1.303871,352317,17501
965.389,1.299235,363056,18228
969.185,1.306372,373162,18430
972.976,1.308554,382632,18803
976.763,1.298486,391202,19675
981.806,1.304900,400190,19832
985.583,1.307113,406088,20022
989.355,1.311058,410162,20040
993.124,1.303190,412868,20541
996.888,1.302651,414263,20636
1000.65,1.301884,415476,20733
1004.4,1.304408,415479,20613
1009.41,1.299542,414358,20789
1013.15,1.301517,412923,20623
1016.89,1.300003,411526,20625
1020.63,1.309030,409066,20080
1024.36,1.299513,406777,20410
1028.09,1.299558,404427,20290
1031.82,1.299553,401911,20164
1036.78,1.300627,398410,19939
1040.49,1.302528,396204,19742
1044.2,1.294900,394236,19992
1047.91,1.320795,392042,18730
1051.61,1.305603,389823,19287
1055.31,1.305747,388234,19202
1059,1.309881,387599,18989
1063.92,1.309202,386688,18974
1067.61,1.315581,386598,18693
1071.29,1.311029,387377,18928
1074.96,1.305881,388536,19211
1078.63,1.312790,389855,18972
1082.3,1.312315,391215,19059
1085.96,1.306963,393215,19394
1090.84,1.309362,396270,19437
1094.49,1.306885,398760,19671
1098.14,1.312117,400987,19544
1101.79,1.315962,403477,19492
1105.43,1.310059,406116,19888
1109.06,1.313129,407701,19825
1112.7,1.318720,409859,19675
1117.53,1.310712,412494,20170
1121.15,1.305395,414909,20538
1124.77,1.313187,416559,20253
1128.38,1.308727,418532,20559
1131.99,1.317272,419956,20227
1135.6,1.321133,421946,20143
1139.2,1.315427,423881,20503
1143.99,1.314954,426786,20666
1147.58,1.320421,428617,20495
1151.17,1.310324,431169,21102
1154.75,1.319946,433579,20755
1158.33,1.324451,436264,20668
1161.91,1.318889,439132,21072
1165.48,1.309044,442389,21715
1169.04,1.314758,446101,21611
1173.79,1.315798,451929,21841
1177.34,1.309246,456026,22374
1180.9,1.312811,461306,22448
1184.44,1.312278,467657,22785
1187.99,1.318520,473969,22763
1191.52,1.312304,479856,23378
1195.06,1.316978,487372,23490
1199.76,1.321417,497347,23727
1203.29,1.317539,504311,24275
1206.81,1.322281,511507,24354
1210.33,1.323433,519078,24649
1213.84,1.320114,527163,25225
1217.35,1.321903,534208,25457
1220.85,1.318469,540472,25960
1225.51,1.322403,549929,26176
1229.01,1.313376,556888,27064
1232.5,1.318528,562180,26999
1235.98,1.316943,567975,27377
1239.46,1.317001,574815,27703
1242.94,1.320572,582782,27857
1246.41,1.322150,591476,28170
1251.03,1.327761,604016,28398
1254.5,1.314829,612289,29657
1257.96,1.316470,619125,29875
1261.41,1.319810,624551,29906
1264.86,1.325741,629900,29753
1268.31,1.321514,634345,30256
1271.75,1.321282,638574,30474
1276.33,1.325614,642499,30357
1279.76,1.320154,645905,30904
1283.19,1.322878,648307,30825
1286.61,1.327164,650446,30623
1290.03,1.327948,652132,30647
1293.44,1.323161,653907,31071
1296.85,1.326499,655963,30930
1301.39,1.326981,657349,30961
1304.8,1.331574,657558,30645
1308.19,1.327302,658515,30993
1311.58,1.330332,658804,30791
1314.97,1.329089,659011,30889
1318.36,1.323931,658272,31223
1321.73,1.324197,658022,31192
1326.23,1.325408,657870,31098
1329.6,1.323751,656482,31151
1332.97,1.328955,654926,30707
1336.33,1.328980,653727,30649
1339.69,1.325506,652497,30837
1343.04,1.331241,649913,30312
1346.39,1.324244,647671,30698
1349.73,1.328287,645338,30304
1354.18,1.324046,641175,30404
1357.52,1.327840,638376,30008
1360.85,1.324065,635805,30148
1364.17,1.321134,633413,30238
1367.49,1.325948,631026,29792
1370.81,1.329470,628050,29412
1374.12,1.325596,625034,29533
1378.54,1.326768,620272,29229
1381.84,1.325377,616892,29163
1385.14,1.323808,613613,29113
1388.43,1.323089,611526,29062
1391.72,1.319928,610663,29233
1395.01,1.325982,610634,28827
1398.29,1.328339,611700,28721
1402.66,1.326316,614051,28966
1405.93,1.328992,616268,28892
1409.2,1.320949,617795,29505
1412.46,1.323239,618872,29401
1415.72,1.331155,619795,28913
1418.98,1.328726,620495,29108
1422.23,1.326240,621087,29303
1426.56,1.327183,621375,29253
1429.8,1.332114,621616,28934
1433.04,1.328245,622129,29217
1436.27,1.326755,621526,29289
1439.5,1.334095,621113,28779
1442.72,1.328756,620921,29126
1445.94,1.328792,620270,29093
1450.23,1.329404,618860,28986
1453.44,1.332954,617697,28696
1456.64,1.333978,616264,28562
1459.85,1.324150,614413,29128
1463.04,1.327155,612307,28828
1466.24,1.331377,610032,28443
1469.43,1.334575,607345,28110
1473.67,1.330682,603789,28197
1476.85,1.331300,601175,28035
1480.02,1.332091,597737,27824
1483.19,1.336449,594479,27396
1486.36,1.336487,591232,27244
1489.52,1.336893,587853,27063
1492.68,1.333992,583875,27060
1496.89,1.334277,578062,26773
1500.03,1.330217,574159,26842
1503.18,1.329418,570285,26710
1506.32,1.334619,565444,26168
1509.45,1.329369,560571,26258
1512.58,1.335002,555821,25700
1515.71,1.334656,550344,25467
1519.87,1.328518,543983,25531
1522.99,1.324927,538764,25496
1526.1,1.329577,533692,24987
1529.21,1.336179,527902,24343
1532.32,1.328587,521886,24490
1535.42,1.331892,515888,24025
1538.51,1.327909,509987,23969
1541.6,1.325853,503936,23797
1545.72,1.336421,494694,22799
1548.8,1.331603,488378,22759
1551.88,1.331254,481832,22472
1554.95,1.331329,474989,22149
1558.02,1.331720,467818,21795
1561.08,1.322566,460730,21922
1564.15,1.326947,454170,21393
1568.22,1.327996,444181,20872
1571.27,1.328717,436947,20498
1574.32,1.332467,429598,19980
1577.36,1.329983,422039,19741
1580.4,1.326136,414375,19555
1583.43,1.327053,406354,19136
1586.46,1.324882,398475,18859
1590.49,1.323839,388982,18454
1593.51,1.327399,380708,17914
1596.53,1.326965,372727,17556
1599.54,1.323666,365060,17326
1602.55,1.321629,357543,17049
1605.55,1.319089,349495,16763
1608.55,1.319486,341154,16348
1612.54,1.318406,330877,15895
1615.53,1.316841,322904,15568
1618.51,1.315315,315116,15246
1621.49,1.314609,307217,14888
1624.47,1.320699,299481,14311
1627.44,1.307640,292112,14385
1630.41,1.308683,284245,13964
1634.36,1.322965,274079,13029
1637.32,1.321478,266916,12732
1640.27,1.307251,259612,12796
1643.22,1.304187,251804,12499
1646.16,1.306014,244348,12078
1649.1,1.302211,236703,11803
1652.04,1.313016,228171,11098
1655.95,1.317274,215408,10375
1658.88,1.286151,204937,10604
1661.8,1.266706,193395,10465
1664.72,1.271350,179728,9622
1667.63,1.258688,163642,9020
1670.54,1.240897,146312,8402
1673.44,1.215087,128451,7828
1677.31,1.172162,105080,7069
1680.21,1.165313,88906,6076
1683.1,1.201494,75033,4718
1685.99,1.176057,63520,4235
1688.87,1.146209,53714,3836
1691.75,1.196772,45653,2902
1694.62,1.122618,39137,2951
1697.49,1.121047,33776,2556
1701.31,1.197254,28175,1789