File: ML/samples/unknown/Column 1_078323_20241121_165625.csv
Method:,Column 1,,
Host Date-Time:,21/11/24 @ 16:56:25,,
Header Version:,1,,
System Temp (C):,34.72,,
Detector Temp (C):,32.89,,
Humidity (%):,2.16,,
Lamp PD:,3801,,
Shift Vector Coefficients:,-10.5391,0.0761263,-0.000134223,,
Pixel to Wavelength Coefficients:,1775.68,-0.916766,-0.000235065,,
Serial Number:,5510004,,
Scan Config Name:,Column 1,,
Scan Config Type:,Slew,,
Section 1,,
Start wavelength (nm):,900,,
End wavelength (nm):,1700,,
Pattern Pixel Width (nm):,   7.03,,,,
Exposure (ms):,  0.635,,,,
Digital Resolution:,228,,
Num Repeats:,6,,
PGA Gain:,64,,
Total Measurement Time in sec:,  2.727,,
Wavelength (nm),Absorbance (AU),Reference Signal (unitless),Sample Signal (unitless)
901.51,1.320956,108485,5181
905.376,1.320829,121306,5795
909.237,1.335087,131909,6098
913.095,1.321568,143299,6834
916.948,1.313496,156982,7627
922.079,1.316701,179937,8678
925.923,1.326416,200504,9456
929.762,1.317285,222660,10724
933.597,1.318812,244426,11731
937.427,1.327471,263972,12419
941.254,1.320933,281845,13461
945.076,1.323626,297271,14110
950.165,1.315675,315605,15257
953.978,1.319404,328029,15722
957.786,1.315755,340470,16456
961.59,1.310094,352317,17252
965.389,1.307412,363056,17888
969.185,1.308853,373162,18325
972.976,1.312126,382632,18649
976.763,1.312050,391202,19070
981.806,1.308462,400190,19670
985.583,1.316320,406088,19602
989.355,1.316203,410162,19804
993.124,1.308315,412868,20300
996.888,1.304211,414263,20562
1000.65,1.312958,415476,20211
1004.4,1.313305,415479,20195
1009.41,1.310951,414358,20250
1013.15,1.312198,412923,20122
1016.89,1.306281,411526,20329
1020.63,1.308900,409066,20086
1024.36,1.310634,406777,19894
1028.09,1.310943,404427,19765
1031.82,1.307969,401911,19777
1036.78,1.314953,398410,19292
1040.49,1.311193,396204,19352
1044.2,1.305299,394236,19519
1047.91,1.302519,392042,19535
1051.61,1.296820,389823,19681
1055.31,1.313920,388234,18844
1059,1.310751,387599,18951
1063.92,1.320447,386688,18489
1067.61,1.309192,386598,18970
1071.29,1.318738,387377,18595
1074.96,1.303132,388536,19333
1078.63,1.309733,389855,19106
1082.3,1.309997,391215,19161
1085.96,1.312076,393215,19167
1090.84,1.309273,396270,19441
1094.49,1.309343,398760,19560
1098.14,1.315261,400987,19403
1101.79,1.314672,403477,19550
1105.43,1.324332,406116,19245
1109.06,1.318596,407701,19577
1112.7,1.314087,409859,19886
1117.53,1.314236,412494,20007
1121.15,1.315860,414909,20049
1124.77,1.318104,416559,20025
1128.38,1.321155,418532,19979
1131.99,1.313276,419956,20414
1135.6,1.316628,421946,20353
1139.2,1.312240,423881,20654
1143.99,1.321390,426786,20362
1147.58,1.326181,428617,20225
1151.17,1.320612,431169,20608
1154.75,1.314684,433579,21008
1158.33,1.313721,436264,21185
1161.91,1.319653,439132,21035
1165.48,1.320412,442389,21154
1169.04,1.316914,446101,21504
1173.79,1.313636,451929,21950
1177.34,1.322050,456026,21724
1180.9,1.315918,461306,22288
1184.44,1.316569,467657,22561
1187.99,1.319705,473969,22701
1191.52,1.318346,479856,23055
1195.06,1.321382,487372,23253
1199.76,1.320229,497347,23792
1203.29,1.317879,504311,24256
1206.81,1.325000,511507,24202
1210.33,1.325411,519078,24537
1213.84,1.328440,527163,24746
1217.35,1.321733,534208,25467
1220.85,1.318669,540472,25948
1225.51,1.324799,549929,26032
1229.01,1.318850,556888,26725
1232.5,1.322730,562180,26739
1235.98,1.326324,567975,26792
1239.46,1.320527,574815,27479
1242.94,1.323183,582782,27690
1246.41,1.321211,591476,28231
1251.03,1.319955,604016,28913
1254.5,1.326089,612289,28898
1257.96,1.328259,619125,29075
1261.41,1.326910,624551,29421
1264.86,1.325945,629900,29739
1268.31,1.327964,634345,29810
1271.75,1.332323,638574,29709
1276.33,1.323444,642499,30509
1279.76,1.331674,645905,30095
1283.19,1.327908,648307,30470
1286.61,1.331024,650446,30352
1290.03,1.331476,652132,30399
1293.44,1.330476,653907,30552
1296.85,1.330435,655963,30651
1301.39,1.328330,657349,30865
1304.8,1.334176,657558,30462
1308.19,1.336078,658515,30373
1311.58,1.330163,658804,30803
1314.97,1.332391,659011,30655
1318.36,1.334790,658272,30452
1321.73,1.335467,658022,30393
1326.23,1.328238,657870,30896
1329.6,1.333023,656482,30493
1332.97,1.324536,654926,31021
1336.33,1.330314,653727,30555
1339.69,1.332391,652497,30352
1343.04,1.330010,649913,30398
1346.39,1.334871,647671,29956
1349.73,1.329134,645338,30245
1354.18,1.327805,641175,30142
1357.52,1.330190,638376,29846
1360.85,1.328860,635805,29817
1364.17,1.324841,633413,29981
1367.49,1.335081,631026,29172
1370.81,1.331230,628050,29293
1374.12,1.333161,625034,29023
1378.54,1.326293,620272,29261
1381.84,1.328921,616892,28926
1385.14,1.327222,613613,28885
1388.43,1.329472,611526,28638
1391.72,1.331964,610663,28434
1395.01,1.325575,610634,28854
1398.29,1.331724,611700,28498
1402.66,1.336096,614051,28321
1405.93,1.325355,616268,29135
1409.2,1.357651,617795,27114
1412.46,1.336665,618872,28506
1415.72,1.332614,619795,28816
1418.98,1.326776,620495,29239
1422.23,1.335846,621087,28662
1426.56,1.336017,621375,28664
1429.8,1.336140,621616,28667
1433.04,1.333810,622129,28845
1436.27,1.332516,621526,28903
1439.5,1.335047,621113,28716
1442.72,1.338588,620921,28474
1445.94,1.331908,620270,28885
1450.23,1.334437,618860,28652
1453.44,1.339573,617697,28262
1456.64,1.339256,616264,28217
1459.85,1.339430,614413,28121
1463.04,1.340432,612307,27960
1466.24,1.339080,610032,27943
1469.43,1.334806,607345,28095
1473.67,1.328347,603789,28349
1476.85,1.338517,601175,27573
1480.02,1.337936,597737,27452
1483.19,1.336085,594479,27419
1486.36,1.337668,591232,27170
1489.52,1.333886,587853,27251
1492.68,1.333286,583875,27104
1496.89,1.336098,578062,26661
1500.03,1.336098,574159,26481
1503.18,1.338936,570285,26131
1506.32,1.340299,565444,25828
1509.45,1.335348,560571,25899
1512.58,1.343603,555821,25196
1515.71,1.336879,550344,25337
1519.87,1.338080,543983,24975
1522.99,1.342978,538764,24458
1526.1,1.339901,533692,24400
1529.21,1.337233,527902,24284
1532.32,1.346748,521886,23487
1535.42,1.341635,515888,23492
1538.51,1.335808,509987,23537
1541.6,1.333364,503936,23389
1545.72,1.333384,494694,22959
1548.8,1.334974,488378,22583
1551.88,1.336523,481832,22201
1554.95,1.340444,474989,21689
1558.02,1.336529,467818,21555
1561.08,1.337049,460730,21203
1564.15,1.334173,454170,21040
1568.22,1.334727,444181,20551
1571.27,1.337233,436947,20100
1574.32,1.333337,429598,19940
1577.36,1.330512,422039,19717
1580.4,1.330757,414375,19348
1583.43,1.333409,406354,18858
1586.46,1.343659,398475,18061
1590.49,1.333092,388982,18065
1593.51,1.327351,380708,17916
1596.53,1.342862,372727,16925
1599.54,1.333348,365060,16944
1602.55,1.333011,357543,16608
1605.55,1.336103,349495,16119
1608.55,1.340355,341154,15581
1612.54,1.320982,330877,15801
1615.53,1.322287,322904,15374
1618.51,1.322090,315116,15010
1621.49,1.329415,307217,14389
1624.47,1.326196,299481,14131
1627.44,1.318028,292112,14045
1630.41,1.321209,284245,13567
1634.36,1.315791,274079,13246
1637.32,1.319029,266916,12804
1640.27,1.322728,259612,12348
1643.22,1.320040,251804,12051
1646.16,1.309190,244348,11990
1649.1,1.303723,236703,11762
1652.04,1.310869,228171,11153
1655.95,1.302419,215408,10736
1658.88,1.299121,204937,10292
1661.8,1.279252,193395,10167
1664.72,1.287255,179728,9276
1667.63,1.251005,163642,9181
1670.54,1.256795,146312,8100
1673.44,1.211771,128451,7888
1677.31,1.181916,105080,6912
1680.21,1.203856,88906,5560
1683.1,1.163192,75033,5153
1685.99,1.215873,63520,3864
1688.87,1.221423,53714,3226
1691.75,1.254807,45653,2539
1694.62,1.137895,39137,2849
1697.49,1.254450,33776,1880
1701.31,1.185755,28175,1837