File: ML/samples/unknown/Column 1_078179_20241121_164921.csv
Method:,Column 1,,
Host Date-Time:,21/11/24 @ 16:49:21,,
Header Version:,1,,
System Temp (C):,33.63,,
Detector Temp (C):,30.07,,
Humidity (%):,3.23,,
Lamp PD:,3804,,
Shift Vector Coefficients:,-10.5391,0.0761263,-0.000134223,,
Pixel to Wavelength Coefficients:,1775.68,-0.916766,-0.000235065,,
Serial Number:,5510004,,
Scan Config Name:,Column 1,,
Scan Config Type:,Slew,,
Section 1,,
Start wavelength (nm):,900,,
End wavelength (nm):,1700,,
Pattern Pixel Width (nm):,   7.03,,,,
Exposure (ms):,  0.635,,,,
Digital Resolution:,228,,
Num Repeats:,6,,
PGA Gain:,64,,
Total Measurement Time in sec:,  2.726,,
Wavelength (nm),Absorbance (AU),Reference Signal (unitless),Sample Signal (unitless)
901.51,1.302333,108485,5408
905.376,1.336626,121306,5588
909.237,1.336943,131909,6072
913.095,1.324757,143299,6784
916.948,1.313041,156982,7635
922.079,1.322799,179937,8557
925.923,1.327473,200504,9433
929.762,1.322418,222660,10598
933.597,1.290925,244426,12509
937.427,1.310396,263972,12917
941.254,1.319934,281845,13492
945.076,1.309157,297271,14588
950.165,1.310412,315605,15443
953.978,1.314843,328029,15888
957.786,1.304835,340470,16875
961.59,1.316842,352317,16986
965.389,1.318452,363056,17439
969.185,1.313140,373162,18145
972.976,1.315938,382632,18486
976.763,1.314196,391202,18976
981.806,1.307888,400190,19696
985.583,1.309026,406088,19934
989.355,1.311969,410162,19998
993.124,1.310890,412868,20180
996.888,1.309395,414263,20318
1000.65,1.307046,415476,20488
1004.4,1.314684,415479,20131
1009.41,1.311230,414358,20237
1013.15,1.307198,412923,20355
1016.89,1.323828,411526,19524
1020.63,1.308403,409066,20109
1024.36,1.318699,406777,19528
1028.09,1.310592,404427,19781
1031.82,1.311830,401911,19602
1036.78,1.311545,398410,19444
1040.49,1.318434,396204,19032
1044.2,1.309390,394236,19336
1047.91,1.311255,392042,19146
1051.61,1.309539,389823,19113
1055.31,1.309997,388234,19015
1059,1.314456,387599,18790
1063.92,1.319274,386688,18539
1067.61,1.318167,386598,18582
1071.29,1.312892,387377,18847
1074.96,1.316083,388536,18765
1078.63,1.317647,389855,18761
1082.3,1.317981,391215,18812
1085.96,1.315168,393215,19031
1090.84,1.319100,396270,19006
1094.49,1.316958,398760,19220
1098.14,1.316562,400987,19345
1101.79,1.321117,403477,19262
1105.43,1.318549,406116,19503
1109.06,1.329718,407701,19082
1112.7,1.317243,409859,19742
1117.53,1.324849,412494,19524
1121.15,1.326939,414909,19544
1124.77,1.315100,416559,20164
1128.38,1.330982,418532,19532
1131.99,1.319878,419956,20106
1135.6,1.309182,421946,20705
1139.2,1.317699,423881,20396
1143.99,1.324794,426786,20203
1147.58,1.321376,428617,20450
1151.17,1.324230,431169,20437
1154.75,1.325357,433579,20498
1158.33,1.316993,436264,21026
1161.91,1.325117,439132,20772
1165.48,1.315573,442389,21391
1169.04,1.314658,446101,21616
1173.79,1.317851,451929,21738
1177.34,1.309984,456026,22336
1180.9,1.321784,461306,21989
1184.44,1.314974,467657,22644
1187.99,1.318425,473969,22768
1191.52,1.326561,479856,22623
1195.06,1.316091,487372,23538
1199.76,1.321417,497347,23727
1203.29,1.326067,504311,23803
1206.81,1.323424,511507,24290
1210.33,1.322219,519078,24718
1213.84,1.324874,527163,24950
1217.35,1.332471,534208,24845
1220.85,1.327427,540472,25430
1225.51,1.325534,549929,25988
1229.01,1.329111,556888,26101
1232.5,1.326597,562180,26502
1235.98,1.325968,567975,26814
1239.46,1.322698,574815,27342
1242.94,1.326205,582782,27498
1246.41,1.324996,591476,27986
1251.03,1.327730,604016,28400
1254.5,1.326419,612289,28876
1257.96,1.328199,619125,29079
1261.41,1.331421,624551,29117
1264.86,1.327760,629900,29615
1268.31,1.331930,634345,29539
1271.75,1.325924,638574,30150
1276.33,1.326272,642499,30311
1279.76,1.333091,645905,29997
1283.19,1.329851,648307,30334
1286.61,1.329325,650446,30471
1290.03,1.331333,652132,30409
1293.44,1.328717,653907,30676
1296.85,1.329133,655963,30743
1301.39,1.326028,657349,31029
1304.8,1.334661,657558,30428
1308.19,1.331824,658515,30672
1311.58,1.332950,658804,30606
1314.97,1.334479,659011,30508
1318.36,1.332556,658272,30609
1321.73,1.327061,658022,30987
1326.23,1.337803,657870,30223
1329.6,1.336067,656482,30280
1332.97,1.330783,654926,30578
1336.33,1.331995,653727,30437
1339.69,1.335320,652497,30148
1343.04,1.336357,649913,29957
1346.39,1.331851,647671,30165
1349.73,1.328230,645338,30308
1354.18,1.331218,641175,29906
1357.52,1.337261,638376,29364
1360.85,1.334017,635805,29465
1364.17,1.328346,633413,29740
1367.49,1.328257,631026,29634
1370.81,1.325340,628050,29693
1374.12,1.327379,625034,29412
1378.54,1.328779,620272,29094
1381.84,1.327003,616892,29054
1385.14,1.329136,613613,28758
1388.43,1.325006,611526,28934
1391.72,1.324799,610663,28907
1395.01,1.329293,610634,28608
1398.29,1.331496,611700,28513
1402.66,1.325642,614051,29011
1405.93,1.330634,616268,28783
1409.2,1.328327,617795,29008
1412.46,1.327663,618872,29103
1415.72,1.329237,619795,29041
1418.98,1.330265,620495,29005
1422.23,1.328514,621087,29150
1426.56,1.331046,621375,28994
1429.8,1.334597,621616,28769
1433.04,1.336877,622129,28642
1436.27,1.335230,621526,28723
1439.5,1.332904,621113,28858
1442.72,1.334686,620921,28731
1445.94,1.338392,620270,28457
1450.23,1.331642,618860,28837
1453.44,1.342255,617697,28088
1456.64,1.337398,616264,28338
1459.85,1.337411,614413,28252
1463.04,1.329723,612307,28658
1466.24,1.334826,610032,28218
1469.43,1.333849,607345,28157
1473.67,1.344198,603789,27333
1476.85,1.336051,601175,27730
1480.02,1.336704,597737,27530
1483.19,1.333180,594479,27603
1486.36,1.333675,591232,27421
1489.52,1.334524,587853,27211
1492.68,1.350029,583875,26079
1496.89,1.335658,578062,26688
1500.03,1.340946,574159,26187
1503.18,1.341938,570285,25951
1506.32,1.337366,565444,26003
1509.45,1.339154,560571,25673
1512.58,1.338463,555821,25496
1515.71,1.335049,550344,25444
1519.87,1.341694,543983,24768
1522.99,1.346544,538764,24258
1526.1,1.341881,533692,24289
1529.21,1.333547,527902,24491
1532.32,1.332184,521886,24288
1535.42,1.336106,515888,23793
1538.51,1.340688,509987,23274
1541.6,1.338745,503936,23101
1545.72,1.341036,494694,22558
1548.8,1.343873,488378,22125
1551.88,1.337012,481832,22176
1554.95,1.332272,474989,22101
1558.02,1.343639,467818,21205
1561.08,1.338835,460730,21116
1564.15,1.335682,454170,20967
1568.22,1.338676,444181,20365
1571.27,1.332377,436947,20326
1574.32,1.339965,429598,19638
1577.36,1.336813,422039,19433
1580.4,1.338549,414375,19004
1583.43,1.326804,406354,19147
1586.46,1.337523,398475,18318
1590.49,1.334368,388982,18012
1593.51,1.332447,380708,17707
1596.53,1.326273,372727,17584
1599.54,1.335842,365060,16847
1602.55,1.331836,357543,16653
1605.55,1.334597,349495,16175
1608.55,1.331444,341154,15904
1612.54,1.346364,330877,14904
1615.53,1.332230,322904,15026
1618.51,1.320645,315116,15060
1621.49,1.335585,307217,14186
1624.47,1.328817,299481,14046
1627.44,1.328100,292112,13723
1630.41,1.330135,284245,13291
1634.36,1.325137,274079,12964
1637.32,1.317776,266916,12841
1640.27,1.342369,259612,11802
1643.22,1.323368,251804,11959
1646.16,1.320603,244348,11679
1649.1,1.315854,236703,11438
1652.04,1.312312,228171,11116
1655.95,1.308202,215408,10594
1658.88,1.282440,204937,10695
1661.8,1.299226,193395,9710
1664.72,1.305421,179728,8896
1667.63,1.305517,163642,8098
1670.54,1.279015,146312,7696
1673.44,1.280852,128451,6728
1677.31,1.277619,105080,5545
1680.21,1.265434,88906,4825
1683.1,1.243606,75033,4282
1685.99,1.246608,63520,3600
1688.87,1.215009,53714,3274
1691.75,1.244162,45653,2602
1694.62,1.263597,39137,2133
1697.49,1.311388,33776,1649
1701.31,1.323733,28175,1337