File: ML/samples/unknown/Column 1_078821_20241121_172348.csv
Method:,Column 1,,
Host Date-Time:,21/11/24 @ 17:23:48,,
Header Version:,1,,
System Temp (C):,37.21,,
Detector Temp (C):,35.52,,
Humidity (%):,1.08,,
Lamp PD:,3797,,
Shift Vector Coefficients:,-10.5391,0.0761263,-0.000134223,,
Pixel to Wavelength Coefficients:,1775.68,-0.916766,-0.000235065,,
Serial Number:,5510004,,
Scan Config Name:,Column 1,,
Scan Config Type:,Slew,,
Section 1,,
Start wavelength (nm):,900,,
End wavelength (nm):,1700,,
Pattern Pixel Width (nm):,   7.03,,,,
Exposure (ms):,  0.635,,,,
Digital Resolution:,228,,
Num Repeats:,6,,
PGA Gain:,64,,
Total Measurement Time in sec:,  2.719,,
Wavelength (nm),Absorbance (AU),Reference Signal (unitless),Sample Signal (unitless)
901.51,1.311012,108485,5301
905.376,1.347884,121306,5445
909.237,1.320865,131909,6301
913.095,1.329521,143299,6710
916.948,1.330154,156982,7340
922.079,1.329293,179937,8430
925.923,1.338760,200504,9191
929.762,1.322050,222660,10607
933.597,1.316339,244426,11798
937.427,1.327821,263972,12409
941.254,1.324497,281845,13351
945.076,1.318485,297271,14278
950.165,1.321752,315605,15045
953.978,1.314160,328029,15913
957.786,1.318774,340470,16342
961.59,1.312290,352317,17165
965.389,1.308749,363056,17833
969.185,1.306985,373162,18404
972.976,1.305975,382632,18915
976.763,1.310981,391202,19117
981.806,1.302498,400190,19942
985.583,1.305748,406088,20085
989.355,1.303964,410162,20370
993.124,1.302830,412868,20558
996.888,1.304147,414263,20565
1000.65,1.305861,415476,20544
1004.4,1.299922,415479,20827
1009.41,1.310008,414358,20294
1013.15,1.313841,412923,20046
1016.89,1.308122,411526,20243
1020.63,1.310091,409066,20031
1024.36,1.306139,406777,20101
1028.09,1.309014,404427,19853
1031.82,1.311210,401911,19630
1036.78,1.303797,398410,19794
1040.49,1.310991,396204,19361
1044.2,1.300123,394236,19753
1047.91,1.310144,392042,19195
1051.61,1.305513,389823,19291
1055.31,1.306789,388234,19156
1059,1.295462,387599,19630
1063.92,1.316705,386688,18649
1067.61,1.305908,386598,19114
1071.29,1.317339,387377,18655
1074.96,1.304730,388536,19262
1078.63,1.313179,389855,18955
1082.3,1.303183,391215,19464
1085.96,1.301643,393215,19633
1090.84,1.315029,396270,19185
1094.49,1.308788,398760,19585
1098.14,1.315799,400987,19379
1101.79,1.316029,403477,19489
1105.43,1.313677,406116,19723
1109.06,1.324335,407701,19320
1112.7,1.311778,409859,19992
1117.53,1.327482,412494,19406
1121.15,1.310692,414909,20289
1124.77,1.309174,416559,20441
1128.38,1.322309,418532,19926
1131.99,1.315323,419956,20318
1135.6,1.314457,421946,20455
1139.2,1.312618,423881,20636
1143.99,1.325052,426786,20191
1147.58,1.315491,428617,20729
1151.17,1.319770,431169,20648
1154.75,1.311450,433579,21165
1158.33,1.305778,436264,21576
1161.91,1.316444,439132,21191
1165.48,1.313851,442389,21476
1169.04,1.314337,446101,21632
1173.79,1.316136,451929,21824
1177.34,1.316409,456026,22008
1180.9,1.310843,461306,22550
1184.44,1.315588,467657,22612
1187.99,1.317168,473969,22834
1191.52,1.315567,479856,23203
1195.06,1.324418,487372,23091
1199.76,1.319645,497347,23824
1203.29,1.313852,504311,24482
1206.81,1.320928,511507,24430
1210.33,1.322044,519078,24728
1213.84,1.313756,527163,25597
1217.35,1.320421,534208,25544
1220.85,1.319641,540472,25890
1225.51,1.319345,549929,26361
1229.01,1.323424,556888,26445
1232.5,1.318544,562180,26998
1235.98,1.320447,567975,27157
1239.46,1.315905,574815,27773
1242.94,1.317837,582782,28033
1246.41,1.317840,591476,28451
1251.03,1.318770,604016,28992
1254.5,1.320593,612289,29266
1257.96,1.325549,619125,29257
1261.41,1.324702,624551,29571
1264.86,1.325172,629900,29792
1268.31,1.321041,634345,30289
1271.75,1.320129,638574,30555
1276.33,1.324542,642499,30432
1279.76,1.322140,645905,30763
1283.19,1.324600,648307,30703
1286.61,1.325267,650446,30757
1290.03,1.330192,652132,30489
1293.44,1.327135,653907,30788
1296.85,1.325322,655963,31014
1301.39,1.328541,657349,30850
1304.8,1.324183,657558,31171
1308.19,1.325889,658515,31094
1311.58,1.327479,658804,30994
1314.97,1.329525,659011,30858
1318.36,1.326302,658272,31053
1321.73,1.327524,658022,30954
1326.23,1.332475,657870,30596
1329.6,1.329462,656482,30744
1332.97,1.325939,654926,30921
1336.33,1.331324,653727,30484
1339.69,1.329042,652497,30587
1343.04,1.323037,649913,30890
1346.39,1.334856,647671,29957
1349.73,1.325986,645338,30465
1354.18,1.324032,641175,30405
1357.52,1.323577,638376,30304
1360.85,1.328802,635805,29821
1364.17,1.330880,633413,29567
1367.49,1.324071,631026,29921
1370.81,1.328481,628050,29479
1374.12,1.323586,625034,29670
1378.54,1.325018,620272,29347
1381.84,1.323549,616892,29286
1385.14,1.325227,613613,29018
1388.43,1.328276,611526,28717
1391.72,1.325370,610663,28869
1395.01,1.330099,610634,28555
1398.29,1.324380,611700,28984
1402.66,1.324939,614051,29058
1405.93,1.323555,616268,29256
1409.2,1.326578,617795,29125
1412.46,1.327395,618872,29121
1415.72,1.328743,619795,29074
1418.98,1.327683,620495,29178
1422.23,1.330275,621087,29032
1426.56,1.327584,621375,29226
1429.8,1.329137,621616,29133
1433.04,1.331198,622129,29019
1436.27,1.332967,621526,28873
1439.5,1.330818,621113,28997
1442.72,1.328606,620921,29136
1445.94,1.329943,620270,29016
1450.23,1.333953,618860,28684
1453.44,1.331579,617697,28787
1456.64,1.333598,616264,28587
1459.85,1.333829,614413,28486
1463.04,1.330421,612307,28612
1466.24,1.333873,610032,28280
1469.43,1.330668,607345,28364
1473.67,1.331530,603789,28142
1476.85,1.332837,601175,27936
1480.02,1.331919,597737,27835
1483.19,1.323057,594479,28254
1486.36,1.332978,591232,27465
1489.52,1.329415,587853,27533
1492.68,1.338153,583875,26802
1496.89,1.334196,578062,26778
1500.03,1.327299,574159,27023
1503.18,1.333043,570285,26488
1506.32,1.336065,565444,26081
1509.45,1.335364,560571,25898
1512.58,1.338480,555821,25495
1515.71,1.336331,550344,25369
1519.87,1.331248,543983,25371
1522.99,1.329877,538764,25207
1526.1,1.325770,533692,25207
1529.21,1.333139,527902,24514
1532.32,1.331648,521886,24318
1535.42,1.337514,515888,23716
1538.51,1.333177,509987,23680
1541.6,1.334405,503936,23333
1545.72,1.337508,494694,22742
1548.8,1.324674,488378,23125
1551.88,1.339467,481832,22051
1554.95,1.331016,474989,22165
1558.02,1.324488,467818,22161
1561.08,1.332465,460730,21428
1564.15,1.331888,454170,21151
1568.22,1.327663,444181,20888
1571.27,1.324899,436947,20679
1574.32,1.324711,429598,20340
1577.36,1.322113,422039,20102
1580.4,1.338206,414375,19019
1583.43,1.331869,406354,18925
1586.46,1.329746,398475,18649
1590.49,1.326791,388982,18329
1593.51,1.329684,380708,17820
1596.53,1.333094,372727,17310
1599.54,1.332145,365060,16991
1602.55,1.323800,357543,16964
1605.55,1.327856,349495,16428
1608.55,1.320843,341154,16297
1612.54,1.333558,330877,15350
1615.53,1.328546,322904,15154
1618.51,1.316084,315116,15219
1621.49,1.314463,307217,14893
1624.47,1.312671,299481,14578
1627.44,1.329209,292112,13688
1630.41,1.316719,284245,13708
1634.36,1.318389,274079,13167
1637.32,1.326073,266916,12598
1640.27,1.313334,259612,12618
1643.22,1.315736,251804,12171
1646.16,1.312681,244348,11894
1649.1,1.316120,236703,11431
1652.04,1.318291,228171,10964
1655.95,1.311164,215408,10522
1658.88,1.297184,204937,10338
1661.8,1.271589,193395,10348
1664.72,1.271938,179728,9609
1667.63,1.256958,163642,9056
1670.54,1.242554,146312,8370
1673.44,1.211881,128451,7886
1677.31,1.190611,105080,6775
1680.21,1.134683,88906,6520
1683.1,1.119759,75033,5695
1685.99,1.168030,63520,4314
1688.87,1.143050,53714,3864
1691.75,1.148255,45653,3245
1694.62,1.152466,39137,2755
1697.49,1.175654,33776,2254
1701.31,1.232643,28175,1649