File: ML/samples/unknown/Column 1_078880_20241121_172638.csv
Method:,Column 1,,
Host Date-Time:,21/11/24 @ 17:26:38,,
Header Version:,1,,
System Temp (C):,37.55,,
Detector Temp (C):,36.13,,
Humidity (%):,1.03,,
Lamp PD:,3796,,
Shift Vector Coefficients:,-10.5391,0.0761263,-0.000134223,,
Pixel to Wavelength Coefficients:,1775.68,-0.916766,-0.000235065,,
Serial Number:,5510004,,
Scan Config Name:,Column 1,,
Scan Config Type:,Slew,,
Section 1,,
Start wavelength (nm):,900,,
End wavelength (nm):,1700,,
Pattern Pixel Width (nm):,   7.03,,,,
Exposure (ms):,  0.635,,,,
Digital Resolution:,228,,
Num Repeats:,6,,
PGA Gain:,64,,
Total Measurement Time in sec:,  2.725,,
Wavelength (nm),Absorbance (AU),Reference Signal (unitless),Sample Signal (unitless)
901.51,1.305072,108485,5374
905.376,1.333451,121306,5629
909.237,1.322868,131909,6272
913.095,1.327906,143299,6735
916.948,1.302366,156982,7825
922.079,1.340619,179937,8213
925.923,1.330801,200504,9361
929.762,1.315830,222660,10760
933.597,1.330938,244426,11408
937.427,1.322949,263972,12549
941.254,1.325050,281845,13334
945.076,1.323779,297271,14105
950.165,1.311144,315605,15417
953.978,1.317338,328029,15797
957.786,1.319598,340470,16311
961.59,1.309918,352317,17259
965.389,1.300595,363056,18171
969.185,1.310754,373162,18245
972.976,1.304485,382632,18980
976.763,1.305047,391202,19380
981.806,1.297517,400190,20172
985.583,1.303290,406088,20199
989.355,1.316817,410162,19776
993.124,1.319343,412868,19791
996.888,1.309139,414263,20330
1000.65,1.307004,415476,20490
1004.4,1.308664,415479,20412
1009.41,1.308108,414358,20383
1013.15,1.305494,412923,20435
1016.89,1.304682,411526,20404
1020.63,1.305304,409066,20253
1024.36,1.310111,406777,19918
1028.09,1.316806,404427,19500
1031.82,1.305517,401911,19889
1036.78,1.306548,398410,19669
1040.49,1.304402,396204,19657
1044.2,1.312025,394236,19219
1047.91,1.308113,392042,19285
1051.61,1.302194,389823,19439
1055.31,1.312839,388234,18891
1059,1.309629,387599,19000
1063.92,1.312441,386688,18833
1067.61,1.310752,386598,18902
1071.29,1.306147,387377,19142
1074.96,1.305746,388536,19217
1078.63,1.307851,389855,19189
1082.3,1.316483,391215,18877
1085.96,1.314690,393215,19052
1090.84,1.312681,396270,19289
1094.49,1.311078,398760,19482
1098.14,1.305282,400987,19854
1101.79,1.308015,403477,19852
1105.43,1.325326,406116,19201
1109.06,1.311576,407701,19896
1112.7,1.321488,409859,19550
1117.53,1.327392,412494,19410
1121.15,1.309901,414909,20326
1124.77,1.316934,416559,20079
1128.38,1.314447,418532,20290
1131.99,1.310942,419956,20524
1135.6,1.312635,421946,20541
1139.2,1.316169,423881,20468
1143.99,1.322522,426786,20309
1147.58,1.319469,428617,20540
1151.17,1.318425,431169,20712
1154.75,1.311799,433579,21148
1158.33,1.316147,436264,21067
1161.91,1.322033,439132,20920
1165.48,1.322532,442389,21051
1169.04,1.315764,446101,21561
1173.79,1.318731,451929,21694
1177.34,1.311601,456026,22253
1180.9,1.315490,461306,22310
1184.44,1.310339,467657,22887
1187.99,1.326822,473969,22332
1191.52,1.321389,479856,22894
1195.06,1.315556,487372,23567
1199.76,1.318480,497347,23888
1203.29,1.314686,504311,24435
1206.81,1.319384,511507,24517
1210.33,1.319574,519078,24869
1213.84,1.321200,527163,25162
1217.35,1.317845,534208,25696
1220.85,1.322367,540472,25728
1225.51,1.320219,549929,26308
1229.01,1.317212,556888,26826
1232.5,1.321805,562180,26796
1235.98,1.317896,567975,27317
1239.46,1.322920,574815,27328
1242.94,1.316120,582782,28144
1246.41,1.321103,591476,28238
1251.03,1.323727,604016,28663
1254.5,1.325263,612289,28953
1257.96,1.327065,619125,29155
1261.41,1.325216,624551,29536
1264.86,1.324691,629900,29825
1268.31,1.326088,634345,29939
1271.75,1.323683,638574,30306
1276.33,1.322875,642499,30549
1279.76,1.325755,645905,30508
1283.19,1.328622,648307,30420
1286.61,1.319140,650446,31194
1290.03,1.326801,652132,30728
1293.44,1.327459,653907,30765
1296.85,1.334950,655963,30334
1301.39,1.326546,657349,30992
1304.8,1.329087,657558,30821
1308.19,1.332093,658515,30653
1311.58,1.332694,658804,30624
1314.97,1.331387,659011,30726
1318.36,1.325575,658272,31105
1321.73,1.323835,658022,31218
1326.23,1.332362,657870,30604
1329.6,1.324197,656482,31119
1332.97,1.327346,654926,30821
1336.33,1.329476,653727,30614
1339.69,1.327950,652497,30664
1343.04,1.328783,649913,30484
1346.39,1.327411,647671,30475
1349.73,1.327543,645338,30356
1354.18,1.324232,641175,30391
1357.52,1.319185,638376,30612
1360.85,1.326116,635805,30006
1364.17,1.328273,633413,29745
1367.49,1.329416,631026,29555
1370.81,1.328894,628050,29451
1374.12,1.324319,625034,29620
1378.54,1.328794,620272,29093
1381.84,1.326301,616892,29101
1385.14,1.323509,613613,29133
1388.43,1.333510,611526,28373
1391.72,1.320077,610663,29223
1395.01,1.328535,610634,28658
1398.29,1.323706,611700,29029
1402.66,1.327607,614051,28880
1405.93,1.326788,616268,29039
1409.2,1.323532,617795,29330
1412.46,1.331847,618872,28824
1415.72,1.324625,619795,29351
1418.98,1.330505,620495,28989
1422.23,1.332014,621087,28916
1426.56,1.323841,621375,29479
1429.8,1.326684,621616,29298
1433.04,1.331767,622129,28981
1436.27,1.331541,621526,28968
1439.5,1.331687,621113,28939
1442.72,1.329069,620921,29105
1445.94,1.330662,620270,28968
1450.23,1.332200,618860,28800
1453.44,1.335398,617697,28535
1456.64,1.327369,616264,29000
1459.85,1.335892,614413,28351
1463.04,1.332444,612307,28479
1466.24,1.335535,610032,28172
1469.43,1.330454,607345,28378
1473.67,1.332519,603789,28078
1476.85,1.335347,601175,27775
1480.02,1.329492,597737,27991
1483.19,1.331500,594479,27710
1486.36,1.330676,591232,27611
1489.52,1.332868,587853,27315
1492.68,1.325678,583875,27583
1496.89,1.335821,578062,26678
1500.03,1.338169,574159,26355
1503.18,1.336979,570285,26249
1506.32,1.337082,565444,26020
1509.45,1.330810,560571,26171
1512.58,1.333197,555821,25807
1515.71,1.335117,550344,25440
1519.87,1.336137,543983,25087
1522.99,1.332227,538764,25071
1526.1,1.335086,533692,24672
1529.21,1.341330,527902,24056
1532.32,1.330257,521886,24396
1535.42,1.335796,515888,23810
1538.51,1.325578,509987,24098
1541.6,1.327242,503936,23721
1545.72,1.337222,494694,22757
1548.8,1.329965,488378,22845
1551.88,1.339743,481832,22037
1554.95,1.335269,474989,21949
1558.02,1.336529,467818,21555
1561.08,1.328189,460730,21640
1564.15,1.327841,454170,21349
1568.22,1.332640,444181,20650
1571.27,1.335981,436947,20158
1574.32,1.330363,429598,20077
1577.36,1.325671,422039,19938
1580.4,1.338343,414375,19013
1583.43,1.333893,406354,18837
1586.46,1.332549,398475,18529
1590.49,1.328476,388982,18258
1593.51,1.332349,380708,17711
1596.53,1.326323,372727,17582
1599.54,1.328987,365060,17115
1602.55,1.320002,357543,17113
1605.55,1.323699,349495,16586
1608.55,1.316310,341154,16468
1612.54,1.320241,330877,15828
1615.53,1.317706,322904,15537
1618.51,1.311994,315116,15363
1621.49,1.310746,307217,15021
1624.47,1.318308,299481,14390
1627.44,1.319670,292112,13992
1630.41,1.317575,284245,13681
1634.36,1.315267,274079,13262
1637.32,1.307978,266916,13134
1640.27,1.317554,259612,12496
1643.22,1.302142,251804,12558
1646.16,1.305654,244348,12088
1649.1,1.302874,236703,11785
1652.04,1.311609,228171,11134
1655.95,1.304203,215408,10692
1658.88,1.282277,204937,10699
1661.8,1.264636,193395,10515
1664.72,1.262239,179728,9826
1667.63,1.251525,163642,9170
1670.54,1.219024,146312,8836
1673.44,1.187884,128451,8334
1677.31,1.193634,105080,6728
1680.21,1.158224,88906,6176
1683.1,1.152618,75033,5280
1685.99,1.171264,63520,4282
1688.87,1.131954,53714,3964
1691.75,1.114410,45653,3508
1694.62,1.116481,39137,2993
1697.49,1.121047,33776,2556
1701.31,1.167922,28175,1914