File: ML/samples/unknown/Column 1_078263_20241121_165329.csv
Method:,Column 1,,
Host Date-Time:,21/11/24 @ 16:53:29,,
Header Version:,1,,
System Temp (C):,34.22,,
Detector Temp (C):,32.04,,
Humidity (%):,2.45,,
Lamp PD:,3802,,
Shift Vector Coefficients:,-10.5391,0.0761263,-0.000134223,,
Pixel to Wavelength Coefficients:,1775.68,-0.916766,-0.000235065,,
Serial Number:,5510004,,
Scan Config Name:,Column 1,,
Scan Config Type:,Slew,,
Section 1,,
Start wavelength (nm):,900,,
End wavelength (nm):,1700,,
Pattern Pixel Width (nm):,   7.03,,,,
Exposure (ms):,  0.635,,,,
Digital Resolution:,228,,
Num Repeats:,6,,
PGA Gain:,64,,
Total Measurement Time in sec:,  2.730,,
Wavelength (nm),Absorbance (AU),Reference Signal (unitless),Sample Signal (unitless)
901.51,1.313724,108485,5268
905.376,1.315022,121306,5873
909.237,1.309975,131909,6461
913.095,1.331272,143299,6683
916.948,1.323402,156982,7455
922.079,1.329241,179937,8431
925.923,1.335184,200504,9267
929.762,1.323444,222660,10573
933.597,1.317999,244426,11753
937.427,1.313027,263972,12839
941.254,1.313321,281845,13699
945.076,1.326157,297271,14028
950.165,1.318473,315605,15159
953.978,1.320871,328029,15669
957.786,1.316521,340470,16427
961.59,1.319175,352317,16895
965.389,1.316415,363056,17521
969.185,1.315589,373162,18043
972.976,1.311381,382632,18681
976.763,1.313990,391202,18985
981.806,1.312321,400190,19496
985.583,1.311648,406088,19814
989.355,1.311123,410162,20037
993.124,1.315564,412868,19964
996.888,1.316224,414263,20001
1000.65,1.311414,415476,20283
1004.4,1.319347,415479,19916
1009.41,1.314980,414358,20063
1013.15,1.320324,412923,19749
1016.89,1.317316,411526,19819
1020.63,1.319870,409066,19585
1024.36,1.306117,406777,20102
1028.09,1.308009,404427,19899
1031.82,1.317651,401911,19341
1036.78,1.320367,398410,19053
1040.49,1.317363,396204,19079
1044.2,1.312794,394236,19185
1047.91,1.317009,392042,18894
1051.61,1.323625,389823,18503
1055.31,1.312954,388234,18886
1059,1.322433,387599,18448
1063.92,1.316240,386688,18669
1067.61,1.320111,386598,18499
1071.29,1.323410,387377,18396
1074.96,1.311983,388536,18943
1078.63,1.316514,389855,18810
1082.3,1.312817,391215,19037
1085.96,1.323998,393215,18648
1090.84,1.313064,396270,19272
1094.49,1.320589,398760,19060
1098.14,1.320350,400987,19177
1101.79,1.315562,403477,19510
1105.43,1.329348,406116,19024
1109.06,1.323235,407701,19369
1112.7,1.323246,409859,19471
1117.53,1.321459,412494,19677
1121.15,1.320389,414909,19841
1124.77,1.321129,416559,19886
1128.38,1.320677,418532,20001
1131.99,1.329068,419956,19685
1135.6,1.319197,421946,20233
1139.2,1.318850,423881,20342
1143.99,1.314450,426786,20690
1147.58,1.321227,428617,20457
1151.17,1.324422,431169,20428
1154.75,1.328824,433579,20335
1158.33,1.323318,436264,20722
1161.91,1.320852,439132,20977
1165.48,1.324994,442389,20932
1169.04,1.332604,446101,20741
1173.79,1.323056,451929,21479
1177.34,1.325019,456026,21576
1180.9,1.321942,461306,21981
1184.44,1.320533,467657,22356
1187.99,1.325017,473969,22425
1191.52,1.325583,479856,22674
1195.06,1.329374,487372,22829
1199.76,1.323674,497347,23604
1203.29,1.322144,504311,24019
1206.81,1.320502,511507,24454
1210.33,1.326883,519078,24454
1213.84,1.322756,527163,25072
1217.35,1.328937,534208,25048
1220.85,1.346239,540472,24352
1225.51,1.323516,549929,26109
1229.01,1.324526,556888,26378
1232.5,1.319156,562180,26960
1235.98,1.320192,567975,27173
1239.46,1.321112,574815,27442
1242.94,1.332922,582782,27076
1246.41,1.327970,591476,27795
1251.03,1.331000,604016,28187
1254.5,1.327187,612289,28825
1257.96,1.331738,619125,28843
1261.41,1.332781,624551,29026
1264.86,1.334097,629900,29186
1268.31,1.329686,634345,29692
1271.75,1.327453,638574,30044
1276.33,1.332637,642499,29870
1279.76,1.332859,645905,30013
1283.19,1.338221,648307,29755
1286.61,1.330981,650446,30355
1290.03,1.332248,652132,30345
1293.44,1.335078,653907,30230
1296.85,1.339440,655963,30022
1301.39,1.336870,657349,30264
1304.8,1.332681,657558,30567
1308.19,1.334380,658515,30492
1311.58,1.333077,658804,30597
1314.97,1.331471,659011,30720
1318.36,1.337881,658272,30236
1321.73,1.329084,658022,30843
1326.23,1.336239,657870,30332
1329.6,1.332951,656482,30498
1332.97,1.340913,654926,29873
1336.33,1.333610,653727,30324
1339.69,1.334888,652497,30178
1343.04,1.335879,649913,29990
1346.39,1.333308,647671,30064
1349.73,1.335265,645338,29821
1354.18,1.336757,641175,29527
1357.52,1.335608,638376,29476
1360.85,1.328045,635805,29873
1364.17,1.332042,633413,29488
1367.49,1.333046,631026,29309
1370.81,1.331987,628050,29242
1374.12,1.331578,625034,29129
1378.54,1.326887,620272,29221
1381.84,1.330862,616892,28797
1385.14,1.331529,613613,28600
1388.43,1.328321,611526,28714
1391.72,1.333371,610663,28342
1395.01,1.329081,610634,28622
1398.29,1.328233,611700,28728
1402.66,1.332097,614051,28583
1405.93,1.325712,616268,29111
1409.2,1.331693,617795,28784
1412.46,1.333658,618872,28704
1415.72,1.336642,619795,28550
1418.98,1.336676,620495,28580
1422.23,1.337197,621087,28573
1426.56,1.338966,621375,28470
1429.8,1.337080,621616,28605
1433.04,1.338411,622129,28541
1436.27,1.342933,621526,28218
1439.5,1.334472,621113,28754
1442.72,1.335866,620921,28653
1445.94,1.337355,620270,28525
1450.23,1.340482,618860,28256
1453.44,1.345763,617697,27862
1456.64,1.336647,616264,28387
1459.85,1.335769,614413,28359
1463.04,1.343518,612307,27762
1466.24,1.343500,610032,27660
1469.43,1.337582,607345,27916
1473.67,1.343341,603789,27387
1476.85,1.343698,601175,27246
1480.02,1.339124,597737,27377
1483.19,1.341328,594479,27090
1486.36,1.340169,591232,27014
1489.52,1.339694,587853,26889
1492.68,1.341520,583875,26595
1496.89,1.340617,578062,26385
1500.03,1.338037,574159,26363
1503.18,1.338753,570285,26142
1506.32,1.343709,565444,25626
1509.45,1.335767,560571,25874
1512.58,1.340443,555821,25380
1515.71,1.345955,550344,24813
1519.87,1.340679,543983,24826
1522.99,1.344436,538764,24376
1526.1,1.342651,533692,24246
1529.21,1.341691,527902,24036
1532.32,1.343763,521886,23649
1535.42,1.339092,515888,23630
1538.51,1.341566,509987,23227
1541.6,1.345375,503936,22751
1545.72,1.341229,494694,22548
1548.8,1.341660,488378,22238
1551.88,1.334279,481832,22316
1554.95,1.337391,474989,21842
1558.02,1.337053,467818,21529
1561.08,1.332668,460730,21418
1564.15,1.337363,454170,20886
1568.22,1.332934,444181,20636
1571.27,1.343786,436947,19799
1574.32,1.337649,429598,19743
1577.36,1.343706,422039,19127
1580.4,1.332647,414375,19264
1583.43,1.342485,406354,18468
1586.46,1.337310,398475,18327
1590.49,1.340511,388982,17759
1593.51,1.341668,380708,17335
1596.53,1.331541,372727,17372
1599.54,1.333092,365060,16954
1602.55,1.337823,357543,16425
1605.55,1.328703,349495,16396
1608.55,1.330871,341154,15925
1612.54,1.323104,330877,15724
1615.53,1.329953,322904,15105
1618.51,1.335190,315116,14564
1621.49,1.332443,307217,14289
1624.47,1.319881,299481,14338
1627.44,1.329083,292112,13692
1630.41,1.324293,284245,13471
1634.36,1.321966,274079,13059
1637.32,1.317505,266916,12849
1640.27,1.335795,259612,11982
1643.22,1.328519,251804,11818
1646.16,1.319007,244348,11722
1649.1,1.332062,236703,11019
1652.04,1.325239,228171,10790
1655.95,1.319919,215408,10312
1658.88,1.310233,204937,10032
1661.8,1.287402,193395,9978
1664.72,1.302114,179728,8964
1667.63,1.286114,163642,8468
1670.54,1.283895,146312,7610
1673.44,1.241093,128451,7373
1677.31,1.228568,105080,6208
1680.21,1.196729,88906,5652
1683.1,1.267154,75033,4056
1685.99,1.218353,63520,3842
1688.87,1.271903,53714,2872
1691.75,1.187884,45653,2962
1694.62,1.222445,39137,2345
1697.49,1.172774,33776,2269
1701.31,1.323733,28175,1337