File: ML/samples/unknown/Column 1_078893_20241121_172716.csv
Method:,Column 1,,
Host Date-Time:,21/11/24 @ 17:27:16,,
Header Version:,1,,
System Temp (C):,37.2,,
Detector Temp (C):,36.29,,
Humidity (%):,0.43,,
Lamp PD:,3796,,
Shift Vector Coefficients:,-10.5391,0.0761263,-0.000134223,,
Pixel to Wavelength Coefficients:,1775.68,-0.916766,-0.000235065,,
Serial Number:,5510004,,
Scan Config Name:,Column 1,,
Scan Config Type:,Slew,,
Section 1,,
Start wavelength (nm):,900,,
End wavelength (nm):,1700,,
Pattern Pixel Width (nm):,   7.03,,,,
Exposure (ms):,  0.635,,,,
Digital Resolution:,228,,
Num Repeats:,6,,
PGA Gain:,64,,
Total Measurement Time in sec:,  2.730,,
Wavelength (nm),Absorbance (AU),Reference Signal (unitless),Sample Signal (unitless)
901.51,1.314384,108485,5260
905.376,1.343994,121306,5494
909.237,1.333523,131909,6120
913.095,1.320362,143299,6853
916.948,1.306604,156982,7749
922.079,1.323510,179937,8543
925.923,1.303602,200504,9966
929.762,1.319234,222660,10676
933.597,1.335530,244426,11288
937.427,1.307882,263972,12992
941.254,1.317143,281845,13579
945.076,1.316482,297271,14344
950.165,1.324735,315605,14942
953.978,1.310979,328029,16030
957.786,1.316230,340470,16438
961.59,1.308336,352317,17322
965.389,1.308092,363056,17860
969.185,1.309826,373162,18284
972.976,1.310359,382632,18725
976.763,1.306934,391202,19296
981.806,1.313793,400190,19430
985.583,1.306441,406088,20053
989.355,1.303623,410162,20386
993.124,1.306586,412868,20381
996.888,1.309695,414263,20304
1000.65,1.310195,415476,20340
1004.4,1.301657,415479,20744
1009.41,1.304522,414358,20552
1013.15,1.304348,412923,20489
1016.89,1.309153,411526,20195
1020.63,1.302121,409066,20402
1024.36,1.311815,406777,19840
1028.09,1.298852,404427,20323
1031.82,1.311033,401911,19638
1036.78,1.318388,398410,19140
1040.49,1.306306,396204,19571
1044.2,1.304787,394236,19542
1047.91,1.304837,392042,19431
1051.61,1.307566,389823,19200
1055.31,1.303356,388234,19308
1059,1.307645,387599,19087
1063.92,1.312188,386688,18844
1067.61,1.312087,386598,18844
1071.29,1.314901,387377,18760
1074.96,1.304324,388536,19280
1078.63,1.306337,389855,19256
1082.3,1.305488,391215,19361
1085.96,1.311193,393215,19206
1090.84,1.306534,396270,19564
1094.49,1.310967,398760,19487
1098.14,1.311584,400987,19568
1101.79,1.320802,403477,19276
1105.43,1.317592,406116,19546
1109.06,1.314775,407701,19750
1112.7,1.315158,409859,19837
1117.53,1.304979,412494,20438
1121.15,1.318206,414909,19941
1124.77,1.316027,416559,20121
1128.38,1.317152,418532,20164
1131.99,1.310603,419956,20540
1135.6,1.315052,421946,20427
1139.2,1.308596,423881,20828
1143.99,1.313758,426786,20723
1147.58,1.314884,428617,20758
1151.17,1.311478,431169,21046
1154.75,1.318233,433579,20837
1158.33,1.316642,436264,21043
1161.91,1.321681,439132,20937
1165.48,1.324662,442389,20948
1169.04,1.319263,446101,21388
1173.79,1.320114,451929,21625
1177.34,1.313675,456026,22147
1180.9,1.313664,461306,22404
1184.44,1.317166,467657,22530
1187.99,1.320260,473969,22672
1191.52,1.322187,479856,22852
1195.06,1.309954,487372,23873
1199.76,1.320850,497347,23758
1203.29,1.317611,504311,24271
1206.81,1.317352,511507,24632
1210.33,1.322219,519078,24718
1213.84,1.320682,527163,25192
1217.35,1.319470,534208,25600
1220.85,1.342757,540472,24548
1225.51,1.325667,549929,25980
1229.01,1.320919,556888,26598
1232.5,1.333168,562180,26104
1235.98,1.323094,567975,26992
1239.46,1.320353,574815,27490
1242.94,1.324361,582782,27615
1246.41,1.319216,591476,28361
1251.03,1.319940,604016,28914
1254.5,1.326826,612289,28849
1257.96,1.328064,619125,29088
1261.41,1.327324,624551,29393
1264.86,1.322904,629900,29948
1268.31,1.325291,634345,29994
1271.75,1.324242,638574,30267
1276.33,1.320338,642499,30728
1279.76,1.324022,645905,30630
1283.19,1.325223,648307,30659
1286.61,1.320856,650446,31071
1290.03,1.326349,652132,30760
1293.44,1.327855,653907,30737
1296.85,1.326794,655963,30909
1301.39,1.326701,657349,30981
1304.8,1.328848,657558,30838
1308.19,1.329959,658515,30804
1311.58,1.329628,658804,30841
1314.97,1.325518,659011,31144
1318.36,1.324864,658272,31156
1321.73,1.330183,658022,30765
1326.23,1.333769,657870,30505
1329.6,1.327686,656482,30870
1332.97,1.330244,654926,30616
1336.33,1.327184,653727,30776
1339.69,1.327893,652497,30668
1343.04,1.324657,649913,30775
1346.39,1.329196,647671,30350
1349.73,1.326357,645338,30439
1354.18,1.327660,641175,30152
1357.52,1.322746,638376,30362
1360.85,1.327333,635805,29922
1364.17,1.327966,633413,29766
1367.49,1.323999,631026,29926
1370.81,1.319370,628050,30104
1374.12,1.326082,625034,29500
1378.54,1.326635,620272,29238
1381.84,1.326928,616892,29059
1385.14,1.328050,613613,28830
1388.43,1.324332,611526,28979
1391.72,1.326319,610663,28806
1395.01,1.319195,610634,29281
1398.29,1.320353,611700,29254
1402.66,1.319636,614051,29415
1405.93,1.329067,616268,28887
1409.2,1.336198,617795,28487
1412.46,1.324615,618872,29308
1415.72,1.333187,619795,28778
1418.98,1.327534,620495,29188
1422.23,1.333971,621087,28786
1426.56,1.332621,621375,28889
1429.8,1.328288,621616,29190
1433.04,1.328468,622129,29202
1436.27,1.329671,621526,29093
1439.5,1.330758,621113,29001
1442.72,1.333991,620921,28777
1445.94,1.332495,620270,28846
1450.23,1.329779,618860,28961
1453.44,1.328932,617697,28963
1456.64,1.333507,616264,28593
1459.85,1.332550,614413,28570
1463.04,1.332429,612307,28480
1466.24,1.332019,610032,28401
1469.43,1.332402,607345,28251
1473.67,1.339096,603789,27656
1476.85,1.330094,601175,28113
1480.02,1.335381,597737,27614
1483.19,1.334835,594479,27498
1486.36,1.332599,591232,27489
1489.52,1.332931,587853,27311
1492.68,1.336681,583875,26893
1496.89,1.333888,578062,26797
1500.03,1.334837,574159,26558
1503.18,1.337857,570285,26196
1506.32,1.334287,565444,26188
1509.45,1.339357,560571,25661
1512.58,1.337510,555821,25552
1515.71,1.334861,550344,25455
1519.87,1.333444,543983,25243
1522.99,1.329826,538764,25210
1526.1,1.334822,533692,24687
1529.21,1.331795,527902,24590
1532.32,1.335577,521886,24099
1535.42,1.329764,515888,24143
1538.51,1.329452,509987,23884
1541.6,1.334088,503936,23350
1545.72,1.330123,494694,23132
1548.8,1.335455,488378,22558
1551.88,1.330771,481832,22497
1554.95,1.333373,474989,22045
1558.02,1.333137,467818,21724
1561.08,1.323161,460730,21892
1564.15,1.327922,454170,21345
1568.22,1.333587,444181,20605
1571.27,1.323662,436947,20738
1574.32,1.337056,429598,19770
1577.36,1.331283,422039,19682
1580.4,1.331566,414375,19312
1583.43,1.330769,406354,18973
1586.46,1.328304,398475,18711
1590.49,1.326980,388982,18321
1593.51,1.334907,380708,17607
1596.53,1.327064,372727,17552
1599.54,1.318657,365060,17527
1602.55,1.323058,357543,16993
1605.55,1.321219,349495,16681
1608.55,1.323221,341154,16208
1612.54,1.308920,330877,16246
1615.53,1.321976,322904,15385
1618.51,1.317199,315116,15180
1621.49,1.315719,307217,14850
1624.47,1.326073,299481,14135
1627.44,1.328290,292112,13717
1630.41,1.321113,284245,13570
1634.36,1.311744,274079,13370
1637.32,1.310831,266916,13048
1640.27,1.315059,259612,12568
1643.22,1.315701,251804,12172
1646.16,1.300795,244348,12224
1649.1,1.314224,236703,11481
1652.04,1.289704,228171,11710
1655.95,1.299436,215408,10810
1658.88,1.287628,204937,10568
1661.8,1.294422,193395,9818
1664.72,1.267039,179728,9718
1667.63,1.253139,163642,9136
1670.54,1.233517,146312,8546
1673.44,1.206408,128451,7986
1677.31,1.174194,105080,7036
1680.21,1.152982,88906,6251
1683.1,1.147305,75033,5345
1685.99,1.087074,63520,5198
1688.87,1.171379,53714,3620
1691.75,1.161849,45653,3145
1694.62,1.053763,39137,3458
1697.49,1.184806,33776,2207
1701.31,1.186938,28175,1832