File: ML/samples/unknown/Column 1_078150_20241121_164755.csv
Method:,Column 1,,
Host Date-Time:,21/11/24 @ 16:47:55,,
Header Version:,1,,
System Temp (C):,33.22,,
Detector Temp (C):,29.31,,
Humidity (%):,3.22,,
Lamp PD:,3805,,
Shift Vector Coefficients:,-10.5391,0.0761263,-0.000134223,,
Pixel to Wavelength Coefficients:,1775.68,-0.916766,-0.000235065,,
Serial Number:,5510004,,
Scan Config Name:,Column 1,,
Scan Config Type:,Slew,,
Section 1,,
Start wavelength (nm):,900,,
End wavelength (nm):,1700,,
Pattern Pixel Width (nm):,   7.03,,,,
Exposure (ms):,  0.635,,,,
Digital Resolution:,228,,
Num Repeats:,6,,
PGA Gain:,64,,
Total Measurement Time in sec:,  2.726,,
Wavelength (nm),Absorbance (AU),Reference Signal (unitless),Sample Signal (unitless)
901.51,1.316453,108485,5235
905.376,1.289046,121306,6235
909.237,1.325368,131909,6236
913.095,1.320299,143299,6854
916.948,1.299820,156982,7871
922.079,1.303055,179937,8955
925.923,1.296256,200504,10136
929.762,1.311573,222660,10866
933.597,1.323166,244426,11614
937.427,1.308283,263972,12980
941.254,1.305654,281845,13943
945.076,1.310947,297271,14528
950.165,1.322792,315605,15009
953.978,1.301095,328029,16399
957.786,1.304784,340470,16877
961.59,1.303276,352317,17525
965.389,1.306393,363056,17930
969.185,1.311659,373162,18207
972.976,1.295450,382632,19379
976.763,1.306461,391202,19317
981.806,1.300109,400190,20052
985.583,1.306831,406088,20035
989.355,1.306166,410162,20267
993.124,1.307866,412868,20321
996.888,1.312355,414263,20180
1000.65,1.308426,415476,20423
1004.4,1.308068,415479,20440
1009.41,1.308278,414358,20375
1013.15,1.307113,412923,20359
1016.89,1.306538,411526,20317
1020.63,1.306829,409066,20182
1024.36,1.302717,406777,20260
1028.09,1.315294,404427,19568
1031.82,1.314853,401911,19466
1036.78,1.310184,398410,19505
1040.49,1.312384,396204,19299
1044.2,1.303966,394236,19579
1047.91,1.300390,392042,19631
1051.61,1.315211,389823,18865
1055.31,1.307856,388234,19109
1059,1.311278,387599,18928
1063.92,1.321482,386688,18445
1067.61,1.306727,386598,19078
1071.29,1.313653,387377,18814
1074.96,1.322964,388536,18470
1078.63,1.313271,389855,18951
1082.3,1.306431,391215,19319
1085.96,1.321513,393215,18755
1090.84,1.315211,396270,19177
1094.49,1.304003,398760,19802
1098.14,1.324331,400987,19002
1101.79,1.319160,403477,19349
1105.43,1.312095,406116,19795
1109.06,1.310530,407701,19944
1112.7,1.318234,409859,19697
1117.53,1.311099,412494,20152
1121.15,1.312924,414909,20185
1124.77,1.325431,416559,19690
1128.38,1.319030,418532,20077
1131.99,1.314896,419956,20338
1135.6,1.318425,421946,20269
1139.2,1.315596,423881,20495
1143.99,1.321795,426786,20343
1147.58,1.312214,428617,20886
1151.17,1.311065,431169,21066
1154.75,1.322737,433579,20622
1158.33,1.312779,436264,21231
1161.91,1.316854,439132,21171
1165.48,1.316956,442389,21323
1169.04,1.310897,446101,21804
1173.79,1.318691,451929,21696
1177.34,1.307541,456026,22462
1180.9,1.315899,461306,22289
1184.44,1.325732,467657,22090
1187.99,1.322969,473969,22531
1191.52,1.317612,479856,23094
1195.06,1.317736,487372,23449
1199.76,1.327536,497347,23395
1203.29,1.321132,504311,24075
1206.81,1.320733,511507,24441
1210.33,1.317727,519078,24975
1213.84,1.315745,527163,25480
1217.35,1.329545,534208,25013
1220.85,1.314323,540472,26209
1225.51,1.326169,549929,25950
1229.01,1.326589,556888,26253
1232.5,1.320462,562180,26879
1235.98,1.319680,567975,27205
1239.46,1.323923,574815,27265
1242.94,1.322776,582782,27716
1246.41,1.324484,591476,28019
1251.03,1.323015,604016,28710
1254.5,1.324558,612289,29000
1257.96,1.324570,619125,29323
1261.41,1.326527,624551,29447
1264.86,1.325303,629900,29783
1268.31,1.325393,634345,29987
1271.75,1.323224,638574,30338
1276.33,1.327851,642499,30201
1279.76,1.326753,645905,30438
1283.19,1.327040,648307,30531
1286.61,1.329424,650446,30464
1290.03,1.335308,652132,30132
1293.44,1.327374,653907,30771
1296.85,1.332950,655963,30474
1301.39,1.328935,657349,30822
1304.8,1.328989,657558,30828
1308.19,1.334351,658515,30494
1311.58,1.330756,658804,30761
1314.97,1.335277,659011,30452
1318.36,1.332911,658272,30584
1321.73,1.329563,658022,30809
1326.23,1.331780,657870,30645
1329.6,1.336368,656482,30259
1332.97,1.331138,654926,30553
1336.33,1.330840,653727,30518
1339.69,1.327780,652497,30676
1343.04,1.333453,649913,30158
1346.39,1.334595,647671,29975
1349.73,1.332579,645338,30006
1354.18,1.332163,641175,29841
1357.52,1.331590,638376,29750
1360.85,1.328467,635805,29844
1364.17,1.325682,633413,29923
1367.49,1.326955,631026,29723
1370.81,1.325413,628050,29688
1374.12,1.329258,625034,29285
1378.54,1.329391,620272,29053
1381.84,1.331602,616892,28748
1385.14,1.328110,613613,28826
1388.43,1.325607,611526,28894
1391.72,1.328541,610663,28659
1395.01,1.329005,610634,28627
1398.29,1.324155,611700,28999
1402.66,1.331338,614051,28633
1405.93,1.332357,616268,28669
1409.2,1.329646,617795,28920
1412.46,1.334764,618872,28631
1415.72,1.331065,619795,28919
1418.98,1.337513,620495,28525
1422.23,1.331294,621087,28964
1426.56,1.325657,621375,29356
1429.8,1.335640,621616,28700
1433.04,1.329764,622129,29115
1436.27,1.330702,621526,29024
1439.5,1.333808,621113,28798
1442.72,1.334534,620921,28741
1445.94,1.336975,620270,28550
1450.23,1.337251,618860,28467
1453.44,1.335017,617697,28560
1456.64,1.333993,616264,28561
1459.85,1.341815,614413,27967
1463.04,1.335935,612307,28251
1466.24,1.333244,610032,28321
1469.43,1.339156,607345,27815
1473.67,1.338217,603789,27712
1476.85,1.335894,601175,27740
1480.02,1.334313,597737,27682
1483.19,1.340687,594479,27130
1486.36,1.343251,591232,26823
1489.52,1.337455,587853,27028
1492.68,1.340085,583875,26683
1496.89,1.341821,578062,26312
1500.03,1.336442,574159,26460
1503.18,1.339335,570285,26107
1506.32,1.339341,565444,25885
1509.45,1.337904,560571,25747
1512.58,1.334985,555821,25701
1515.71,1.348518,550344,24667
1519.87,1.332860,543983,25277
1522.99,1.331344,538764,25122
1526.1,1.334242,533692,24720
1529.21,1.331936,527902,24582
1532.32,1.335649,521886,24095
1535.42,1.333468,515888,23938
1538.51,1.335753,509987,23540
1541.6,1.342123,503936,22922
1545.72,1.337050,494694,22766
1548.8,1.335841,488378,22538
1551.88,1.333249,481832,22369
1554.95,1.331565,474989,22137
1558.02,1.335603,467818,21601
1561.08,1.333906,460730,21357
1564.15,1.332113,454170,21140
1568.22,1.332977,444181,20634
1571.27,1.335142,436947,20197
1574.32,1.333729,429598,19922
1577.36,1.330688,422039,19709
1580.4,1.330488,414375,19360
1583.43,1.334354,406354,18817
1586.46,1.327353,398475,18752
1590.49,1.330383,388982,18178
1593.51,1.330929,380708,17769
1596.53,1.332968,372727,17315
1599.54,1.316975,365060,17595
1602.55,1.324005,357543,16956
1605.55,1.326089,349495,16495
1608.55,1.332921,341154,15850
1612.54,1.328691,330877,15523
1615.53,1.325633,322904,15256
1618.51,1.323365,315116,14966
1621.49,1.315368,307217,14862
1624.47,1.313089,299481,14564
1627.44,1.320353,292112,13970
1630.41,1.313562,284245,13808
1634.36,1.312460,274079,13348
1637.32,1.319674,266916,12785
1640.27,1.316270,259612,12533
1643.22,1.312714,251804,12256
1646.16,1.314914,244348,11833
1649.1,1.308325,236703,11638
1652.04,1.313995,228171,11073
1655.95,1.316437,215408,10395
1658.88,1.307557,204937,10094
1661.8,1.305125,193395,9579
1664.72,1.288662,179728,9246
1667.63,1.278186,163642,8624
1670.54,1.282698,146312,7631
1673.44,1.257663,128451,7097
1677.31,1.252660,105080,5873
1680.21,1.257231,88906,4917
1683.1,1.216764,75033,4555
1685.99,1.251095,63520,3563
1688.87,1.214346,53714,3279
1691.75,1.223148,45653,2731
1694.62,1.257531,39137,2163
1697.49,1.240806,33776,1940
1701.31,1.323408,28175,1338