File: ML/samples/unknown/Column 1_078145_20241121_164740.csv
Method:,Column 1,,
Host Date-Time:,21/11/24 @ 16:47:40,,
Header Version:,1,,
System Temp (C):,33.13,,
Detector Temp (C):,29.12,,
Humidity (%):,3.27,,
Lamp PD:,3805,,
Shift Vector Coefficients:,-10.5391,0.0761263,-0.000134223,,
Pixel to Wavelength Coefficients:,1775.68,-0.916766,-0.000235065,,
Serial Number:,5510004,,
Scan Config Name:,Column 1,,
Scan Config Type:,Slew,,
Section 1,,
Start wavelength (nm):,900,,
End wavelength (nm):,1700,,
Pattern Pixel Width (nm):,   7.03,,,,
Exposure (ms):,  0.635,,,,
Digital Resolution:,228,,
Num Repeats:,6,,
PGA Gain:,64,,
Total Measurement Time in sec:,  2.736,,
Wavelength (nm),Absorbance (AU),Reference Signal (unitless),Sample Signal (unitless)
901.51,1.330276,108485,5071
905.376,1.335694,121306,5600
909.237,1.294978,131909,6688
913.095,1.319476,143299,6867
916.948,1.331695,156982,7314
922.079,1.327647,179937,8462
925.923,1.313876,200504,9733
929.762,1.316759,222660,10737
933.597,1.325340,244426,11556
937.427,1.321049,263972,12604
941.254,1.321482,281845,13444
945.076,1.309872,297271,14564
950.165,1.307330,315605,15553
953.978,1.313260,328029,15946
957.786,1.320211,340470,16288
961.59,1.313760,352317,17107
965.389,1.313721,363056,17630
969.185,1.312160,373162,18186
972.976,1.308346,382632,18812
976.763,1.310709,391202,19129
981.806,1.313592,400190,19439
985.583,1.306441,406088,20053
989.355,1.312273,410162,19984
993.124,1.312313,412868,20114
996.888,1.309737,414263,20302
1000.65,1.311928,415476,20259
1004.4,1.304155,415479,20625
1009.41,1.313920,414358,20112
1013.15,1.310131,412923,20218
1016.89,1.313910,411526,19975
1020.63,1.312613,409066,19915
1024.36,1.314956,406777,19697
1028.09,1.311009,404427,19762
1031.82,1.308189,401911,19767
1036.78,1.303248,398410,19819
1040.49,1.316635,396204,19111
1044.2,1.309255,394236,19342
1047.91,1.325340,392042,18535
1051.61,1.316109,389823,18826
1055.31,1.308675,388234,19073
1059,1.311003,387599,18940
1063.92,1.314684,386688,18736
1067.61,1.315767,386598,18685
1071.29,1.308330,387377,19046
1074.96,1.333580,388536,18024
1078.63,1.316399,389855,18815
1082.3,1.313182,391215,19021
1085.96,1.315785,393215,19004
1090.84,1.316640,396270,19114
1094.49,1.318225,398760,19164
1098.14,1.325613,400987,18946
1101.79,1.321208,403477,19258
1105.43,1.321610,406116,19366
1109.06,1.318684,407701,19573
1112.7,1.325639,409859,19364
1117.53,1.316848,412494,19887
1121.15,1.318119,414909,19945
1124.77,1.319407,416559,19965
1128.38,1.317842,418532,20132
1131.99,1.314255,419956,20368
1135.6,1.322688,421946,20071
1139.2,1.324913,423881,20060
1143.99,1.330746,426786,19928
1147.58,1.314466,428617,20778
1151.17,1.317839,431169,20740
1154.75,1.309893,433579,21241
1158.33,1.319084,436264,20925
1161.91,1.319611,439132,21037
1165.48,1.315005,442389,21419
1169.04,1.317986,446101,21451
1173.79,1.323947,451929,21435
1177.34,1.315561,456026,22051
1180.9,1.323604,461306,21897
1184.44,1.327801,467657,21985
1187.99,1.318463,473969,22766
1191.52,1.315997,479856,23180
1195.06,1.320095,487372,23322
1199.76,1.325074,497347,23528
1203.29,1.325903,504311,23812
1206.81,1.329909,511507,23930
1210.33,1.333468,519078,24086
1213.84,1.323467,527163,25031
1217.35,1.323150,534208,25384
1220.85,1.330735,540472,25237
1225.51,1.326303,549929,25942
1229.01,1.326953,556888,26231
1232.5,1.320818,562180,26857
1235.98,1.328371,567975,26666
1239.46,1.325582,574815,27161
1242.94,1.323984,582782,27639
1246.41,1.329646,591476,27688
1251.03,1.321385,604016,28818
1254.5,1.326269,612289,28886
1257.96,1.332672,619125,28781
1261.41,1.330304,624551,29192
1264.86,1.331501,629900,29361
1268.31,1.327236,634345,29860
1271.75,1.327193,638574,30062
1276.33,1.335131,642499,29699
1279.76,1.329415,645905,30252
1283.19,1.334645,648307,30001
1286.61,1.334082,650446,30139
1290.03,1.332034,652132,30360
1293.44,1.332400,653907,30417
1296.85,1.331200,655963,30597
1301.39,1.332643,657349,30560
1304.8,1.325132,657558,31103
1308.19,1.334195,658515,30505
1311.58,1.338174,658804,30240
1314.97,1.332278,659011,30663
1318.36,1.329657,658272,30814
1321.73,1.334211,658022,30481
1326.23,1.337242,657870,30262
1329.6,1.330566,656482,30666
1332.97,1.333819,654926,30365
1336.33,1.332866,653727,30376
1339.69,1.334831,652497,30182
1343.04,1.331398,649913,30301
1346.39,1.336425,647671,29849
1349.73,1.333057,645338,29973
1354.18,1.334206,641175,29701
1357.52,1.330205,638376,29845
1360.85,1.327130,635805,29936
1364.17,1.328580,633413,29724
1367.49,1.327379,631026,29694
1370.81,1.328776,628050,29459
1374.12,1.333386,625034,29008
1378.54,1.326947,620272,29217
1381.84,1.334238,616892,28574
1385.14,1.325631,613613,28991
1388.43,1.323927,611526,29006
1391.72,1.328859,610663,28638
1395.01,1.328550,610634,28657
1398.29,1.328218,611700,28729
1402.66,1.332857,614051,28533
1405.93,1.334316,616268,28540
1409.2,1.329346,617795,28940
1412.46,1.330778,618872,28895
1415.72,1.334003,619795,28724
1418.98,1.330670,620495,28978
1422.23,1.333172,621087,28839
1426.56,1.326931,621375,29270
1429.8,1.337794,621616,28558
1433.04,1.336165,622129,28689
1436.27,1.335487,621526,28706
1439.5,1.332153,621113,28908
1442.72,1.332514,620921,28875
1445.94,1.332330,620270,28857
1450.23,1.338305,618860,28398
1453.44,1.340095,617697,28228
1456.64,1.333386,616264,28601
1459.85,1.339940,614413,28088
1463.04,1.338263,612307,28100
1466.24,1.341230,610032,27805
1469.43,1.335874,607345,28026
1473.67,1.337153,603789,27780
1476.85,1.332572,601175,27953
1480.02,1.336704,597737,27530
1483.19,1.340079,594479,27168
1486.36,1.340619,591232,26986
1489.52,1.335355,587853,27159
1492.68,1.342484,583875,26536
1496.89,1.337174,578062,26595
1500.03,1.340433,574159,26218
1503.18,1.343413,570285,25863
1506.32,1.337116,565444,26018
1509.45,1.340408,560571,25599
1512.58,1.339196,555821,25453
1515.71,1.340027,550344,25154
1519.87,1.336275,543983,25079
1522.99,1.346633,538764,24253
1526.1,1.337310,533692,24546
1529.21,1.338164,527902,24232
1532.32,1.342992,521886,23691
1535.42,1.332742,515888,23978
1538.51,1.342483,509987,23178
1541.6,1.341290,503936,22966
1545.72,1.344244,494694,22392
1548.8,1.335744,488378,22543
1551.88,1.335351,481832,22261
1554.95,1.337789,474989,21822
1558.02,1.338063,467818,21479
1561.08,1.338054,460730,21154
1564.15,1.334070,454170,21045
1568.22,1.340963,444181,20258
1571.27,1.332933,436947,20300
1574.32,1.339192,429598,19673
1577.36,1.336545,422039,19445
1580.4,1.341415,414375,18879
1583.43,1.337528,406354,18680
1586.46,1.343707,398475,18059
1590.49,1.337975,388982,17863
1593.51,1.339868,380708,17407
1596.53,1.336267,372727,17184
1599.54,1.331303,365060,17024
1602.55,1.326393,357543,16863
1605.55,1.323490,349495,16594
1608.55,1.330054,341154,15955
1612.54,1.335287,330877,15289
1615.53,1.331364,322904,15056
1618.51,1.329561,315116,14754
1621.49,1.322320,307217,14626
1624.47,1.319881,299481,14338
1627.44,1.319266,292112,14005
1630.41,1.323070,284245,13509
1634.36,1.322398,274079,13046
1637.32,1.319708,266916,12784
1640.27,1.321885,259612,12372
1643.22,1.318349,251804,12098
1646.16,1.318452,244348,11737
1649.1,1.315588,236703,11445
1652.04,1.321233,228171,10890
1655.95,1.318909,215408,10336
1658.88,1.319023,204937,9831
1661.8,1.299047,193395,9714
1664.72,1.302114,179728,8964
1667.63,1.289564,163642,8401
1670.54,1.261702,146312,8009
1673.44,1.264820,128451,6981
1677.31,1.263820,105080,5724
1680.21,1.278592,88906,4681
1683.1,1.293530,75033,3817
1685.99,1.263082,63520,3466
1688.87,1.222771,53714,3216
1691.75,1.227623,45653,2703
1694.62,1.228412,39137,2313
1697.49,1.223687,33776,2018
1701.31,1.274642,28175,1497