File: ML/samples/unknown/Column 1_078856_20241121_172529.csv
Method:,Column 1,,
Host Date-Time:,21/11/24 @ 17:25:29,,
Header Version:,1,,
System Temp (C):,37.22,,
Detector Temp (C):,35.94,,
Humidity (%):,0.53,,
Lamp PD:,3796,,
Shift Vector Coefficients:,-10.5391,0.0761263,-0.000134223,,
Pixel to Wavelength Coefficients:,1775.68,-0.916766,-0.000235065,,
Serial Number:,5510004,,
Scan Config Name:,Column 1,,
Scan Config Type:,Slew,,
Section 1,,
Start wavelength (nm):,900,,
End wavelength (nm):,1700,,
Pattern Pixel Width (nm):,   7.03,,,,
Exposure (ms):,  0.635,,,,
Digital Resolution:,228,,
Num Repeats:,6,,
PGA Gain:,64,,
Total Measurement Time in sec:,  2.727,,
Wavelength (nm),Absorbance (AU),Reference Signal (unitless),Sample Signal (unitless)
901.51,1.309132,108485,5324
905.376,1.315244,121306,5870
909.237,1.312807,131909,6419
913.095,1.325847,143299,6767
916.948,1.332230,156982,7305
922.079,1.319512,179937,8622
925.923,1.318361,200504,9633
929.762,1.323937,222660,10561
933.597,1.319479,244426,11713
937.427,1.319673,263972,12644
941.254,1.311360,281845,13761
945.076,1.322765,297271,14138
950.165,1.312470,315605,15370
953.978,1.311277,328029,16019
957.786,1.306330,340470,16817
961.59,1.302830,352317,17543
965.389,1.300690,363056,18167
969.185,1.310349,373162,18262
972.976,1.302203,382632,19080
976.763,1.309892,391202,19165
981.806,1.309744,400190,19612
985.583,1.307547,406088,20002
989.355,1.300588,410162,20529
993.124,1.307204,412868,20352
996.888,1.304908,414263,20529
1000.65,1.296865,415476,20974
1004.4,1.304345,415479,20616
1009.41,1.303466,414358,20602
1013.15,1.309895,412923,20229
1016.89,1.308852,411526,20209
1020.63,1.307605,409066,20146
1024.36,1.307155,406777,20054
1028.09,1.315471,404427,19560
1031.82,1.306282,401911,19854
1036.78,1.306151,398410,19687
1040.49,1.302462,396204,19745
1044.2,1.306323,394236,19473
1047.91,1.306809,392042,19343
1051.61,1.303760,389823,19369
1055.31,1.307492,388234,19125
1059,1.311599,387599,18914
1063.92,1.315055,386688,18720
1067.61,1.322017,386598,18418
1071.29,1.304448,387377,19217
1074.96,1.309012,388536,19073
1078.63,1.303236,389855,19394
1082.3,1.310587,391215,19135
1085.96,1.312393,393215,19153
1090.84,1.312141,396270,19313
1094.49,1.316710,398760,19231
1098.14,1.316225,400987,19360
1101.79,1.316743,403477,19457
1105.43,1.308533,406116,19958
1109.06,1.312800,407701,19840
1112.7,1.323849,409859,19444
1117.53,1.319389,412494,19771
1121.15,1.315600,414909,20061
1124.77,1.315078,416559,20165
1128.38,1.320634,418532,20003
1131.99,1.315879,419956,20292
1135.6,1.315159,421946,20422
1139.2,1.313862,423881,20577
1143.99,1.319241,426786,20463
1147.58,1.310678,428617,20960
1151.17,1.322978,431169,20496
1154.75,1.318442,433579,20827
1158.33,1.313536,436264,21194
1161.91,1.321494,439132,20946
1165.48,1.314539,442389,21442
1169.04,1.315181,446101,21590
1173.79,1.313062,451929,21979
1177.34,1.325502,456026,21552
1180.9,1.312947,461306,22441
1184.44,1.311555,467657,22823
1187.99,1.326570,473969,22345
1191.52,1.312341,479856,23376
1195.06,1.315556,487372,23567
1199.76,1.310571,497347,24327
1203.29,1.318488,504311,24222
1206.81,1.319508,511507,24510
1210.33,1.324880,519078,24567
1213.84,1.313095,527163,25636
1217.35,1.323458,534208,25366
1220.85,1.325212,540472,25560
1225.51,1.315556,549929,26592
1229.01,1.313103,556888,27081
1232.5,1.323348,562180,26701
1235.98,1.317229,567975,27359
1239.46,1.322587,574815,27349
1242.94,1.320915,582782,27835
1246.41,1.322968,591476,28117
1251.03,1.318157,604016,29033
1254.5,1.319053,612289,29370
1257.96,1.321530,619125,29529
1261.41,1.329487,624551,29247
1264.86,1.323165,629900,29930
1268.31,1.322462,634345,30190
1271.75,1.322695,638574,30375
1276.33,1.327434,642499,30230
1279.76,1.319213,645905,30971
1283.19,1.326258,648307,30586
1286.61,1.322551,650446,30950
1290.03,1.329637,652132,30528
1293.44,1.324505,653907,30975
1296.85,1.326808,655963,30908
1301.39,1.322946,657349,31250
1304.8,1.329510,657558,30791
1308.19,1.323785,658515,31245
1311.58,1.331194,658804,30730
1314.97,1.328934,659011,30900
1318.36,1.332585,658272,30607
1321.73,1.329408,658022,30820
1326.23,1.333072,657870,30554
1329.6,1.325749,656482,31008
1332.97,1.329351,654926,30679
1336.33,1.323027,653727,31072
1339.69,1.331448,652497,30418
1343.04,1.324615,649913,30778
1346.39,1.324896,647671,30652
1349.73,1.326243,645338,30447
1354.18,1.326309,641175,30246
1357.52,1.324380,638376,30248
1360.85,1.326304,635805,29993
1364.17,1.327616,633413,29790
1367.49,1.324115,631026,29918
1370.81,1.328599,628050,29471
1374.12,1.322972,625034,29712
1378.54,1.327661,620272,29169
1381.84,1.327841,616892,28998
1385.14,1.324733,613613,29051
1388.43,1.325622,611526,28893
1391.72,1.317070,610663,29426
1395.01,1.320845,610634,29170
1398.29,1.327976,611700,28745
1402.66,1.325926,614051,28992
1405.93,1.328661,616268,28914
1409.2,1.333447,617795,28668
1412.46,1.332706,618872,28767
1415.72,1.327714,619795,29143
1418.98,1.329831,620495,29034
1422.23,1.329692,621087,29071
1426.56,1.334837,621375,28742
1429.8,1.332699,621616,28895
1433.04,1.329749,622129,29116
1436.27,1.336699,621526,28626
1439.5,1.330683,621113,29006
1442.72,1.336215,620921,28630
1445.94,1.331413,620270,28918
1450.23,1.332683,618860,28768
1453.44,1.329127,617697,28950
1456.64,1.330103,616264,28818
1459.85,1.329460,614413,28774
1463.04,1.328150,612307,28762
1466.24,1.331240,610032,28452
1469.43,1.334837,607345,28093
1473.67,1.331191,603789,28164
1476.85,1.337699,601175,27625
1480.02,1.330424,597737,27931
1483.19,1.332018,594479,27677
1486.36,1.337620,591232,27173
1489.52,1.333027,587853,27305
1492.68,1.334104,583875,27053
1496.89,1.337877,578062,26552
1500.03,1.333270,574159,26654
1503.18,1.332322,570285,26532
1506.32,1.334005,565444,26205
1509.45,1.337230,560571,25787
1512.58,1.327596,555821,26142
1515.71,1.334418,550344,25481
1519.87,1.339822,543983,24875
1522.99,1.333181,538764,25016
1526.1,1.330847,533692,24914
1529.21,1.338128,527902,24234
1532.32,1.336298,521886,24059
1535.42,1.326931,515888,24301
1538.51,1.329452,509987,23884
1541.6,1.331973,503936,23464
1545.72,1.328605,494694,23213
1548.8,1.331164,488378,22782
1551.88,1.335370,481832,22260
1554.95,1.332842,474989,22072
1558.02,1.328741,467818,21945
1561.08,1.330968,460730,21502
1564.15,1.318165,454170,21830
1568.22,1.333693,444181,20600
1571.27,1.329056,436947,20482
1574.32,1.324925,429598,20330
1577.36,1.336254,422039,19458
1580.4,1.326980,414375,19517
1583.43,1.331433,406354,18944
1586.46,1.328304,398475,18711
1590.49,1.325206,388982,18396
1593.51,1.321237,380708,18170
1596.53,1.328576,372727,17491
1599.54,1.328176,365060,17147
1602.55,1.322828,357543,17002
1605.55,1.317951,349495,16807
1608.55,1.322498,341154,16235
1612.54,1.325708,330877,15630
1615.53,1.317678,322904,15538
1618.51,1.318259,315116,15143
1621.49,1.323598,307217,14583
1624.47,1.326750,299481,14113
1627.44,1.314854,292112,14148
1630.41,1.315011,284245,13762
1634.36,1.312883,274079,13335
1637.32,1.330717,266916,12464
1640.27,1.317137,259612,12508
1643.22,1.329254,251804,11798
1646.16,1.311332,244348,11931
1649.1,1.304018,236703,11754
1652.04,1.302806,228171,11362
1655.95,1.303553,215408,10708
1658.88,1.278518,204937,10792
1661.8,1.283977,193395,10057
1664.72,1.269549,179728,9662
1667.63,1.249399,163642,9215
1670.54,1.224515,146312,8725
1673.44,1.207879,128451,7959
1677.31,1.170629,105080,7094
1680.21,1.157381,88906,6188
1683.1,1.130021,75033,5562
1685.99,1.145855,63520,4540
1688.87,1.157797,53714,3735
1691.75,1.127863,45653,3401
1694.62,1.150578,39137,2767
1697.49,1.132234,33776,2491
1701.31,1.165885,28175,1923