File: ML/samples/unknown/Column 1_078770_20241121_172120.csv
Method:,Column 1,,
Host Date-Time:,21/11/24 @ 17:21:20,,
Header Version:,1,,
System Temp (C):,36.82,,
Detector Temp (C):,35.07,,
Humidity (%):,1.08,,
Lamp PD:,3798,,
Shift Vector Coefficients:,-10.5391,0.0761263,-0.000134223,,
Pixel to Wavelength Coefficients:,1775.68,-0.916766,-0.000235065,,
Serial Number:,5510004,,
Scan Config Name:,Column 1,,
Scan Config Type:,Slew,,
Section 1,,
Start wavelength (nm):,900,,
End wavelength (nm):,1700,,
Pattern Pixel Width (nm):,   7.03,,,,
Exposure (ms):,  0.635,,,,
Digital Resolution:,228,,
Num Repeats:,6,,
PGA Gain:,64,,
Total Measurement Time in sec:,  2.720,,
Wavelength (nm),Absorbance (AU),Reference Signal (unitless),Sample Signal (unitless)
901.51,1.306367,108485,5358
905.376,1.331680,121306,5652
909.237,1.310244,131909,6457
913.095,1.311083,143299,7001
916.948,1.315837,156982,7586
922.079,1.331100,179937,8395
925.923,1.336780,200504,9233
929.762,1.339383,222660,10192
933.597,1.335184,244426,11297
937.427,1.326807,263972,12438
941.254,1.327762,281845,13251
945.076,1.322120,297271,14159
950.165,1.312216,315605,15379
953.978,1.318797,328029,15744
957.786,1.307183,340470,16784
961.59,1.309239,352317,17286
965.389,1.300547,363056,18173
969.185,1.313619,373162,18125
972.976,1.310336,382632,18726
976.763,1.308444,391202,19229
981.806,1.312677,400190,19480
985.583,1.309287,406088,19922
989.355,1.302878,410162,20421
993.124,1.302619,412868,20568
996.888,1.310722,414263,20256
1000.65,1.302764,415476,20691
1004.4,1.304176,415479,20624
1009.41,1.300693,414358,20734
1013.15,1.309230,412923,20260
1016.89,1.295208,411526,20854
1020.63,1.315897,409066,19765
1024.36,1.305642,406777,20124
1028.09,1.296891,404427,20415
1031.82,1.308387,401911,19758
1036.78,1.308540,398410,19579
1040.49,1.312857,396204,19278
1044.2,1.306257,394236,19476
1047.91,1.313529,392042,19046
1051.61,1.303178,389823,19395
1055.31,1.306743,388234,19158
1059,1.304765,387599,19214
1063.92,1.311244,386688,18885
1067.61,1.312156,386598,18841
1071.29,1.308284,387377,19048
1074.96,1.303964,388536,19296
1078.63,1.306066,389855,19268
1082.3,1.311701,391215,19086
1085.96,1.311600,393215,19188
1090.84,1.304054,396270,19676
1094.49,1.312060,398760,19438
1098.14,1.319332,400987,19222
1101.79,1.306115,403477,19939
1105.43,1.308011,406116,19982
1109.06,1.318396,407701,19586
1112.7,1.313062,409859,19933
1117.53,1.313867,412494,20024
1121.15,1.312387,414909,20210
1124.77,1.306105,416559,20586
1128.38,1.312035,418532,20403
1131.99,1.308936,419956,20619
1135.6,1.312593,421946,20543
1139.2,1.319620,423881,20306
1143.99,1.318605,426786,20493
1147.58,1.311923,428617,20900
1151.17,1.318342,431169,20716
1154.75,1.314952,433579,20995
1158.33,1.314870,436264,21129
1161.91,1.312791,439132,21370
1165.48,1.320966,442389,21127
1169.04,1.310340,446101,21832
1173.79,1.316415,451929,21810
1177.34,1.311660,456026,22250
1180.9,1.314517,461306,22360
1184.44,1.315588,467657,22612
1187.99,1.314627,473969,22968
1191.52,1.315473,479856,23208
1195.06,1.316312,487372,23526
1199.76,1.313994,497347,24136
1203.29,1.318327,504311,24231
1206.81,1.317687,511507,24613
1210.33,1.320308,519078,24827
1213.84,1.320493,527163,25203
1217.35,1.315973,534208,25807
1220.85,1.315019,540472,26167
1225.51,1.318341,549929,26422
1229.01,1.321736,556888,26548
1232.5,1.317997,562180,27032
1235.98,1.321200,567975,27110
1239.46,1.318855,574815,27585
1242.94,1.321633,582782,27789
1246.41,1.317275,591476,28488
1251.03,1.319475,604016,28945
1254.5,1.329680,612289,28660
1257.96,1.326024,619125,29225
1261.41,1.324467,624551,29587
1264.86,1.316898,629900,30365
1268.31,1.319509,634345,30396
1271.75,1.321895,638574,30431
1276.33,1.322449,642499,30579
1279.76,1.323724,645905,30651
1283.19,1.322864,648307,30826
1286.61,1.323646,650446,30872
1290.03,1.323226,652132,30982
1293.44,1.324322,653907,30988
1296.85,1.331215,655963,30596
1301.39,1.324212,657349,31159
1304.8,1.321226,657558,31384
1308.19,1.326658,658515,31039
1311.58,1.327773,658804,30973
1314.97,1.323515,659011,31288
1318.36,1.324850,658272,31157
1321.73,1.329239,658022,30832
1326.23,1.324821,657870,31140
1329.6,1.324351,656482,31108
1332.97,1.327261,654926,30827
1336.33,1.325129,653727,30922
1339.69,1.326070,652497,30797
1343.04,1.328072,649913,30534
1346.39,1.327482,647671,30470
1349.73,1.324833,645338,30546
1354.18,1.328468,641175,30096
1357.52,1.328462,638376,29965
1360.85,1.328176,635805,29864
1364.17,1.326583,633413,29861
1367.49,1.330741,631026,29465
1370.81,1.321597,628050,29950
1374.12,1.327409,625034,29410
1378.54,1.327944,620272,29150
1381.84,1.326092,616892,29115
1385.14,1.318765,613613,29453
1388.43,1.331494,611526,28505
1391.72,1.324498,610663,28927
1395.01,1.320740,610634,29177
1398.29,1.321811,611700,29156
1402.66,1.325447,614051,29024
1405.93,1.323926,616268,29231
1409.2,1.325432,617795,29202
1412.46,1.330177,618872,28935
1415.72,1.327103,619795,29184
1418.98,1.327579,620495,29185
1422.23,1.329812,621087,29063
1426.56,1.329550,621375,29094
1429.8,1.324806,621616,29425
1433.04,1.331153,622129,29022
1436.27,1.330089,621526,29065
1439.5,1.331657,621113,28941
1442.72,1.331073,620921,28971
1445.94,1.332586,620270,28840
1450.23,1.329869,618860,28955
1453.44,1.329067,617697,28954
1456.64,1.333613,616264,28586
1459.85,1.333555,614413,28504
1463.04,1.330254,612307,28623
1466.24,1.337575,610032,28040
1469.43,1.331434,607345,28314
1473.67,1.326299,603789,28483
1476.85,1.338296,601175,27587
1480.02,1.330626,597737,27918
1483.19,1.333023,594479,27613
1486.36,1.336009,591232,27274
1489.52,1.335179,587853,27170
1492.68,1.335600,583875,26960
1496.89,1.333710,578062,26808
1500.03,1.334330,574159,26589
1503.18,1.334932,570285,26373
1506.32,1.334918,565444,26150
1509.45,1.338292,560571,25724
1512.58,1.336950,555821,25585
1515.71,1.331259,550344,25667
1519.87,1.333978,543983,25212
1522.99,1.334729,538764,24927
1526.1,1.333277,533692,24775
1529.21,1.330772,527902,24648
1532.32,1.333976,521886,24188
1535.42,1.338522,515888,23661
1538.51,1.334224,509987,23623
1541.6,1.333903,503936,23360
1545.72,1.329448,494694,23168
1548.8,1.328371,488378,22929
1551.88,1.336288,481832,22213
1554.95,1.329803,474989,22227
1558.02,1.327122,467818,22027
1561.08,1.325748,460730,21762
1564.15,1.329962,454170,21245
1568.22,1.326749,444181,20932
1571.27,1.334433,436947,20230
1574.32,1.330905,429598,20052
1577.36,1.324323,422039,20000
1580.4,1.330376,414375,19365
1583.43,1.322852,406354,19322
1586.46,1.325943,398475,18813
1590.49,1.325489,388982,18384
1593.51,1.328638,380708,17863
1596.53,1.317786,372727,17931
1599.54,1.324494,365060,17293
1602.55,1.323339,357543,16982
1605.55,1.315914,349495,16886
1608.55,1.318478,341154,16386
1612.54,1.318515,330877,15891
1615.53,1.319780,322904,15463
1618.51,1.313127,315116,15323
1621.49,1.309851,307217,15052
1624.47,1.320214,299481,14327
1627.44,1.316793,292112,14085
1630.41,1.314727,284245,13771
1634.36,1.308669,274079,13465
1637.32,1.321580,266916,12729
1640.27,1.316929,259612,12514
1643.22,1.308869,251804,12365
1646.16,1.310750,244348,11947
1649.1,1.305536,236703,11713
1652.04,1.303226,228171,11351
1655.95,1.294086,215408,10944
1658.88,1.273716,204937,10912
1661.8,1.274030,193395,10290
1664.72,1.278587,179728,9463
1667.63,1.238739,163642,9444
1670.54,1.231337,146312,8589
1673.44,1.214809,128451,7833
1677.31,1.199810,105080,6633
1680.21,1.153329,88906,6246
1683.1,1.176195,75033,5001
1685.99,1.153284,63520,4463
1688.87,1.148138,53714,3819
1691.75,1.150670,45653,3227
1694.62,1.131840,39137,2889
1697.49,1.139797,33776,2448
1701.31,1.095948,28175,2259