File: ML/samples/unknown/Column 1_078036_20241121_164221.csv
Method:,Column 1,,
Host Date-Time:,21/11/24 @ 16:42:21,,
Header Version:,1,,
System Temp (C):,30.39,,
Detector Temp (C):,25.19,,
Humidity (%):,5.9,,
Lamp PD:,3812,,
Shift Vector Coefficients:,-10.5391,0.0761263,-0.000134223,,
Pixel to Wavelength Coefficients:,1775.68,-0.916766,-0.000235065,,
Serial Number:,5510004,,
Scan Config Name:,Column 1,,
Scan Config Type:,Slew,,
Section 1,,
Start wavelength (nm):,900,,
End wavelength (nm):,1700,,
Pattern Pixel Width (nm):,   7.03,,,,
Exposure (ms):,  0.635,,,,
Digital Resolution:,228,,
Num Repeats:,6,,
PGA Gain:,64,,
Total Measurement Time in sec:,  2.706,,
Wavelength (nm),Absorbance (AU),Reference Signal (unitless),Sample Signal (unitless)
901.51,1.297303,108485,5471
905.376,1.302773,121306,6041
909.237,1.336657,131909,6076
913.095,1.327841,143299,6736
916.948,1.327029,156982,7393
922.079,1.296557,179937,9090
925.923,1.297931,200504,10097
929.762,1.303652,222660,11066
933.597,1.307629,244426,12037
937.427,1.325065,263972,12488
941.254,1.315069,281845,13644
945.076,1.311515,297271,14509
950.165,1.311792,315605,15394
953.978,1.309383,328029,16089
957.786,1.299159,340470,17097
961.59,1.309239,352317,17286
965.389,1.314807,363056,17586
969.185,1.302104,373162,18612
972.976,1.306549,382632,18890
976.763,1.312917,391202,19032
981.806,1.311164,400190,19548
985.583,1.308264,406088,19969
989.355,1.302517,410162,20438
993.124,1.313069,412868,20079
996.888,1.306498,414263,20454
1000.65,1.311050,415476,20300
1004.4,1.307962,415479,20445
1009.41,1.301468,414358,20697
1013.15,1.313040,412923,20083
1016.89,1.311072,411526,20106
1020.63,1.312809,409066,19906
1024.36,1.313965,406777,19742
1028.09,1.307703,404427,19913
1031.82,1.316283,401911,19402
1036.78,1.307521,398410,19625
1040.49,1.309111,396204,19445
1044.2,1.315110,394236,19083
1047.91,1.310914,392042,19161
1051.61,1.315027,389823,18873
1055.31,1.309632,388234,19031
1059,1.311255,387599,18929
1063.92,1.309225,386688,18973
1067.61,1.307821,386598,19030
1071.29,1.308193,387377,19052
1074.96,1.312418,388536,18924
1078.63,1.318249,389855,18735
1082.3,1.314944,391215,18944
1085.96,1.307613,393215,19365
1090.84,1.310234,396270,19398
1094.49,1.307371,398760,19649
1098.14,1.324194,400987,19008
1101.79,1.322812,403477,19187
1105.43,1.321476,406116,19372
1109.06,1.314687,407701,19754
1112.7,1.315224,409859,19834
1117.53,1.314887,412494,19977
1121.15,1.316510,414909,20019
1124.77,1.323297,416559,19787
1128.38,1.320981,418532,19987
1131.99,1.319900,419956,20105
1135.6,1.314818,421946,20438
1139.2,1.321334,423881,20226
1143.99,1.320836,426786,20388
1147.58,1.315135,428617,20746
1151.17,1.323657,431169,20464
1154.75,1.321308,433579,20690
1158.33,1.323213,436264,20727
1161.91,1.328622,439132,20605
1165.48,1.313770,442389,21480
1169.04,1.312433,446101,21727
1173.79,1.312470,451929,22009
1177.34,1.320214,456026,21816
1180.9,1.318498,461306,22156
1184.44,1.323985,467657,22179
1187.99,1.315820,473969,22905
1191.52,1.318855,479856,23028
1195.06,1.326624,487372,22974
1199.76,1.321820,497347,23705
1203.29,1.319260,504311,24179
1206.81,1.322638,511507,24334
1210.33,1.319400,519078,24879
1213.84,1.322531,527163,25085
1217.35,1.320592,534208,25534
1220.85,1.322840,540472,25700
1225.51,1.324132,549929,26072
1229.01,1.326721,556888,26245
1232.5,1.333768,562180,26068
1235.98,1.322451,567975,27032
1239.46,1.318682,574815,27596
1242.94,1.319855,582782,27903
1246.41,1.323030,591476,28113
1251.03,1.323242,604016,28695
1254.5,1.321321,612289,29217
1257.96,1.327199,619125,29146
1261.41,1.323660,624551,29642
1264.86,1.325551,629900,29766
1268.31,1.327716,634345,29827
1271.75,1.327902,638574,30013
1276.33,1.332521,642499,29878
1279.76,1.329845,645905,30222
1283.19,1.327780,648307,30479
1286.61,1.331969,650446,30286
1290.03,1.328274,652132,30624
1293.44,1.326036,653907,30866
1296.85,1.337923,655963,30127
1301.39,1.334180,657349,30452
1304.8,1.336019,657558,30333
1308.19,1.331187,658515,30717
1311.58,1.336011,658804,30391
1314.97,1.333228,659011,30596
1318.36,1.333522,658272,30541
1321.73,1.330650,658022,30732
1326.23,1.337616,657870,30236
1329.6,1.335107,656482,30347
1332.97,1.334306,654926,30331
1336.33,1.331895,653727,30444
1339.69,1.331476,652497,30416
1343.04,1.331384,649913,30302
1346.39,1.334146,647671,30006
1349.73,1.330846,645338,30126
1354.18,1.330580,641175,29950
1357.52,1.328216,638376,29982
1360.85,1.331798,635805,29616
1364.17,1.329340,633413,29672
1367.49,1.327232,631026,29704
1370.81,1.326835,628050,29591
1374.12,1.332982,625034,29035
1378.54,1.336748,620272,28565
1381.84,1.327691,616892,29008
1385.14,1.327914,613613,28839
1388.43,1.327460,611526,28771
1391.72,1.325806,610663,28840
1395.01,1.328550,610634,28657
1398.29,1.323961,611700,29012
1402.66,1.328013,614051,28853
1405.93,1.333540,616268,28591
1409.2,1.330187,617795,28884
1412.46,1.332480,618872,28782
1415.72,1.335139,619795,28649
1418.98,1.336038,620495,28622
1422.23,1.326997,621087,29252
1426.56,1.334067,621375,28793
1429.8,1.332925,621616,28880
1433.04,1.330749,622129,29049
1436.27,1.332036,621526,28935
1439.5,1.336835,621113,28598
1442.72,1.329860,620921,29052
1445.94,1.337995,620270,28483
1450.23,1.333151,618860,28737
1453.44,1.333939,617697,28631
1456.64,1.331824,616264,28704
1459.85,1.339739,614413,28101
1463.04,1.335167,612307,28301
1466.24,1.334273,610032,28254
1469.43,1.343077,607345,27565
1473.67,1.339929,603789,27603
1476.85,1.339668,601175,27500
1480.02,1.333623,597737,27726
1483.19,1.341376,594479,27087
1486.36,1.339783,591232,27038
1489.52,1.334301,587853,27225
1492.68,1.338866,583875,26758
1496.89,1.339040,578062,26481
1500.03,1.335508,574159,26517
1503.18,1.344506,570285,25798
1506.32,1.340618,565444,25809
1509.45,1.343199,560571,25435
1512.58,1.331250,555821,25923
1515.71,1.336999,550344,25330
1519.87,1.343293,543983,24677
1522.99,1.333493,538764,24998
1526.1,1.333189,533692,24780
1529.21,1.337877,527902,24248
1532.32,1.340014,521886,23854
1535.42,1.342264,515888,23458
1538.51,1.335365,509987,23561
1541.6,1.342976,503936,22877
1545.72,1.336154,494694,22813
1548.8,1.331469,488378,22766
1551.88,1.341204,481832,21963
1554.95,1.344488,474989,21488
1558.02,1.337457,467818,21509
1561.08,1.336456,460730,21232
1564.15,1.334297,454170,21034
1568.22,1.327414,444181,20900
1571.27,1.334519,436947,20226
1574.32,1.328227,429598,20176
1577.36,1.336701,422039,19438
1580.4,1.332241,414375,19282
1583.43,1.342344,406354,18474
1586.46,1.331519,398475,18573
1590.49,1.323698,388982,18460
1593.51,1.333749,380708,17654
1596.53,1.325779,372727,17604
1599.54,1.323917,365060,17316
1602.55,1.331888,357543,16651
1605.55,1.332935,349495,16237
1608.55,1.333086,341154,15844
1612.54,1.324487,330877,15674
1615.53,1.326060,322904,15241
1618.51,1.326013,315116,14875
1621.49,1.322765,307217,14611
1624.47,1.318097,299481,14397
1627.44,1.331404,292112,13619
1630.41,1.325455,284245,13435
1634.36,1.332195,274079,12755
1637.32,1.328632,266916,12524
1640.27,1.326934,259612,12229
1643.22,1.326319,251804,11878
1646.16,1.337436,244348,11235
1649.1,1.313430,236703,11502
1652.04,1.314702,228171,11055
1655.95,1.331355,215408,10044
1658.88,1.334400,204937,9489
1661.8,1.345381,193395,8731
1664.72,1.334023,179728,8329
1667.63,1.326165,163642,7722
1670.54,1.335398,146312,6759
1673.44,1.322838,128451,6108
1677.31,1.329908,105080,4916
1680.21,1.423368,88906,3354
1683.1,1.286309,75033,3881
1685.99,1.286111,63520,3287
1688.87,1.383539,53714,2221
1691.75,1.383237,45653,1889
1694.62,1.346582,39137,1762
1697.49,1.315622,33776,1633
1701.31,1.299415,28175,1414