File: ML/samples/unknown/Column 1_078686_20241121_171717.csv
Method:,Column 1,,
Host Date-Time:,21/11/24 @ 17:17:17,,
Header Version:,1,,
System Temp (C):,34.52,,
Detector Temp (C):,34.74,,
Humidity (%):,1.56,,
Lamp PD:,3801,,
Shift Vector Coefficients:,-10.5391,0.0761263,-0.000134223,,
Pixel to Wavelength Coefficients:,1775.68,-0.916766,-0.000235065,,
Serial Number:,5510004,,
Scan Config Name:,Column 1,,
Scan Config Type:,Slew,,
Section 1,,
Start wavelength (nm):,900,,
End wavelength (nm):,1700,,
Pattern Pixel Width (nm):,   7.03,,,,
Exposure (ms):,  0.635,,,,
Digital Resolution:,228,,
Num Repeats:,6,,
PGA Gain:,64,,
Total Measurement Time in sec:,  2.726,,
Wavelength (nm),Absorbance (AU),Reference Signal (unitless),Sample Signal (unitless)
901.51,1.299851,108485,5439
905.376,1.321579,121306,5785
909.237,1.320383,131909,6308
913.095,1.322905,143299,6813
916.948,1.298058,156982,7903
922.079,1.318255,179937,8647
925.923,1.313163,200504,9749
929.762,1.324513,222660,10547
933.597,1.322083,244426,11643
937.427,1.315129,263972,12777
941.254,1.313131,281845,13705
945.076,1.324612,297271,14078
950.165,1.310834,315605,15428
953.978,1.311358,328029,16016
957.786,1.311108,340470,16633
961.59,1.304989,352317,17456
965.389,1.305111,363056,17983
969.185,1.307363,373162,18388
972.976,1.307309,382632,18857
976.763,1.301121,391202,19556
981.806,1.302171,400190,19957
985.583,1.301616,406088,20277
989.355,1.300672,410162,20525
993.124,1.303570,412868,20523
996.888,1.299255,414263,20798
1000.65,1.299461,415476,20849
1004.4,1.306351,415479,20521
1009.41,1.302687,414358,20639
1013.15,1.302339,412923,20584
1016.89,1.304618,411526,20407
1020.63,1.304340,409066,20298
1024.36,1.297708,406777,20495
1028.09,1.308773,404427,19864
1031.82,1.303665,401911,19974
1036.78,1.310340,398410,19498
1040.49,1.306372,396204,19568
1044.2,1.299267,394236,19792
1047.91,1.303543,392042,19489
1051.61,1.306053,389823,19267
1055.31,1.303716,388234,19292
1059,1.309515,387599,19005
1063.92,1.307147,386688,19064
1067.61,1.299794,386598,19385
1071.29,1.304267,387377,19225
1074.96,1.307331,388536,19147
1078.63,1.309824,389855,19102
1082.3,1.310224,391215,19151
1085.96,1.305286,393215,19469
1090.84,1.307979,396270,19499
1094.49,1.308478,398760,19599
1098.14,1.304911,400987,19871
1101.79,1.301738,403477,20141
1105.43,1.311546,406116,19820
1109.06,1.311271,407701,19910
1112.7,1.313345,409859,19920
1117.53,1.308178,412494,20288
1121.15,1.310371,414909,20304
1124.77,1.309344,416559,20433
1128.38,1.317174,418532,20163
1131.99,1.312872,419956,20433
1135.6,1.310863,421946,20625
1139.2,1.309891,423881,20766
1143.99,1.310064,426786,20900
1147.58,1.314298,428617,20786
1151.17,1.312056,431169,21018
1154.75,1.311388,433579,21168
1158.33,1.311431,436264,21297
1161.91,1.315318,439132,21246
1165.48,1.306134,442389,21861
1169.04,1.312473,446101,21725
1173.79,1.311701,451929,22048
1177.34,1.311113,456026,22278
1180.9,1.315392,461306,22315
1184.44,1.317861,467657,22494
1187.99,1.321046,473969,22631
1191.52,1.313997,479856,23287
1195.06,1.322597,487372,23188
1199.76,1.316466,497347,23999
1203.29,1.321168,504311,24073
1206.81,1.319313,511507,24521
1210.33,1.314591,519078,25156
1213.84,1.316752,527163,25421
1217.35,1.315838,534208,25815
1220.85,1.321642,540472,25771
1225.51,1.319477,549929,26353
1229.01,1.317714,556888,26795
1232.5,1.321481,562180,26816
1235.98,1.321344,567975,27101
1239.46,1.322412,574815,27360
1242.94,1.317697,582782,28042
1246.41,1.318282,591476,28422
1251.03,1.317603,604016,29070
1254.5,1.319304,612289,29353
1257.96,1.323978,619125,29363
1261.41,1.324203,624551,29605
1264.86,1.319495,629900,30184
1268.31,1.323543,634345,30115
1271.75,1.324055,638574,30280
1276.33,1.325070,642499,30395
1279.76,1.324206,645905,30617
1283.19,1.323188,648307,30803
1286.61,1.323590,650446,30876
1290.03,1.321268,652132,31122
1293.44,1.327445,653907,30766
1296.85,1.324972,655963,31039
1301.39,1.321268,657349,31371
1304.8,1.328257,657558,30880
1308.19,1.322994,658515,31302
1311.58,1.327226,658804,31012
1314.97,1.324321,659011,31230
1318.36,1.323111,658272,31282
1321.73,1.324936,658022,31139
1326.23,1.326862,657870,30994
1329.6,1.324323,656482,31110
1332.97,1.328729,654926,30723
1336.33,1.327791,653727,30733
1339.69,1.318577,652497,31333
1343.04,1.323276,649913,30873
1346.39,1.323877,647671,30724
1349.73,1.325530,645338,30497
1354.18,1.322805,641175,30491
1357.52,1.324567,638376,30235
1360.85,1.324931,635805,30088
1364.17,1.322241,633413,30161
1367.49,1.324943,631026,29861
1370.81,1.318592,628050,30158
1374.12,1.324509,625034,29607
1378.54,1.315997,620272,29963
1381.84,1.320593,616892,29486
1385.14,1.322616,613613,29193
1388.43,1.319444,611526,29307
1391.72,1.328328,610663,28673
1395.01,1.324928,610634,28897
1398.29,1.320294,611700,29258
1402.66,1.324222,614051,29106
1405.93,1.327102,616268,29018
1409.2,1.323443,617795,29336
1412.46,1.325965,618872,29217
1415.72,1.321955,619795,29532
1418.98,1.325708,620495,29311
1422.23,1.321978,621087,29592
1426.56,1.324726,621375,29419
1429.8,1.324850,621616,29422
1433.04,1.324294,622129,29484
1436.27,1.333148,621526,28861
1439.5,1.333341,621113,28829
1442.72,1.325547,620921,29342
1445.94,1.329479,620270,29047
1450.23,1.328536,618860,29044
1453.44,1.332425,617697,28731
1456.64,1.330269,616264,28807
1459.85,1.331472,614413,28641
1463.04,1.326628,612307,28863
1466.24,1.325101,610032,28857
1469.43,1.329155,607345,28463
1473.67,1.333231,603789,28032
1476.85,1.333584,601175,27888
1480.02,1.326692,597737,28172
1483.19,1.329374,594479,27846
1486.36,1.335055,591232,27334
1489.52,1.332883,587853,27314
1492.68,1.332038,583875,27182
1496.89,1.339631,578062,26445
1500.03,1.334036,574159,26607
1503.18,1.331815,570285,26563
1506.32,1.334586,565444,26170
1509.45,1.339763,560571,25637
1512.58,1.334006,555821,25759
1515.71,1.328023,550344,25859
1519.87,1.337367,543983,25016
1522.99,1.336177,538764,24844
1526.1,1.333821,533692,24744
1529.21,1.333689,527902,24483
1532.32,1.333617,521886,24208
1535.42,1.332290,515888,24003
1538.51,1.327131,509987,24012
1541.6,1.327792,503936,23691
1545.72,1.322844,494694,23523
1548.8,1.340919,488378,22276
1551.88,1.332028,481832,22432
1554.95,1.328768,474989,22280
1558.02,1.327595,467818,22003
1561.08,1.323717,460730,21864
1564.15,1.332936,454170,21100
1568.22,1.330333,444181,20760
1571.27,1.334218,436947,20240
1574.32,1.329650,429598,20110
1577.36,1.321595,422039,20126
1580.4,1.320071,414375,19830
1583.43,1.328668,406354,19065
1586.46,1.331402,398475,18578
1590.49,1.324663,388982,18419
1593.51,1.328346,380708,17875
1596.53,1.327337,372727,17541
1599.54,1.321590,365060,17409
1602.55,1.320231,357543,17104
1605.55,1.314425,349495,16944
1608.55,1.322070,341154,16251
1612.54,1.315004,330877,16020
1615.53,1.312400,322904,15728
1618.51,1.309598,315116,15448
1621.49,1.325748,307217,14511
1624.47,1.319336,299481,14356
1627.44,1.308940,292112,14342
1630.41,1.318274,284245,13659
1634.36,1.297902,274079,13803
1637.32,1.314004,266916,12953
1640.27,1.305185,259612,12857
1643.22,1.306242,251804,12440
1646.16,1.312061,244348,11911
1649.1,1.311923,236703,11542
1652.04,1.309430,228171,11190
1655.95,1.297472,215408,10859
1658.88,1.297016,204937,10342
1661.8,1.273060,193395,10313
1664.72,1.276253,179728,9514
1667.63,1.254663,163642,9104
1670.54,1.254282,146312,8147
1673.44,1.201810,128451,8071
1677.31,1.198242,105080,6657
1680.21,1.173758,88906,5959
1683.1,1.127996,75033,5588
1685.99,1.175647,63520,4239
1688.87,1.154207,53714,3766
1691.75,1.176596,45653,3040
1694.62,1.120856,39137,2963
1697.49,1.121898,33776,2551
1701.31,1.112205,28175,2176