File: ML/samples/unknown/Column 1_078617_20241121_171131.csv
Method:,Column 1,,
Host Date-Time:,21/11/24 @ 17:11:31,,
Header Version:,1,,
System Temp (C):,36.5,,
Detector Temp (C):,35.12,,
Humidity (%):,0.68,,
Lamp PD:,3798,,
Shift Vector Coefficients:,-10.5391,0.0761263,-0.000134223,,
Pixel to Wavelength Coefficients:,1775.68,-0.916766,-0.000235065,,
Serial Number:,5510004,,
Scan Config Name:,Column 1,,
Scan Config Type:,Slew,,
Section 1,,
Start wavelength (nm):,900,,
End wavelength (nm):,1700,,
Pattern Pixel Width (nm):,   7.03,,,,
Exposure (ms):,  0.635,,,,
Digital Resolution:,228,,
Num Repeats:,6,,
PGA Gain:,64,,
Total Measurement Time in sec:,  2.729,,
Wavelength (nm),Absorbance (AU),Reference Signal (unitless),Sample Signal (unitless)
901.51,1.334493,108485,5022
905.376,1.315762,121306,5863
909.237,1.346123,131909,5945
913.095,1.325462,143299,6773
916.948,1.335991,156982,7242
922.079,1.320067,179937,8611
925.923,1.321256,200504,9569
929.762,1.324102,222660,10557
933.597,1.319776,244426,11705
937.427,1.325517,263972,12475
941.254,1.322906,281845,13400
945.076,1.311904,297271,14496
950.165,1.317987,315605,15176
953.978,1.317805,328029,15780
957.786,1.311343,340470,16624
961.59,1.307059,352317,17373
965.389,1.302031,363056,18111
969.185,1.305172,373162,18481
972.976,1.299638,382632,19193
976.763,1.301432,391202,19542
981.806,1.309966,400190,19602
985.583,1.301531,406088,20281
989.355,1.307991,410162,20182
993.124,1.300828,412868,20653
996.888,1.306180,414263,20469
1000.65,1.300232,415476,20812
1004.4,1.305949,415479,20540
1009.41,1.306237,414358,20471
1013.15,1.311810,412923,20140
1016.89,1.305065,411526,20386
1020.63,1.310742,409066,20001
1024.36,1.303489,406777,20224
1028.09,1.309627,404427,19825
1031.82,1.307794,401911,19785
1036.78,1.316803,398410,19210
1040.49,1.308575,396204,19469
1044.2,1.313202,394236,19167
1047.91,1.310009,392042,19201
1051.61,1.309311,389823,19123
1055.31,1.305792,388234,19200
1059,1.303997,387599,19248
1063.92,1.315891,386688,18684
1067.61,1.308758,386598,18989
1071.29,1.305625,387377,19165
1074.96,1.310541,388536,19006
1078.63,1.303124,389855,19399
1082.3,1.308549,391215,19225
1085.96,1.316563,393215,18970
1090.84,1.310974,396270,19365
1094.49,1.315830,398760,19270
1098.14,1.320599,400987,19166
1101.79,1.318801,403477,19365
1105.43,1.319597,406116,19456
1109.06,1.314357,407701,19769
1112.7,1.314218,409859,19880
1117.53,1.317417,412494,19861
1121.15,1.313570,414909,20155
1124.77,1.320082,416559,19934
1128.38,1.318165,418532,20117
1131.99,1.315622,419956,20304
1135.6,1.323056,421946,20054
1139.2,1.315194,423881,20514
1143.99,1.322522,426786,20309
1147.58,1.316183,428617,20696
1151.17,1.318509,431169,20708
1154.75,1.313734,433579,21054
1158.33,1.325482,436264,20619
1161.91,1.318354,439132,21098
1165.48,1.311874,442389,21574
1169.04,1.314678,446101,21615
1173.79,1.311248,451929,22071
1177.34,1.319002,456026,21877
1180.9,1.317538,461306,22205
1184.44,1.314878,467657,22649
1187.99,1.321718,473969,22596
1191.52,1.313531,479856,23312
1195.06,1.314691,487372,23614
1199.76,1.322571,497347,23664
1203.29,1.317164,504311,24296
1206.81,1.314067,511507,24819
1210.33,1.311289,519078,25348
1213.84,1.318979,527163,25291
1217.35,1.325587,534208,25242
1220.85,1.317533,540472,26016
1225.51,1.315556,549929,26592
1229.01,1.323786,556888,26423
1232.5,1.323738,562180,26677
1235.98,1.318851,567975,27257
1239.46,1.319438,574815,27548
1242.94,1.322619,582782,27726
1246.41,1.318053,591476,28437
1251.03,1.319985,604016,28911
1254.5,1.320593,612289,29266
1257.96,1.322251,619125,29480
1261.41,1.320842,624551,29835
1264.86,1.321630,629900,30036
1268.31,1.326088,634345,29939
1271.75,1.324500,638574,30249
1276.33,1.317563,642499,30925
1279.76,1.322550,645905,30734
1283.19,1.324331,648307,30722
1286.61,1.322438,650446,30958
1290.03,1.324363,652132,30901
1293.44,1.329270,653907,30637
1296.85,1.319480,655963,31434
1301.39,1.328682,657349,30840
1304.8,1.324825,657558,31125
1308.19,1.331484,658515,30696
1311.58,1.327829,658804,30969
1314.97,1.321244,659011,31452
1318.36,1.326512,658272,31038
1321.73,1.329168,658022,30837
1326.23,1.329251,657870,30824
1329.6,1.326296,656482,30969
1332.97,1.322776,654926,31147
1336.33,1.325073,653727,30926
1339.69,1.329070,652497,30585
1343.04,1.324827,649913,30763
1346.39,1.326998,647671,30504
1349.73,1.328072,645338,30319
1354.18,1.326179,641175,30255
1357.52,1.327247,638376,30049
1360.85,1.325162,635805,30072
1364.17,1.326743,633413,29850
1367.49,1.327598,631026,29679
1370.81,1.322803,628050,29867
1374.12,1.325390,625034,29547
1378.54,1.316780,620272,29909
1381.84,1.321050,616892,29455
1385.14,1.325392,613613,29007
1388.43,1.326390,611526,28842
1391.72,1.327421,610663,28733
1395.01,1.320919,610634,29165
1398.29,1.329399,611700,28651
1402.66,1.321975,614051,29257
1405.93,1.322976,616268,29295
1409.2,1.324377,617795,29273
1412.46,1.328978,618872,29015
1415.72,1.330975,619795,28925
1418.98,1.328950,620495,29093
1422.23,1.329797,621087,29064
1426.56,1.335094,621375,28725
1429.8,1.332159,621616,28931
1433.04,1.330077,622129,29094
1436.27,1.324935,621526,29412
1439.5,1.329069,621113,29114
1442.72,1.329935,620921,29047
1445.94,1.325787,620270,29295
1450.23,1.332758,618860,28763
1453.44,1.325482,617697,29194
1456.64,1.332703,616264,28646
1459.85,1.335203,614413,28396
1463.04,1.330406,612307,28613
1466.24,1.334011,610032,28271
1469.43,1.326599,607345,28631
1473.67,1.333076,603789,28042
1476.85,1.335691,601175,27753
1480.02,1.328159,597737,28077
1483.19,1.334962,594479,27490
1486.36,1.341199,591232,26950
1489.52,1.339258,587853,26916
1492.68,1.335584,583875,26961
1496.89,1.334894,578062,26735
1500.03,1.335835,574159,26497
1503.18,1.332158,570285,26542
1506.32,1.333293,565444,26248
1509.45,1.335247,560571,25905
1512.58,1.332726,555821,25835
1515.71,1.333600,550344,25529
1519.87,1.333255,543983,25254
1522.99,1.337613,538764,24762
1526.1,1.332997,533692,24791
1529.21,1.335306,527902,24392
1532.32,1.326588,521886,24603
1535.42,1.341913,515888,23477
1538.51,1.329288,509987,23893
1541.6,1.339422,503936,23065
1545.72,1.324954,494694,23409
1548.8,1.325596,488378,23076
1551.88,1.330231,481832,22525
1554.95,1.333807,474989,22023
1558.02,1.334278,467818,21667
1561.08,1.329476,460730,21576
1564.15,1.327455,454170,21368
1568.22,1.328475,444181,20849
1571.27,1.325572,436947,20647
1574.32,1.343786,429598,19466
1577.36,1.324236,422039,20004
1580.4,1.335361,414375,19144
1583.43,1.326328,406354,19168
1586.46,1.322861,398475,18947
1590.49,1.320580,388982,18593
1593.51,1.325440,380708,17995
1596.53,1.326866,372727,17560
1599.54,1.325474,365060,17254
1602.55,1.323902,357543,16960
1605.55,1.328677,349495,16397
1608.55,1.322846,341154,16222
1612.54,1.332738,330877,15379
1615.53,1.320145,322904,15450
1618.51,1.318373,315116,15139
1621.49,1.318094,307217,14769
1624.47,1.317344,299481,14422
1627.44,1.313904,292112,14179
1630.41,1.311397,284245,13877
1634.36,1.326176,274079,12933
1637.32,1.321956,266916,12718
1640.27,1.319330,259612,12445
1643.22,1.319499,251804,12066
1646.16,1.303075,244348,12160
1649.1,1.310345,236703,11584
1652.04,1.310091,228171,11173
1655.95,1.295596,215408,10906
1658.88,1.293045,204937,10437
1661.8,1.280922,193395,10128
1664.72,1.308065,179728,8842
1667.63,1.244898,163642,9311
1670.54,1.219762,146312,8821
1673.44,1.198166,128451,8139
1677.31,1.164791,105080,7190
1680.21,1.151110,88906,6278
1683.1,1.143825,75033,5388
1685.99,1.150761,63520,4489
1688.87,1.162591,53714,3694
1691.75,1.168108,45653,3100
1694.62,1.157380,39137,2724
1697.49,1.151484,33776,2383
1701.31,1.171339,28175,1899