File: ML/samples/unknown/Column 1_078004_20241121_164047.csv
Method:,Column 1,,
Host Date-Time:,21/11/24 @ 16:40:47,,
Header Version:,1,,
System Temp (C):,29.08,,
Detector Temp (C):,26.38,,
Humidity (%):,7.88,,
Lamp PD:,3817,,
Shift Vector Coefficients:,-10.5391,0.0761263,-0.000134223,,
Pixel to Wavelength Coefficients:,1775.68,-0.916766,-0.000235065,,
Serial Number:,5510004,,
Scan Config Name:,Column 1,,
Scan Config Type:,Slew,,
Section 1,,
Start wavelength (nm):,900,,
End wavelength (nm):,1700,,
Pattern Pixel Width (nm):,   7.03,,,,
Exposure (ms):,  0.635,,,,
Digital Resolution:,228,,
Num Repeats:,6,,
PGA Gain:,64,,
Total Measurement Time in sec:,  2.706,,
Wavelength (nm),Absorbance (AU),Reference Signal (unitless),Sample Signal (unitless)
901.51,1.283168,108485,5652
905.376,1.305948,121306,5997
909.237,1.300270,131909,6607
913.095,1.302910,143299,7134
916.948,1.292651,156982,8002
922.079,1.307197,179937,8870
925.923,1.290341,200504,10275
929.762,1.315225,222660,10775
933.597,1.312090,244426,11914
937.427,1.306580,263972,13031
941.254,1.307214,281845,13893
945.076,1.319094,297271,14258
950.165,1.315931,315605,15248
953.978,1.292624,328029,16722
957.786,1.308635,340470,16728
961.59,1.298176,352317,17732
965.389,1.313130,363056,17654
969.185,1.306325,373162,18432
972.976,1.310916,382632,18701
976.763,1.296790,391202,19752
981.806,1.305491,400190,19805
985.583,1.307134,406088,20021
989.355,1.307411,410162,20209
993.124,1.299610,412868,20711
996.888,1.306859,414263,20437
1000.65,1.309427,415476,20376
1004.4,1.311203,415479,20293
1009.41,1.310308,414358,20280
1013.15,1.298663,412923,20759
1016.89,1.309885,411526,20161
1020.63,1.308813,409066,20090
1024.36,1.303039,406777,20245
1028.09,1.305919,404427,19995
1031.82,1.304078,401911,19955
1036.78,1.308141,398410,19597
1040.49,1.305198,396204,19621
1044.2,1.305099,394236,19528
1047.91,1.304346,392042,19453
1051.61,1.310494,389823,19071
1055.31,1.307651,388234,19118
1059,1.305964,387599,19161
1063.92,1.298910,386688,19429
1067.61,1.316674,386598,18646
1071.29,1.316780,387377,18679
1074.96,1.311983,388536,18943
1078.63,1.305278,389855,19303
1082.3,1.314760,391215,18952
1085.96,1.313733,393215,19094
1090.84,1.308915,396270,19457
1094.49,1.307327,398760,19651
1098.14,1.319761,400987,19203
1101.79,1.315294,403477,19522
1105.43,1.314471,406116,19687
1109.06,1.319817,407701,19522
1112.7,1.306145,409859,20253
1117.53,1.309508,412494,20226
1121.15,1.325387,414909,19614
1124.77,1.316135,416559,20116
1128.38,1.320612,418532,20004
1131.99,1.311747,419956,20486
1135.6,1.314606,421946,20448
1139.2,1.319491,423881,20312
1143.99,1.317758,426786,20533
1147.58,1.316939,428617,20660
1151.17,1.315708,431169,20842
1154.75,1.317275,433579,20883
1158.33,1.312922,436264,21224
1161.91,1.314154,439132,21303
1165.48,1.315431,442389,21398
1169.04,1.319040,446101,21399
1173.79,1.318590,451929,21701
1177.34,1.319399,456026,21857
1180.9,1.313974,461306,22388
1184.44,1.305733,467657,23131
1187.99,1.310112,473969,23208
1191.52,1.319648,479856,22986
1195.06,1.316128,487372,23536
1199.76,1.317971,497347,23916
1203.29,1.317664,504311,24268
1206.81,1.321764,511507,24383
1210.33,1.324898,519078,24566
1213.84,1.324492,527163,24972
1217.35,1.323972,534208,25336
1220.85,1.323364,540472,25669
1225.51,1.317963,549929,26445
1229.01,1.319419,556888,26690
1232.5,1.315706,562180,27175
1235.98,1.318787,567975,27261
1239.46,1.323859,574815,27269
1242.94,1.318441,582782,27994
1246.41,1.324252,591476,28034
1251.03,1.323363,604016,28687
1254.5,1.326886,612289,28845
1257.96,1.319110,619125,29694
1261.41,1.323280,624551,29668
1264.86,1.323847,629900,29883
1268.31,1.327207,634345,29862
1271.75,1.326284,638574,30125
1276.33,1.327794,642499,30205
1279.76,1.323441,645905,30671
1283.19,1.322469,648307,30854
1286.61,1.331740,650446,30302
1290.03,1.329339,652132,30549
1293.44,1.328420,653907,30697
1296.85,1.329444,655963,30721
1301.39,1.331266,657349,30657
1304.8,1.326923,657558,30975
1308.19,1.329423,658515,30842
1311.58,1.324741,658804,31190
1314.97,1.331302,659011,30732
1318.36,1.328770,658272,30877
1321.73,1.333812,658022,30509
1326.23,1.327087,657870,30978
1329.6,1.327630,656482,30874
1332.97,1.333276,654926,30403
1336.33,1.329136,653727,30638
1339.69,1.335824,652497,30113
1343.04,1.330296,649913,30378
1346.39,1.327297,647671,30483
1349.73,1.325445,645338,30503
1354.18,1.335040,641175,29644
1357.52,1.326828,638376,30078
1360.85,1.329108,635805,29800
1364.17,1.327660,633413,29787
1367.49,1.330549,631026,29478
1370.81,1.326072,628050,29643
1374.12,1.330060,625034,29231
1378.54,1.323703,620272,29436
1381.84,1.328201,616892,28974
1385.14,1.326516,613613,28932
1388.43,1.327083,611526,28796
1391.72,1.322626,610663,29052
1395.01,1.320101,610634,29220
1398.29,1.332976,611700,28416
1402.66,1.325342,614051,29031
1405.93,1.327536,616268,28989
1409.2,1.329947,617795,28900
1412.46,1.333023,618872,28746
1415.72,1.324462,619795,29362
1418.98,1.332698,620495,28843
1422.23,1.329349,621087,29094
1426.56,1.330387,621375,29038
1429.8,1.324039,621616,29477
1433.04,1.334096,622129,28826
1436.27,1.332907,621526,28877
1439.5,1.323820,621113,29468
1442.72,1.335200,620921,28697
1445.94,1.328703,620270,29099
1450.23,1.334695,618860,28635
1453.44,1.326763,617697,29108
1456.64,1.330073,616264,28820
1459.85,1.332869,614413,28549
1463.04,1.337059,612307,28178
1466.24,1.332478,610032,28371
1469.43,1.335565,607345,28046
1473.67,1.330667,603789,28198
1476.85,1.334113,601175,27854
1480.02,1.335302,597737,27619
1483.19,1.334725,594479,27505
1486.36,1.334229,591232,27386
1489.52,1.332915,587853,27312
1492.68,1.337813,583875,26823
1496.89,1.339434,578062,26457
1500.03,1.338746,574159,26320
1503.18,1.338570,570285,26153
1506.32,1.335416,565444,26120
1509.45,1.343541,560571,25415
1512.58,1.336508,555821,25611
1515.71,1.335954,550344,25391
1519.87,1.334236,543983,25197
1522.99,1.336317,538764,24836
1526.1,1.334365,533692,24713
1529.21,1.331353,527902,24615
1532.32,1.329634,521886,24431
1535.42,1.331278,515888,24059
1538.51,1.341342,509987,23239
1541.6,1.332307,503936,23446
1545.72,1.333176,494694,22970
1548.8,1.336709,488378,22493
1551.88,1.334532,481832,22303
1554.95,1.338347,474989,21794
1558.02,1.334198,467818,21671
1561.08,1.337152,460730,21198
1564.15,1.336200,454170,20942
1568.22,1.335086,444181,20534
1571.27,1.328019,436947,20531
1574.32,1.332575,429598,19975
1577.36,1.335786,422039,19479
1580.4,1.333527,414375,19225
1583.43,1.332489,406354,18898
1586.46,1.324537,398475,18874
1590.49,1.327360,388982,18305
1593.51,1.333872,380708,17649
1596.53,1.326076,372727,17592
1599.54,1.330742,365060,17046
1602.55,1.329806,357543,16731
1605.55,1.321479,349495,16671
1608.55,1.327936,341154,16033
1612.54,1.322551,330877,15744
1615.53,1.324013,322904,15313
1618.51,1.331330,315116,14694
1621.49,1.310746,307217,15021
1624.47,1.317223,299481,14426
1627.44,1.333258,292112,13561
1630.41,1.320921,284245,13576
1634.36,1.325874,274079,12942
1637.32,1.320830,266916,12751
1640.27,1.323749,259612,12319
1643.22,1.315059,251804,12190
1646.16,1.299625,244348,12257
1649.1,1.305313,236703,11719
1652.04,1.313211,228171,11093
1655.95,1.312776,215408,10483
1658.88,1.309325,204937,10053
1661.8,1.309179,193395,9490
1664.72,1.332513,179728,8358
1667.63,1.324033,163642,7760
1670.54,1.321176,146312,6984
1673.44,1.324120,128451,6090
1677.31,1.335778,105080,4850
1680.21,1.301940,88906,4436
1683.1,1.354245,75033,3319
1685.99,1.293574,63520,3231
1688.87,1.334936,53714,2484
1691.75,1.309998,45653,2236
1694.62,1.257130,39137,2165
1697.49,1.363364,33776,1463
1701.31,1.318566,28175,1353