File: ML/samples/unknown/Column 1_078661_20241121_171605.csv
Method:,Column 1,,
Host Date-Time:,21/11/24 @ 17:16:5,,
Header Version:,1,,
System Temp (C):,34.76,,
Detector Temp (C):,35.78,,
Humidity (%):,1.86,,
Lamp PD:,3804,,
Shift Vector Coefficients:,-10.5391,0.0761263,-0.000134223,,
Pixel to Wavelength Coefficients:,1775.68,-0.916766,-0.000235065,,
Serial Number:,5510004,,
Scan Config Name:,Column 1,,
Scan Config Type:,Slew,,
Section 1,,
Start wavelength (nm):,900,,
End wavelength (nm):,1700,,
Pattern Pixel Width (nm):,   7.03,,,,
Exposure (ms):,  0.635,,,,
Digital Resolution:,228,,
Num Repeats:,6,,
PGA Gain:,64,,
Total Measurement Time in sec:,  2.726,,
Wavelength (nm),Absorbance (AU),Reference Signal (unitless),Sample Signal (unitless)
901.51,1.300090,108485,5436
905.376,1.295360,121306,6145
909.237,1.310311,131909,6456
913.095,1.319350,143299,6869
916.948,1.313325,156982,7630
922.079,1.329963,179937,8417
925.923,1.330894,200504,9359
929.762,1.318624,222660,10691
933.597,1.317408,244426,11769
937.427,1.310564,263972,12912
941.254,1.318488,281845,13537
945.076,1.313014,297271,14459
950.165,1.320887,315605,15075
953.978,1.307390,328029,16163
957.786,1.296904,340470,17186
961.59,1.296270,352317,17810
965.389,1.305861,363056,17952
969.185,1.311301,373162,18222
972.976,1.301998,382632,19089
976.763,1.302322,391202,19502
981.806,1.298401,400190,20131
985.583,1.305554,406088,20094
989.355,1.301710,410162,20476
993.124,1.299904,412868,20697
996.888,1.300865,414263,20721
1000.65,1.310922,415476,20306
1004.4,1.301929,415479,20731
1009.41,1.310865,414358,20254
1013.15,1.309080,412923,20267
1016.89,1.312110,411526,20058
1020.63,1.309051,409066,20079
1024.36,1.299131,406777,20428
1028.09,1.305463,404427,20016
1031.82,1.308827,401911,19738
1036.78,1.312551,398410,19399
1040.49,1.307372,396204,19523
1044.2,1.300673,394236,19728
1047.91,1.305867,392042,19385
1051.61,1.322617,389823,18546
1055.31,1.311943,388234,18930
1059,1.301432,387599,19362
1063.92,1.310279,386688,18927
1067.61,1.301410,386598,19313
1071.29,1.314323,387377,18785
1074.96,1.314765,388536,18822
1078.63,1.313294,389855,18950
1082.3,1.307579,391215,19268
1085.96,1.312779,393215,19136
1090.84,1.315732,396270,19154
1094.49,1.323148,398760,18948
1098.14,1.311628,400987,19566
1101.79,1.317905,403477,19405
1105.43,1.306038,406116,20073
1109.06,1.311314,407701,19908
1112.7,1.315421,409859,19825
1117.53,1.312265,412494,20098
1121.15,1.306665,414909,20478
1124.77,1.313166,416559,20254
1128.38,1.320330,418532,20017
1131.99,1.311641,419956,20491
1135.6,1.319175,421946,20234
1139.2,1.314453,423881,20549
1143.99,1.314681,426786,20679
1147.58,1.315323,428617,20737
1151.17,1.311045,431169,21067
1154.75,1.313198,433579,21080
1158.33,1.314480,436264,21148
1161.91,1.304876,439132,21763
1165.48,1.310006,442389,21667
1169.04,1.314557,446101,21621
1173.79,1.321200,451929,21571
1177.34,1.319976,456026,21828
1180.9,1.317636,461306,22200
1184.44,1.317706,467657,22502
1187.99,1.310524,473969,23186
1191.52,1.319043,479856,23018
1195.06,1.311904,487372,23766
1199.76,1.316503,497347,23997
1203.29,1.318023,504311,24248
1206.81,1.315733,511507,24724
1210.33,1.312593,519078,25272
1213.84,1.313298,527163,25624
1217.35,1.314864,534208,25873
1220.85,1.321625,540472,25772
1225.51,1.315980,549929,26566
1229.01,1.320723,556888,26610
1232.5,1.320172,562180,26897
1235.98,1.318103,567975,27304
1239.46,1.315015,574815,27830
1242.94,1.311699,582782,28432
1246.41,1.318298,591476,28421
1251.03,1.317843,604016,29054
1254.5,1.317105,612289,29502
1257.96,1.314527,619125,30009
1261.41,1.320769,624551,29840
1264.86,1.320200,629900,30135
1268.31,1.320783,634345,30307
1271.75,1.321196,638574,30480
1276.33,1.325185,642499,30387
1279.76,1.322663,645905,30726
1283.19,1.320209,648307,31015
1286.61,1.326738,650446,30653
1290.03,1.321785,652132,31085
1293.44,1.322825,653907,31095
1296.85,1.324161,655963,31097
1301.39,1.326659,657349,30984
1304.8,1.320438,657558,31441
1308.19,1.328326,658515,30920
1311.58,1.326499,658804,31064
1314.97,1.327125,659011,31029
1318.36,1.324320,658272,31195
1321.73,1.327341,658022,30967
1326.23,1.323999,657870,31199
1329.6,1.329477,656482,30743
1332.97,1.327642,654926,30800
1336.33,1.321813,653727,31159
1339.69,1.329738,652497,30538
1343.04,1.321311,649913,31013
1346.39,1.324683,647671,30667
1349.73,1.324833,645338,30546
1354.18,1.331073,641175,29916
1357.52,1.328404,638376,29969
1360.85,1.325032,635805,30081
1364.17,1.323034,633413,30106
1367.49,1.327979,631026,29653
1370.81,1.326131,628050,29639
1374.12,1.320625,625034,29873
1378.54,1.321276,620272,29601
1381.84,1.320947,616892,29462
1385.14,1.322244,613613,29218
1388.43,1.320809,611526,29215
1391.72,1.322730,610663,29045
1395.01,1.317360,610634,29405
1398.29,1.322198,611700,29130
1402.66,1.325208,614051,29040
1405.93,1.327117,616268,29017
1409.2,1.318966,617795,29640
1412.46,1.328634,618872,29038
1415.72,1.321162,619795,29586
1418.98,1.331210,620495,28942
1422.23,1.323345,621087,29499
1426.56,1.325169,621375,29389
1429.8,1.328854,621616,29152
1433.04,1.324677,622129,29458
1436.27,1.330478,621526,29039
1439.5,1.328085,621113,29180
1442.72,1.330294,620921,29023
1445.94,1.325580,620270,29309
1450.23,1.335576,618860,28577
1453.44,1.327585,617697,29053
1456.64,1.332566,616264,28655
1459.85,1.329913,614413,28744
1463.04,1.328845,612307,28716
1466.24,1.329412,610032,28572
1469.43,1.325781,607345,28685
1473.67,1.335312,603789,27898
1476.85,1.329692,601175,28139
1480.02,1.325845,597737,28227
1483.19,1.330482,594479,27775
1486.36,1.329608,591232,27679
1489.52,1.335387,587853,27157
1492.68,1.331208,583875,27234
1496.89,1.332658,578062,26873
1500.03,1.332228,574159,26718
1503.18,1.330672,570285,26633
1506.32,1.330227,565444,26434
1509.45,1.333925,560571,25984
1512.58,1.335053,555821,25697
1515.71,1.332937,550344,25568
1519.87,1.331350,543983,25365
1522.99,1.334171,538764,24959
1526.1,1.334207,533692,24722
1529.21,1.329066,527902,24745
1532.32,1.332846,521886,24251
1535.42,1.326663,515888,24316
1538.51,1.334298,509987,23619
1541.6,1.328893,503936,23631
1545.72,1.333251,494694,22966
1548.8,1.329718,488378,22858
1551.88,1.334182,481832,22321
1554.95,1.326358,474989,22404
1558.02,1.335503,467818,21606
1561.08,1.333906,460730,21357
1564.15,1.333616,454170,21067
1568.22,1.337696,444181,20411
1571.27,1.335185,436947,20195
1574.32,1.331772,429598,20012
1577.36,1.334784,422039,19524
1580.4,1.332940,414375,19251
1583.43,1.324293,406354,19258
1586.46,1.324192,398475,18889
1590.49,1.322406,388982,18515
1593.51,1.319353,380708,18249
1596.53,1.316577,372727,17981
1599.54,1.322190,365060,17385
1602.55,1.322930,357543,16998
1605.55,1.324092,349495,16571
1608.55,1.319300,341154,16355
1612.54,1.324681,330877,15667
1615.53,1.311876,322904,15747
1618.51,1.318660,315116,15129
1621.49,1.321400,307217,14657
1624.47,1.316952,299481,14435
1627.44,1.314732,292112,14152
1630.41,1.319484,284245,13621
1634.36,1.317598,274079,13191
1637.32,1.318453,266916,12821
1640.27,1.329677,259612,12152
1643.22,1.304153,251804,12500
1646.16,1.307310,244348,12042
1649.1,1.313468,236703,11501
1652.04,1.304606,228171,11315
1655.95,1.287470,215408,11112
1658.88,1.296428,204937,10356
1661.8,1.274748,193395,10273
1664.72,1.266280,179728,9735
1667.63,1.247894,163642,9247
1670.54,1.236987,146312,8478
1673.44,1.214200,128451,7844
1677.31,1.200859,105080,6617
1680.21,1.137758,88906,6474
1683.1,1.157249,75033,5224
1685.99,1.160248,63520,4392
1688.87,1.145756,53714,3840
1691.75,1.113050,45653,3519
1694.62,1.150892,39137,2765
1697.49,1.136263,33776,2468
1701.31,1.127438,28175,2101