File: ML/samples/unknown/Column 1_078462_20241121_170351.csv
Method:,Column 1,,
Host Date-Time:,21/11/24 @ 17:3:51,,
Header Version:,1,,
System Temp (C):,34.68,,
Detector Temp (C):,33.75,,
Humidity (%):,1.86,,
Lamp PD:,3802,,
Shift Vector Coefficients:,-10.5391,0.0761263,-0.000134223,,
Pixel to Wavelength Coefficients:,1775.68,-0.916766,-0.000235065,,
Serial Number:,5510004,,
Scan Config Name:,Column 1,,
Scan Config Type:,Slew,,
Section 1,,
Start wavelength (nm):,900,,
End wavelength (nm):,1700,,
Pattern Pixel Width (nm):,   7.03,,,,
Exposure (ms):,  0.635,,,,
Digital Resolution:,228,,
Num Repeats:,6,,
PGA Gain:,64,,
Total Measurement Time in sec:,  2.709,,
Wavelength (nm),Absorbance (AU),Reference Signal (unitless),Sample Signal (unitless)
901.51,1.309948,108485,5314
905.376,1.320904,121306,5794
909.237,1.341545,131909,6008
913.095,1.326939,143299,6750
916.948,1.331754,156982,7313
922.079,1.332655,179937,8365
925.923,1.345666,200504,9046
929.762,1.329774,222660,10420
933.597,1.337536,244426,11236
937.427,1.312655,263972,12850
941.254,1.314591,281845,13659
945.076,1.311395,297271,14513
950.165,1.311792,315605,15394
953.978,1.324126,328029,15552
957.786,1.314253,340470,16513
961.59,1.311178,352317,17209
965.389,1.315177,363056,17571
969.185,1.307103,373162,18399
972.976,1.311846,382632,18661
976.763,1.321769,391202,18648
981.806,1.311431,400190,19536
985.583,1.313956,406088,19709
989.355,1.307755,410162,20193
993.124,1.309644,412868,20238
996.888,1.312893,414263,20155
1000.65,1.308405,415476,20424
1004.4,1.313800,415479,20172
1009.41,1.318152,414358,19917
1013.15,1.313820,412923,20047
1016.89,1.311180,411526,20101
1020.63,1.310894,409066,19994
1024.36,1.308261,406777,20003
1028.09,1.306419,404427,19972
1031.82,1.303665,401911,19974
1036.78,1.319024,398410,19112
1040.49,1.308642,396204,19466
1044.2,1.312229,394236,19210
1047.91,1.316434,392042,18919
1051.61,1.311041,389823,19047
1055.31,1.308470,388234,19082
1059,1.313578,387599,18828
1063.92,1.315078,386688,18719
1067.61,1.314861,386598,18724
1071.29,1.315526,387377,18733
1074.96,1.315504,388536,18790
1078.63,1.305053,389855,19313
1082.3,1.317335,391215,18840
1085.96,1.318214,393215,18898
1090.84,1.313854,396270,19237
1094.49,1.314570,398760,19326
1098.14,1.318023,400987,19280
1101.79,1.319834,403477,19319
1105.43,1.316815,406116,19581
1109.06,1.310943,407701,19925
1112.7,1.322889,409859,19487
1117.53,1.310217,412494,20193
1121.15,1.315579,414909,20062
1124.77,1.321238,416559,19881
1128.38,1.321851,418532,19947
1131.99,1.321393,419956,20036
1135.6,1.323533,421946,20032
1139.2,1.320369,423881,20271
1143.99,1.307908,426786,21004
1147.58,1.316015,428617,20704
1151.17,1.323212,431169,20485
1154.75,1.324066,433579,20559
1158.33,1.320873,436264,20839
1161.91,1.316772,439132,21175
1165.48,1.311109,442389,21612
1169.04,1.311854,446101,21756
1173.79,1.319051,451929,21678
1177.34,1.305785,456026,22553
1180.9,1.316132,461306,22277
1184.44,1.311307,467657,22836
1187.99,1.322738,473969,22543
1191.52,1.327002,479856,22600
1195.06,1.315243,487372,23584
1199.76,1.316195,497347,24014
1203.29,1.326176,504311,23797
1206.81,1.324229,511507,24245
1210.33,1.321868,519078,24738
1213.84,1.321804,527163,25127
1217.35,1.322740,534208,25408
1220.85,1.319038,540472,25926
1225.51,1.321773,549929,26214
1229.01,1.326721,556888,26245
1232.5,1.323445,562180,26695
1235.98,1.320703,567975,27141
1239.46,1.319343,574815,27554
1242.94,1.321196,582782,27817
1246.41,1.312801,591476,28783
1251.03,1.319070,604016,28972
1254.5,1.320935,612289,29243
1257.96,1.327542,619125,29123
1261.41,1.331660,624551,29101
1264.86,1.326501,629900,29701
1268.31,1.328080,634345,29802
1271.75,1.332996,638574,29663
1276.33,1.318069,642499,30889
1279.76,1.331689,645905,30094
1283.19,1.324557,648307,30706
1286.61,1.331683,650446,30306
1290.03,1.326844,652132,30725
1293.44,1.325768,653907,30885
1296.85,1.333535,655963,30433
1301.39,1.333539,657349,30497
1304.8,1.329877,657558,30765
1308.19,1.328748,658515,30890
1311.58,1.323614,658804,31271
1314.97,1.331387,659011,30726
1318.36,1.329784,658272,30805
1321.73,1.335696,658022,30377
1326.23,1.330761,657870,30717
1329.6,1.333764,656482,30441
1332.97,1.335625,654926,30239
1336.33,1.328131,653727,30709
1339.69,1.327242,652497,30714
1343.04,1.326737,649913,30628
1346.39,1.329368,647671,30338
1349.73,1.331856,645338,30056
1354.18,1.327142,641175,30188
1357.52,1.328883,638376,29936
1360.85,1.331988,635805,29603
1364.17,1.330542,633413,29590
1367.49,1.327232,631026,29704
1370.81,1.328658,628050,29467
1374.12,1.326907,625034,29444
1378.54,1.325122,620272,29340
1381.84,1.326809,616892,29067
1385.14,1.326171,613613,28955
1388.43,1.328034,611526,28733
1391.72,1.322491,610663,29061
1395.01,1.345218,610634,27578
1398.29,1.327689,611700,28764
1402.66,1.331307,614051,28635
1405.93,1.329654,616268,28848
1409.2,1.332569,617795,28726
1412.46,1.327723,618872,29099
1415.72,1.329685,619795,29011
1418.98,1.335568,620495,28653
1422.23,1.341289,621087,28305
1426.56,1.329759,621375,29080
1429.8,1.335837,621616,28687
1433.04,1.332187,622129,28953
1436.27,1.334127,621526,28796
1439.5,1.334548,621113,28749
1442.72,1.336397,620921,28618
1445.94,1.332405,620270,28852
1450.23,1.337632,618860,28442
1453.44,1.340557,617697,28198
1456.64,1.342438,616264,28011
1459.85,1.337319,614413,28258
1463.04,1.332628,612307,28467
1466.24,1.336662,610032,28099
1469.43,1.335456,607345,28053
1473.67,1.342137,603789,27463
1476.85,1.335801,601175,27746
1480.02,1.334517,597737,27669
1483.19,1.343949,594479,26927
1486.36,1.340185,591232,27013
1489.52,1.335163,587853,27171
1492.68,1.331527,583875,27214
1496.89,1.336587,578062,26631
1500.03,1.339440,574159,26278
1503.18,1.335938,570285,26312
1506.32,1.339190,565444,25894
1509.45,1.337466,560571,25773
1512.58,1.338378,555821,25501
1515.71,1.336673,550344,25349
1519.87,1.340801,543983,24819
1522.99,1.332886,538764,25033
1526.1,1.332611,533692,24813
1529.21,1.330648,527902,24655
1532.32,1.344885,521886,23588
1535.42,1.336636,515888,23764
1538.51,1.329598,509987,23876
1541.6,1.337150,503936,23186
1545.72,1.330217,494694,23127
1548.8,1.332042,488378,22736
1551.88,1.334124,481832,22324
1554.95,1.334794,474989,21973
1558.02,1.341412,467818,21314
1561.08,1.333459,460730,21379
1564.15,1.336885,454170,20909
1568.22,1.348292,444181,19919
1571.27,1.331033,436947,20389
1574.32,1.334799,429598,19873
1577.36,1.339256,422039,19324
1580.4,1.329883,414375,19387
1583.43,1.338762,406354,18627
1586.46,1.337665,398475,18312
1590.49,1.333669,388982,18041
1593.51,1.339693,380708,17414
1596.53,1.326842,372727,17561
1599.54,1.336642,365060,16816
1602.55,1.323314,357543,16983
1605.55,1.335995,349495,16123
1608.55,1.314126,341154,16551
1612.54,1.324210,330877,15684
1615.53,1.326773,322904,15216
1618.51,1.318660,315116,15129
1621.49,1.328872,307217,14407
1624.47,1.338920,299481,13723
1627.44,1.331149,292112,13627
1630.41,1.324357,284245,13469
1634.36,1.309541,274079,13438
1637.32,1.311130,266916,13039
1640.27,1.316616,259612,12523
1643.22,1.322823,251804,11974
1646.16,1.316237,244348,11797
1649.1,1.311171,236703,11562
1652.04,1.303035,228171,11356
1655.95,1.327652,215408,10130
1658.88,1.291674,204937,10470
1661.8,1.288666,193395,9949
1664.72,1.284129,179728,9343
1667.63,1.255235,163642,9092
1670.54,1.232451,146312,8567
1673.44,1.224622,128451,7658
1677.31,1.232857,105080,6147
1680.21,1.204482,88906,5552
1683.1,1.164036,75033,5143
1685.99,1.155821,63520,4437
1688.87,1.179248,53714,3555
1691.75,1.185982,45653,2975
1694.62,1.173127,39137,2627
1697.49,1.124117,33776,2538
1701.31,1.125787,28175,2109