File: ML/samples/unknown/Column 1_078318_20241121_165610.csv
Method:,Column 1,,
Host Date-Time:,21/11/24 @ 16:56:10,,
Header Version:,1,,
System Temp (C):,34.71,,
Detector Temp (C):,32.84,,
Humidity (%):,2.25,,
Lamp PD:,3802,,
Shift Vector Coefficients:,-10.5391,0.0761263,-0.000134223,,
Pixel to Wavelength Coefficients:,1775.68,-0.916766,-0.000235065,,
Serial Number:,5510004,,
Scan Config Name:,Column 1,,
Scan Config Type:,Slew,,
Section 1,,
Start wavelength (nm):,900,,
End wavelength (nm):,1700,,
Pattern Pixel Width (nm):,   7.03,,,,
Exposure (ms):,  0.635,,,,
Digital Resolution:,228,,
Num Repeats:,6,,
PGA Gain:,64,,
Total Measurement Time in sec:,  2.724,,
Wavelength (nm),Absorbance (AU),Reference Signal (unitless),Sample Signal (unitless)
901.51,1.332939,108485,5040
905.376,1.309292,121306,5951
909.237,1.301257,131909,6592
913.095,1.322714,143299,6816
916.948,1.333659,156982,7281
922.079,1.328984,179937,8436
925.923,1.323760,200504,9514
929.762,1.320293,222660,10650
933.597,1.325942,244426,11540
937.427,1.333032,263972,12261
941.254,1.313543,281845,13692
945.076,1.324087,297271,14095
950.165,1.320023,315605,15105
953.978,1.309491,328029,16085
957.786,1.319305,340470,16322
961.59,1.311254,352317,17206
965.389,1.310971,363056,17742
969.185,1.312710,373162,18163
972.976,1.320212,382632,18305
976.763,1.309847,391202,19167
981.806,1.307976,400190,19692
985.583,1.305705,406088,20087
989.355,1.310322,410162,20074
993.124,1.332126,412868,19217
996.888,1.306434,414263,20457
1000.65,1.311799,415476,20265
1004.4,1.307771,415479,20454
1009.41,1.303045,414358,20622
1013.15,1.308694,412923,20285
1016.89,1.315370,411526,19908
1020.63,1.311307,409066,19975
1024.36,1.320325,406777,19455
1028.09,1.318010,404427,19446
1031.82,1.317516,401911,19347
1036.78,1.310853,398410,19475
1040.49,1.322446,396204,18857
1044.2,1.317437,394236,18981
1047.91,1.305128,392042,19418
1051.61,1.321144,389823,18609
1055.31,1.311737,388234,18939
1059,1.307759,387599,19082
1063.92,1.306259,386688,19103
1067.61,1.315441,386598,18699
1071.29,1.316943,387377,18672
1074.96,1.312901,388536,18903
1078.63,1.313271,389855,18951
1082.3,1.323136,391215,18590
1085.96,1.324277,393215,18636
1090.84,1.314328,396270,19216
1094.49,1.315830,398760,19270
1098.14,1.319739,400987,19204
1101.79,1.312832,403477,19633
1105.43,1.319797,406116,19447
1109.06,1.319439,407701,19539
1112.7,1.318278,409859,19695
1117.53,1.320445,412494,19723
1121.15,1.324148,414909,19670
1124.77,1.322814,416559,19809
1128.38,1.306577,418532,20661
1131.99,1.315729,419956,20299
1135.6,1.325619,421946,19936
1139.2,1.328238,423881,19907
1143.99,1.321710,426786,20347
1147.58,1.321312,428617,20453
1151.17,1.330006,431169,20167
1154.75,1.311737,433579,21151
1158.33,1.318524,436264,20952
1161.91,1.326856,439132,20689
1165.48,1.316875,442389,21327
1169.04,1.318512,446101,21425
1173.79,1.314190,451929,21922
1177.34,1.321610,456026,21746
1180.9,1.318949,461306,22133
1184.44,1.323966,467657,22180
1187.99,1.320260,473969,22672
1191.52,1.319402,479856,22999
1195.06,1.316423,487372,23520
1199.76,1.321343,497347,23731
1203.29,1.326962,504311,23754
1206.81,1.326997,511507,24091
1210.33,1.326297,519078,24487
1213.84,1.330339,527163,24638
1217.35,1.328712,534208,25061
1220.85,1.327632,540472,25418
1225.51,1.325885,549929,25967
1229.01,1.327284,556888,26211
1232.5,1.326073,562180,26534
1235.98,1.324997,567975,26874
1239.46,1.325950,574815,27138
1242.94,1.320993,582782,27830
1246.41,1.325214,591476,27972
1251.03,1.326356,604016,28490
1254.5,1.326901,612289,28844
1257.96,1.328513,619125,29058
1261.41,1.323646,624551,29643
1264.86,1.330614,629900,29421
1268.31,1.329496,634345,29705
1271.75,1.328148,638574,29996
1276.33,1.330375,642499,30026
1279.76,1.329946,645905,30215
1283.19,1.327766,648307,30480
1286.61,1.336539,650446,29969
1290.03,1.329339,652132,30549
1293.44,1.327078,653907,30792
1296.85,1.327385,655963,30867
1301.39,1.330898,657349,30683
1304.8,1.333008,657558,30544
1308.19,1.332305,658515,30638
1311.58,1.332354,658804,30648
1314.97,1.333938,659011,30546
1318.36,1.331819,658272,30661
1321.73,1.335124,658022,30417
1326.23,1.337042,657870,30276
1329.6,1.334835,656482,30366
1332.97,1.335496,654926,30248
1336.33,1.336527,653727,30121
1339.69,1.333480,652497,30276
1343.04,1.330253,649913,30381
1346.39,1.327297,647671,30483
1349.73,1.331740,645338,30064
1354.18,1.328829,641175,30071
1357.52,1.330773,638376,29806
1360.85,1.329706,635805,29759
1364.17,1.329867,633413,29636
1367.49,1.329064,631026,29579
1370.81,1.331097,628050,29302
1374.12,1.332160,625034,29090
1378.54,1.330619,620272,28971
1381.84,1.329868,616892,28863
1385.14,1.329695,613613,28721
1388.43,1.330413,611526,28576
1391.72,1.333662,610663,28323
1395.01,1.326117,610634,28818
1398.29,1.326182,611700,28864
1402.66,1.325283,614051,29035
1405.93,1.329353,616268,28868
1409.2,1.331527,617795,28795
1412.46,1.335675,618872,28571
1415.72,1.334563,619795,28687
1418.98,1.334841,620495,28701
1422.23,1.329439,621087,29088
1426.56,1.334520,621375,28763
1429.8,1.335943,621616,28680
1433.04,1.332862,622129,28908
1436.27,1.336001,621526,28672
1439.5,1.336789,621113,28601
1442.72,1.336230,620921,28629
1445.94,1.335835,620270,28625
1450.23,1.336367,618860,28525
1453.44,1.331821,617697,28771
1456.64,1.338610,616264,28259
1459.85,1.334974,614413,28411
1463.04,1.340106,612307,27981
1466.24,1.340574,610032,27847
1469.43,1.332755,607345,28228
1473.67,1.334348,603789,27960
1476.85,1.336020,601175,27732
1480.02,1.336247,597737,27559
1483.19,1.336909,594479,27367
1486.36,1.338596,591232,27112
1489.52,1.338323,587853,26974
1492.68,1.341014,583875,26626
1496.89,1.338057,578062,26541
1500.03,1.337346,574159,26405
1503.18,1.339784,570285,26080
1506.32,1.337316,565444,26006
1509.45,1.340866,560571,25572
1512.58,1.338020,555821,25522
1515.71,1.343303,550344,24965
1519.87,1.343170,543983,24684
1522.99,1.342162,538764,24504
1526.1,1.340881,533692,24345
1529.21,1.346762,527902,23757
1532.32,1.340944,521886,23803
1535.42,1.338486,515888,23663
1538.51,1.333324,509987,23672
1541.6,1.335448,503936,23277
1545.72,1.336078,494694,22817
1548.8,1.337636,488378,22445
1551.88,1.340216,481832,22013
1554.95,1.339284,474989,21747
1558.02,1.341493,467818,21310
1561.08,1.332688,460730,21417
1564.15,1.333121,454170,21091
1568.22,1.340513,444181,20279
1571.27,1.330969,436947,20392
1574.32,1.339854,429598,19643
1577.36,1.338672,422039,19350
1580.4,1.333731,414375,19216
1583.43,1.323257,406354,19304
1586.46,1.335796,398475,18391
1590.49,1.338876,388982,17826
1593.51,1.332717,380708,17696
1596.53,1.334275,372727,17263
1599.54,1.331150,365060,17030
1602.55,1.329417,357543,16746
1605.55,1.330561,349495,16326
1608.55,1.333854,341154,15816
1612.54,1.325152,330877,15650
1615.53,1.323956,322904,15315
1618.51,1.326247,315116,14867
1621.49,1.318889,307217,14742
1624.47,1.333323,299481,13901
1627.44,1.312100,292112,14238
1630.41,1.329221,284245,13319
1634.36,1.323231,274079,13021
1637.32,1.313636,266916,12964
1640.27,1.315958,259612,12542
1643.22,1.319211,251804,12074
1646.16,1.318526,244348,11735
1649.1,1.314489,236703,11474
1652.04,1.320515,228171,10908
1655.95,1.313606,215408,10463
1658.88,1.292296,204937,10455
1661.8,1.299987,193395,9693
1664.72,1.275432,179728,9532
1667.63,1.280762,163642,8573
1670.54,1.250250,146312,8223
1673.44,1.231021,128451,7546
1677.31,1.229409,105080,6196
1680.21,1.179111,88906,5886
1683.1,1.200759,75033,4726
1685.99,1.214303,63520,3878
1688.87,1.191514,53714,3456
1691.75,1.208605,45653,2824
1694.62,1.209670,39137,2415
1697.49,1.173924,33776,2263
1701.31,1.139596,28175,2043