File: ML/samples/unknown/Column 1_078806_20241121_172304.csv
Method:,Column 1,,
Host Date-Time:,21/11/24 @ 17:23:4,,
Header Version:,1,,
System Temp (C):,36.77,,
Detector Temp (C):,35.34,,
Humidity (%):,0.68,,
Lamp PD:,3797,,
Shift Vector Coefficients:,-10.5391,0.0761263,-0.000134223,,
Pixel to Wavelength Coefficients:,1775.68,-0.916766,-0.000235065,,
Serial Number:,5510004,,
Scan Config Name:,Column 1,,
Scan Config Type:,Slew,,
Section 1,,
Start wavelength (nm):,900,,
End wavelength (nm):,1700,,
Pattern Pixel Width (nm):,   7.03,,,,
Exposure (ms):,  0.635,,,,
Digital Resolution:,228,,
Num Repeats:,6,,
PGA Gain:,64,,
Total Measurement Time in sec:,  2.716,,
Wavelength (nm),Absorbance (AU),Reference Signal (unitless),Sample Signal (unitless)
901.51,1.321124,108485,5179
905.376,1.326334,121306,5722
909.237,1.332814,131909,6130
913.095,1.322077,143299,6826
916.948,1.314694,156982,7606
922.079,1.314355,179937,8725
925.923,1.320848,200504,9578
929.762,1.335269,222660,10289
933.597,1.311434,244426,11932
937.427,1.328171,263972,12399
941.254,1.319902,281845,13493
945.076,1.317119,297271,14323
950.165,1.313403,315605,15337
953.978,1.307552,328029,16157
957.786,1.310717,340470,16648
961.59,1.305910,352317,17419
965.389,1.310824,363056,17748
969.185,1.304749,373162,18499
972.976,1.314672,382632,18540
976.763,1.316192,391202,18889
981.806,1.305184,400190,19819
985.583,1.313956,406088,19709
989.355,1.306080,410162,20271
993.124,1.305160,412868,20448
996.888,1.301621,414263,20685
1000.65,1.301486,415476,20752
1004.4,1.301364,415479,20758
1009.41,1.306959,414358,20437
1013.15,1.306047,412923,20409
1016.89,1.302389,411526,20512
1020.63,1.303827,409066,20322
1024.36,1.309958,406777,19925
1028.09,1.300909,404427,20227
1031.82,1.307333,401911,19806
1036.78,1.316012,398410,19245
1040.49,1.315501,396204,19161
1044.2,1.301400,394236,19695
1047.91,1.303276,392042,19501
1051.61,1.293194,389823,19846
1055.31,1.312012,388234,18927
1059,1.310384,387599,18967
1063.92,1.314058,386688,18763
1067.61,1.313610,386598,18778
1071.29,1.305942,387377,19151
1074.96,1.306651,388536,19177
1078.63,1.307692,389855,19196
1082.3,1.304412,391215,19409
1085.96,1.308016,393215,19347
1090.84,1.317026,396270,19097
1094.49,1.315177,398760,19299
1098.14,1.311052,400987,19592
1101.79,1.314894,403477,19540
1105.43,1.315973,406116,19619
1109.06,1.316162,407701,19687
1112.7,1.301899,409859,20452
1117.53,1.316172,412494,19918
1121.15,1.318969,414909,19906
1124.77,1.314841,416559,20176
1128.38,1.311779,418532,20415
1131.99,1.317401,419956,20221
1135.6,1.308741,421946,20726
1139.2,1.317656,423881,20398
1143.99,1.315922,426786,20620
1147.58,1.314361,428617,20783
1151.17,1.316501,431169,20804
1154.75,1.322022,433579,20656
1158.33,1.321582,436264,20805
1161.91,1.309188,439132,21548
1165.48,1.311089,442389,21613
1169.04,1.315805,446101,21559
1173.79,1.314666,451929,21898
1177.34,1.315680,456026,22045
1180.9,1.311884,461306,22496
1184.44,1.317243,467657,22526
1187.99,1.320989,473969,22634
1191.52,1.313122,479856,23334
1195.06,1.314801,487372,23608
1199.76,1.316430,497347,24001
1203.29,1.310213,504311,24688
1206.81,1.320413,511507,24459
1210.33,1.325429,519078,24536
1213.84,1.318361,527163,25327
1217.35,1.327881,534208,25109
1220.85,1.317650,540472,26009
1225.51,1.321326,549929,26241
1229.01,1.325350,556888,26328
1232.5,1.322860,562180,26731
1235.98,1.321200,567975,27110
1239.46,1.314500,574815,27863
1242.94,1.322181,582782,27754
1246.41,1.314116,591476,28696
1251.03,1.321113,604016,28836
1254.5,1.325893,612289,28911
1257.96,1.318175,619125,29758
1261.41,1.327871,624551,29356
1264.86,1.325289,629900,29784
1268.31,1.326974,634345,29878
1271.75,1.323840,638574,30295
1276.33,1.329032,642499,30119
1279.76,1.318611,645905,31014
1283.19,1.318797,648307,31116
1286.61,1.322691,650446,30940
1290.03,1.331776,652132,30378
1293.44,1.325853,653907,30879
1296.85,1.325490,655963,31002
1301.39,1.328485,657349,30854
1304.8,1.325928,657558,31046
1308.19,1.329057,658515,30868
1311.58,1.326960,658804,31031
1314.97,1.331726,659011,30702
1318.36,1.330603,658272,30747
1321.73,1.328184,658022,30907
1326.23,1.327915,657870,30919
1329.6,1.333693,656482,30446
1332.97,1.323697,654926,31081
1336.33,1.331738,653727,30455
1339.69,1.332749,652497,30327
1343.04,1.322546,649913,30925
1346.39,1.326557,647671,30535
1349.73,1.323711,645338,30625
1354.18,1.327877,641175,30137
1357.52,1.326481,638376,30102
1360.85,1.328452,635805,29845
1364.17,1.323568,633413,30069
1367.49,1.324579,631026,29886
1370.81,1.323545,628050,29816
1374.12,1.325287,625034,29554
1378.54,1.327021,620272,29212
1381.84,1.327227,616892,29039
1385.14,1.327388,613613,28874
1388.43,1.328488,611526,28703
1391.72,1.326198,610663,28814
1395.01,1.325530,610634,28857
1398.29,1.325205,611700,28929
1402.66,1.327156,614051,28910
1405.93,1.333343,616268,28604
1409.2,1.329271,617795,28945
1412.46,1.323549,618872,29380
1415.72,1.327535,619795,29155
1418.98,1.333859,620495,28766
1422.23,1.336316,621087,28631
1426.56,1.325805,621375,29346
1429.8,1.332024,621616,28940
1433.04,1.328126,622129,29225
1436.27,1.334444,621526,28775
1439.5,1.326273,621113,29302
1442.72,1.334323,620921,28755
1445.94,1.326707,620270,29233
1450.23,1.331718,618860,28832
1453.44,1.329938,617697,28896
1456.64,1.328974,616264,28893
1459.85,1.337688,614413,28234
1463.04,1.324182,612307,29026
1466.24,1.329670,610032,28555
1469.43,1.337862,607345,27898
1473.67,1.336325,603789,27833
1476.85,1.333989,601175,27862
1480.02,1.338680,597737,27405
1483.19,1.333401,594479,27589
1486.36,1.329513,591232,27685
1489.52,1.332836,587853,27317
1492.68,1.333816,583875,27071
1496.89,1.329005,578062,27100
1500.03,1.334151,574159,26600
1503.18,1.353779,570285,25253
1506.32,1.333773,565444,26219
1509.45,1.331126,560571,26152
1512.58,1.336661,555821,25602
1515.71,1.337857,550344,25280
1519.87,1.328330,543983,25542
1522.99,1.333528,538764,24996
1526.1,1.325959,533692,25196
1529.21,1.328154,527902,24797
1532.32,1.328906,521886,24472
1535.42,1.331567,515888,24043
1538.51,1.332115,509987,23738
1541.6,1.333234,503936,23396
1545.72,1.328026,494694,23244
1548.8,1.337636,488378,22445
1551.88,1.328806,481832,22599
1554.95,1.328515,474989,22293
1558.02,1.336670,467818,21548
1561.08,1.332972,460730,21403
1564.15,1.328207,454170,21331
1568.22,1.323792,444181,21075
1571.27,1.328844,436947,20492
1574.32,1.327646,429598,20203
1577.36,1.323889,422039,20020
1580.4,1.330421,414375,19363
1583.43,1.324361,406354,19255
1586.46,1.326544,398475,18787
1590.49,1.334971,388982,17987
1593.51,1.326261,380708,17961
1596.53,1.326323,372727,17582
1599.54,1.329114,365060,17110
1602.55,1.319419,357543,17136
1605.55,1.318442,349495,16788
1608.55,1.326286,341154,16094
1612.54,1.325986,330877,15620
1615.53,1.325547,322904,15259
1618.51,1.319609,315116,15096
1621.49,1.321282,307217,14661
1624.47,1.316892,299481,14437
1627.44,1.304811,292112,14479
1630.41,1.301068,284245,14211
1634.36,1.318389,274079,13167
1637.32,1.306954,266916,13165
1640.27,1.305658,259612,12843
1643.22,1.307256,251804,12411
1646.16,1.300050,244348,12245
1649.1,1.310833,236703,11571
1652.04,1.290966,228171,11676
1655.95,1.299557,215408,10807
1658.88,1.288903,204937,10537
1661.8,1.285838,193395,10014
1664.72,1.278541,179728,9464
1667.63,1.245365,163642,9301
1670.54,1.239710,146312,8425
1673.44,1.246010,128451,7290
1677.31,1.186083,105080,6846
1680.21,1.157521,88906,6186
1683.1,1.154019,75033,5263
1685.99,1.116542,63520,4857
1688.87,1.160597,53714,3711
1691.75,1.129911,45653,3385
1694.62,1.169998,39137,2646
1697.49,1.152214,33776,2379
1701.31,1.170197,28175,1904