File: ML/samples/unknown/Column 1_078818_20241121_172339.csv
Method:,Column 1,,
Host Date-Time:,21/11/24 @ 17:23:39,,
Header Version:,1,,
System Temp (C):,37.02,,
Detector Temp (C):,35.45,,
Humidity (%):,0.98,,
Lamp PD:,3797,,
Shift Vector Coefficients:,-10.5391,0.0761263,-0.000134223,,
Pixel to Wavelength Coefficients:,1775.68,-0.916766,-0.000235065,,
Serial Number:,5510004,,
Scan Config Name:,Column 1,,
Scan Config Type:,Slew,,
Section 1,,
Start wavelength (nm):,900,,
End wavelength (nm):,1700,,
Pattern Pixel Width (nm):,   7.03,,,,
Exposure (ms):,  0.635,,,,
Digital Resolution:,228,,
Num Repeats:,6,,
PGA Gain:,64,,
Total Measurement Time in sec:,  2.727,,
Wavelength (nm),Absorbance (AU),Reference Signal (unitless),Sample Signal (unitless)
901.51,1.329164,108485,5084
905.376,1.312736,121306,5904
909.237,1.320039,131909,6313
913.095,1.332313,143299,6667
916.948,1.341180,156982,7156
922.079,1.326059,179937,8493
925.923,1.332567,200504,9323
929.762,1.313616,222660,10815
933.597,1.324589,244426,11576
937.427,1.327716,263972,12412
941.254,1.333170,281845,13087
945.076,1.312504,297271,14476
950.165,1.316644,315605,15223
953.978,1.313233,328029,15947
957.786,1.316309,340470,16435
961.59,1.315949,352317,17021
965.389,1.318104,363056,17453
969.185,1.321941,373162,17781
972.976,1.321067,382632,18269
976.763,1.302612,391202,19489
981.806,1.314151,400190,19414
985.583,1.304022,406088,20165
989.355,1.313143,410162,19944
993.124,1.307888,412868,20320
996.888,1.311946,414263,20199
1000.65,1.313948,415476,20165
1004.4,1.303587,415479,20652
1009.41,1.308982,414358,20342
1013.15,1.304009,412923,20505
1016.89,1.303577,411526,20456
1020.63,1.303784,409066,20324
1024.36,1.302503,406777,20270
1028.09,1.311977,404427,19718
1031.82,1.302384,401911,20033
1036.78,1.309806,398410,19522
1040.49,1.303298,396204,19707
1044.2,1.300717,394236,19726
1047.91,1.310824,392042,19165
1051.61,1.314865,389823,18880
1055.31,1.301247,388234,19402
1059,1.317215,387599,18671
1063.92,1.306123,386688,19109
1067.61,1.316185,386598,18667
1071.29,1.318434,387377,18608
1074.96,1.318589,388536,18657
1078.63,1.320714,389855,18629
1082.3,1.314600,391215,18959
1085.96,1.304440,393215,19507
1090.84,1.316367,396270,19126
1094.49,1.319542,398760,19106
1098.14,1.317843,400987,19288
1101.79,1.317614,403477,19418
1105.43,1.311240,406116,19834
1109.06,1.316847,407701,19656
1112.7,1.318587,409859,19681
1117.53,1.321348,412494,19682
1121.15,1.312731,414909,20194
1124.77,1.326358,416559,19648
1128.38,1.319549,418532,20053
1131.99,1.309969,419956,20570
1135.6,1.317697,421946,20303
1139.2,1.314961,423881,20525
1143.99,1.323528,426786,20262
1147.58,1.321886,428617,20426
1151.17,1.310447,431169,21096
1154.75,1.315656,433579,20961
1158.33,1.319312,436264,20914
1161.91,1.314215,439132,21300
1165.48,1.304528,442389,21942
1169.04,1.320768,446101,21314
1173.79,1.311780,451929,22044
1177.34,1.310821,456026,22293
1180.9,1.321507,461306,22003
1184.44,1.314706,467657,22658
1187.99,1.313494,473969,23028
1191.52,1.313513,479856,23313
1195.06,1.317255,487372,23475
1199.76,1.314336,497347,24117
1203.29,1.323774,504311,23929
1206.81,1.321213,511507,24414
1210.33,1.323433,519078,24649
1213.84,1.321493,527163,25145
1217.35,1.320609,534208,25533
1220.85,1.323026,540472,25689
1225.51,1.324632,549929,26042
1229.01,1.327831,556888,26178
1232.5,1.316986,562180,27095
1235.98,1.319393,567975,27223
1239.46,1.319186,574815,27564
1242.94,1.322964,582782,27704
1246.41,1.319062,591476,28371
1251.03,1.325214,604016,28565
1254.5,1.320801,612289,29252
1257.96,1.322944,619125,29433
1261.41,1.325584,624551,29511
1264.86,1.324153,629900,29862
1268.31,1.325711,634345,29965
1271.75,1.324543,638574,30246
1276.33,1.327118,642499,30252
1279.76,1.324277,645905,30612
1283.19,1.324317,648307,30723
1286.61,1.325352,650446,30751
1290.03,1.329609,652132,30530
1293.44,1.324112,653907,31003
1296.85,1.322474,655963,31218
1301.39,1.324673,657349,31126
1304.8,1.323835,657558,31196
1308.19,1.324258,658515,31211
1311.58,1.324156,658804,31232
1314.97,1.324488,659011,31218
1318.36,1.328152,658272,30921
1321.73,1.332562,658022,30597
1326.23,1.328041,657870,30910
1329.6,1.326548,656482,30951
1332.97,1.326867,654926,30855
1336.33,1.323727,653727,31022
1339.69,1.330777,652497,30465
1343.04,1.333914,649913,30126
1346.39,1.328838,647671,30375
1349.73,1.328316,645338,30302
1354.18,1.323846,641175,30418
1357.52,1.322732,638376,30363
1360.85,1.329458,635805,29776
1364.17,1.328536,633413,29727
1367.49,1.331109,631026,29440
1370.81,1.324522,628050,29749
1374.12,1.327911,625034,29376
1378.54,1.325744,620272,29298
1381.84,1.321301,616892,29438
1385.14,1.324689,613613,29054
1388.43,1.325923,611526,28873
1391.72,1.320107,610663,29221
1395.01,1.326223,610634,28811
1398.29,1.327840,611700,28754
1402.66,1.330080,614051,28716
1405.93,1.328451,616268,28928
1409.2,1.328686,617795,28984
1412.46,1.329682,618872,28968
1415.72,1.332358,619795,28833
1418.98,1.329861,620495,29032
1422.23,1.325766,621087,29335
1426.56,1.328462,621375,29167
1429.8,1.328973,621616,29144
1433.04,1.331467,622129,29001
1436.27,1.332847,621526,28881
1439.5,1.329173,621113,29107
1442.72,1.329009,620921,29109
1445.94,1.339308,620270,28397
1450.23,1.331462,618860,28849
1453.44,1.332243,617697,28743
1456.64,1.332385,616264,28667
1459.85,1.328706,614413,28824
1463.04,1.330224,612307,28625
1466.24,1.329899,610032,28540
1469.43,1.328484,607345,28507
1473.67,1.327659,603789,28394
1476.85,1.334316,601175,27841
1480.02,1.334956,597737,27641
1483.19,1.332394,594479,27653
1486.36,1.333976,591232,27402
1489.52,1.332280,587853,27352
1492.68,1.332502,583875,27153
1496.89,1.336359,578062,26645
1500.03,1.335410,574159,26523
1503.18,1.343430,570285,25862
1506.32,1.335117,565444,26138
1509.45,1.331308,560571,26141
1512.58,1.333147,555821,25810
1515.71,1.333668,550344,25525
1519.87,1.325855,543983,25688
1522.99,1.342286,538764,24497
1526.1,1.327980,533692,25079
1529.21,1.330015,527902,24691
1532.32,1.333007,521886,24242
1535.42,1.330268,515888,24115
1538.51,1.329379,509987,23888
1541.6,1.332677,503936,23426
1545.72,1.335869,494694,22828
1548.8,1.335051,488378,22579
1551.88,1.334766,481832,22291
1554.95,1.328749,474989,22281
1558.02,1.336146,467818,21574
1561.08,1.328169,460730,21641
1564.15,1.325366,454170,21471
1568.22,1.329267,444181,20811
1571.27,1.320553,436947,20887
1574.32,1.334668,429598,19879
1577.36,1.342844,422039,19165
1580.4,1.336224,414375,19106
1583.43,1.335487,406354,18768
1586.46,1.331566,398475,18571
1590.49,1.328167,388982,18271
1593.51,1.324476,380708,18035
1596.53,1.323025,372727,17716
1599.54,1.322689,365060,17365
1602.55,1.332671,357543,16621
1605.55,1.324774,349495,16545
1608.55,1.321003,341154,16291
1612.54,1.325208,330877,15648
1615.53,1.330355,322904,15091
1618.51,1.325751,315116,14884
1621.49,1.312833,307217,14949
1624.47,1.316682,299481,14444
1627.44,1.319483,292112,13998
1630.41,1.320441,284245,13591
1634.36,1.320074,274079,13116
1637.32,1.312866,266916,12987
1640.27,1.331647,259612,12097
1643.22,1.332283,251804,11716
1646.16,1.307779,244348,12029
1649.1,1.316690,236703,11416
1652.04,1.322711,228171,10853
1655.95,1.300724,215408,10778
1658.88,1.285373,204937,10623
1661.8,1.273482,193395,10303
1664.72,1.271531,179728,9618
1667.63,1.241507,163642,9384
1670.54,1.246987,146312,8285
1673.44,1.217312,128451,7788
1677.31,1.189650,105080,6790
1680.21,1.148558,88906,6315
1683.1,1.144228,75033,5383
1685.99,1.166423,63520,4330
1688.87,1.149847,53714,3804
1691.75,1.111695,45653,3530
1694.62,1.103896,39137,3081
1697.49,1.200637,33776,2128
1701.31,1.193627,28175,1804