File: ML/samples/unknown/Column 1_078488_20241121_170508.csv
Method:,Column 1,,
Host Date-Time:,21/11/24 @ 17:5:8,,
Header Version:,1,,
System Temp (C):,34.83,,
Detector Temp (C):,33.8,,
Humidity (%):,2.05,,
Lamp PD:,3800,,
Shift Vector Coefficients:,-10.5391,0.0761263,-0.000134223,,
Pixel to Wavelength Coefficients:,1775.68,-0.916766,-0.000235065,,
Serial Number:,5510004,,
Scan Config Name:,Column 1,,
Scan Config Type:,Slew,,
Section 1,,
Start wavelength (nm):,900,,
End wavelength (nm):,1700,,
Pattern Pixel Width (nm):,   7.03,,,,
Exposure (ms):,  0.635,,,,
Digital Resolution:,228,,
Num Repeats:,6,,
PGA Gain:,64,,
Total Measurement Time in sec:,  2.724,,
Wavelength (nm),Absorbance (AU),Reference Signal (unitless),Sample Signal (unitless)
901.51,1.331477,108485,5057
905.376,1.292613,121306,6184
909.237,1.311389,131909,6440
913.095,1.304801,143299,7103
916.948,1.325563,156982,7418
922.079,1.316001,179937,8692
925.923,1.341129,200504,9141
929.762,1.317366,222660,10722
933.597,1.321859,244426,11649
937.427,1.309020,263972,12958
941.254,1.321159,281845,13454
945.076,1.322857,297271,14135
950.165,1.307441,315605,15549
953.978,1.321675,328029,15640
957.786,1.317500,340470,16390
961.59,1.313937,352317,17100
965.389,1.312934,363056,17662
969.185,1.301498,373162,18638
972.976,1.315797,382632,18492
976.763,1.317620,391202,18827
981.806,1.315495,400190,19354
985.583,1.306333,406088,20058
989.355,1.306852,410162,20235
993.124,1.310847,412868,20182
996.888,1.315227,414263,20047
1000.65,1.309427,415476,20376
1004.4,1.301971,415479,20729
1009.41,1.312885,414358,20160
1013.15,1.310088,412923,20220
1016.89,1.319799,411526,19706
1020.63,1.311372,409066,19972
1024.36,1.313482,406777,19764
1028.09,1.310109,404427,19803
1031.82,1.306304,401911,19853
1036.78,1.314031,398410,19333
1040.49,1.311732,396204,19328
1044.2,1.322084,394236,18779
1047.91,1.303409,392042,19495
1051.61,1.310312,389823,19079
1055.31,1.309929,388234,19018
1059,1.311370,387599,18924
1063.92,1.314244,386688,18755
1067.61,1.311258,386598,18880
1071.29,1.320212,387377,18532
1074.96,1.317149,388536,18719
1078.63,1.321297,389855,18604
1082.3,1.327763,391215,18393
1085.96,1.319042,393215,18862
1090.84,1.316049,396270,19140
1094.49,1.323034,398760,18953
1098.14,1.319603,400987,19210
1101.79,1.315117,403477,19530
1105.43,1.301047,406116,20305
1109.06,1.315171,407701,19732
1112.7,1.319471,409859,19641
1117.53,1.319763,412494,19754
1121.15,1.305733,414909,20522
1124.77,1.317108,416559,20071
1128.38,1.317303,418532,20157
1131.99,1.319101,419956,20142
1135.6,1.311854,421946,20578
1139.2,1.329812,423881,19835
1143.99,1.319687,426786,20442
1147.58,1.322035,428617,20419
1151.17,1.315646,431169,20845
1154.75,1.311347,433579,21170
1158.33,1.311737,436264,21282
1161.91,1.324281,439132,20812
1165.48,1.320843,442389,21133
1169.04,1.319547,446101,21374
1173.79,1.318450,451929,21708
1177.34,1.316646,456026,21996
1180.9,1.320955,461306,22031
1184.44,1.315396,467657,22622
1187.99,1.321373,473969,22614
1191.52,1.321826,479856,22871
1195.06,1.324004,487372,23113
1199.76,1.323711,497347,23602
1203.29,1.323919,504311,23921
1206.81,1.322085,511507,24365
1210.33,1.326954,519078,24450
1213.84,1.327108,527163,24822
1217.35,1.326138,534208,25210
1220.85,1.324788,540472,25585
1225.51,1.326789,549929,25913
1229.01,1.331279,556888,25971
1232.5,1.327598,562180,26441
1235.98,1.327119,567975,26743
1239.46,1.327377,574815,27049
1242.94,1.321821,582782,27777
1246.41,1.324252,591476,28034
1251.03,1.317290,604016,29091
1254.5,1.320890,612289,29246
1257.96,1.322516,619125,29462
1261.41,1.325893,624551,29490
1264.86,1.322295,629900,29990
1268.31,1.328795,634345,29753
1271.75,1.328959,638574,29940
1276.33,1.332870,642499,29854
1279.76,1.329601,645905,30239
1283.19,1.328022,648307,30462
1286.61,1.323281,650446,30898
1290.03,1.328415,652132,30614
1293.44,1.332071,653907,30440
1296.85,1.332864,655963,30480
1301.39,1.331706,657349,30626
1304.8,1.322362,657558,31302
1308.19,1.331031,658515,30728
1311.58,1.328432,658804,30926
1314.97,1.335405,659011,30443
1318.36,1.334276,658272,30488
1321.73,1.335781,658022,30371
1326.23,1.337286,657870,30259
1329.6,1.336296,656482,30264
1332.97,1.331593,654926,30521
1336.33,1.336484,653727,30124
1339.69,1.336200,652497,30087
1343.04,1.336589,649913,29941
1346.39,1.333120,647671,30077
1349.73,1.330514,645338,30149
1354.18,1.332382,641175,29826
1357.52,1.322617,638376,30371
1360.85,1.329166,635805,29796
1364.17,1.327835,633413,29775
1367.49,1.330078,631026,29510
1370.81,1.330608,628050,29335
1374.12,1.338067,625034,28697
1378.54,1.331744,620272,28896
1381.84,1.331692,616892,28742
1385.14,1.331741,613613,28586
1388.43,1.326224,611526,28853
1391.72,1.326862,610663,28770
1395.01,1.323233,610634,29010
1398.29,1.327901,611700,28750
1402.66,1.331080,614051,28650
1405.93,1.331676,616268,28714
1409.2,1.325045,617795,29228
1412.46,1.334795,618872,28629
1415.72,1.333248,619795,28774
1418.98,1.338290,620495,28474
1422.23,1.331534,621087,28948
1426.56,1.333931,621375,28802
1429.8,1.336155,621616,28666
1433.04,1.331003,622129,29032
1436.27,1.334897,621526,28745
1439.5,1.332634,621113,28876
1442.72,1.336139,620921,28635
1445.94,1.335441,620270,28651
1450.23,1.337235,618860,28468
1453.44,1.335641,617697,28519
1456.64,1.336663,616264,28386
1459.85,1.336659,614413,28301
1463.04,1.335843,612307,28257
1466.24,1.340512,610032,27851
1469.43,1.340768,607345,27712
1473.67,1.341868,603789,27480
1476.85,1.338564,601175,27570
1480.02,1.338902,597737,27391
1483.19,1.336989,594479,27362
1486.36,1.343364,591232,26816
1489.52,1.337696,587853,27013
1492.68,1.335697,583875,26954
1496.89,1.337354,578062,26584
1500.03,1.339440,574159,26278
1503.18,1.340184,570285,26056
1506.32,1.339274,565444,25889
1509.45,1.343575,560571,25413
1512.58,1.339999,555821,25406
1515.71,1.335783,550344,25401
1519.87,1.339386,543983,24900
1522.99,1.334624,538764,24933
1526.1,1.343260,533692,24212
1529.21,1.334505,527902,24437
1532.32,1.346637,521886,23493
1535.42,1.331404,515888,24052
1538.51,1.332774,509987,23702
1541.6,1.340402,503936,23013
1545.72,1.333497,494694,22953
1548.8,1.344403,488378,22098
1551.88,1.334591,481832,22300
1554.95,1.348896,474989,21271
1558.02,1.333557,467818,21703
1561.08,1.340380,460730,21041
1564.15,1.334482,454170,21025
1568.22,1.331003,444181,20728
1571.27,1.338618,436947,20036
1574.32,1.329780,429598,20104
1577.36,1.334895,422039,19519
1580.4,1.335429,414375,19141
1583.43,1.342344,406354,18474
1586.46,1.333112,398475,18505
1590.49,1.335865,388982,17950
1593.51,1.337604,380708,17498
1596.53,1.330717,372727,17405
1599.54,1.332887,365060,16962
1602.55,1.332671,357543,16621
1605.55,1.330322,349495,16335
1608.55,1.337134,341154,15697
1612.54,1.331836,330877,15411
1615.53,1.327744,322904,15182
1618.51,1.321367,315116,15035
1621.49,1.334821,307217,14211
1624.47,1.313566,299481,14548
1627.44,1.329083,292112,13692
1630.41,1.322299,284245,13533
1634.36,1.327017,274079,12908
1637.32,1.314541,266916,12937
1640.27,1.321990,259612,12369
1643.22,1.318780,251804,12086
1646.16,1.314730,244348,11838
1649.1,1.315664,236703,11443
1652.04,1.317856,228171,10975
1655.95,1.318280,215408,10351
1658.88,1.298404,204937,10309
1661.8,1.286315,193395,10003
1664.72,1.272888,179728,9588
1667.63,1.271391,163642,8760
1670.54,1.260727,146312,8027
1673.44,1.239682,128451,7397
1677.31,1.208941,105080,6495
1680.21,1.232093,88906,5210
1683.1,1.178634,75033,4973
1685.99,1.189703,63520,4104
1688.87,1.132831,53714,3956
1691.75,1.199474,45653,2884
1694.62,1.133950,39137,2875
1697.49,1.173348,33776,2266
1701.31,1.224813,28175,1679