File: ML/samples/unknown/Column 1_078743_20241121_172003.csv
Method:,Column 1,,
Host Date-Time:,21/11/24 @ 17:20:3,,
Header Version:,1,,
System Temp (C):,36.34,,
Detector Temp (C):,34.65,,
Humidity (%):,0.98,,
Lamp PD:,3799,,
Shift Vector Coefficients:,-10.5391,0.0761263,-0.000134223,,
Pixel to Wavelength Coefficients:,1775.68,-0.916766,-0.000235065,,
Serial Number:,5510004,,
Scan Config Name:,Column 1,,
Scan Config Type:,Slew,,
Section 1,,
Start wavelength (nm):,900,,
End wavelength (nm):,1700,,
Pattern Pixel Width (nm):,   7.03,,,,
Exposure (ms):,  0.635,,,,
Digital Resolution:,228,,
Num Repeats:,6,,
PGA Gain:,64,,
Total Measurement Time in sec:,  2.725,,
Wavelength (nm),Absorbance (AU),Reference Signal (unitless),Sample Signal (unitless)
901.51,1.295323,108485,5496
905.376,1.320679,121306,5797
909.237,1.325577,131909,6233
913.095,1.338744,143299,6569
916.948,1.318479,156982,7540
922.079,1.333694,179937,8345
925.923,1.323486,200504,9520
929.762,1.322541,222660,10595
933.597,1.313514,244426,11875
937.427,1.320774,263972,12612
941.254,1.326028,281845,13304
945.076,1.312864,297271,14464
950.165,1.308308,315605,15518
953.978,1.300063,328029,16438
957.786,1.312337,340470,16586
961.59,1.306909,352317,17379
965.389,1.318153,363056,17451
969.185,1.305242,373162,18478
972.976,1.296415,382632,19336
976.763,1.311663,391202,19087
981.806,1.308351,400190,19675
985.583,1.299331,406088,20384
989.355,1.301944,410162,20465
993.124,1.303042,412868,20548
996.888,1.297858,414263,20865
1000.65,1.301821,415476,20736
1004.4,1.303566,415479,20653
1009.41,1.295798,414358,20969
1013.15,1.303671,412923,20521
1016.89,1.304533,411526,20411
1020.63,1.306442,409066,20200
1024.36,1.311312,406777,19863
1028.09,1.309561,404427,19828
1031.82,1.308673,401911,19745
1036.78,1.308562,398410,19578
1040.49,1.310005,396204,19405
1044.2,1.307216,394236,19433
1047.91,1.305039,392042,19422
1051.61,1.306685,389823,19239
1055.31,1.309906,388234,19019
1059,1.306010,387599,19159
1063.92,1.304557,386688,19178
1067.61,1.313518,386598,18782
1071.29,1.298545,387377,19480
1074.96,1.304144,388536,19288
1078.63,1.316653,389855,18804
1082.3,1.313525,391215,19006
1085.96,1.318421,393215,18889
1090.84,1.307734,396270,19510
1094.49,1.312462,398760,19420
1098.14,1.302491,400987,19982
1101.79,1.320892,403477,19272
1105.43,1.318237,406116,19517
1109.06,1.309812,407701,19977
1112.7,1.305845,409859,20267
1117.53,1.306491,412494,20367
1121.15,1.315254,414909,20077
1124.77,1.307457,416559,20522
1128.38,1.320330,418532,20017
1131.99,1.314469,419956,20358
1135.6,1.319884,421946,20201
1139.2,1.312345,423881,20649
1143.99,1.310334,426786,20887
1147.58,1.304384,428617,21266
1151.17,1.314086,431169,20920
1154.75,1.314518,433579,21016
1158.33,1.311798,436264,21279
1161.91,1.321577,439132,20942
1165.48,1.313790,442389,21479
1169.04,1.310340,446101,21832
1173.79,1.316196,451929,21821
1177.34,1.310393,456026,22315
1180.9,1.320167,461306,22071
1184.44,1.318595,467657,22456
1187.99,1.317644,473969,22809
1191.52,1.321845,479856,22870
1195.06,1.320672,487372,23291
1199.76,1.320375,497347,23784
1203.29,1.319242,504311,24180
1206.81,1.319845,511507,24491
1210.33,1.323204,519078,24662
1213.84,1.321027,527163,25172
1217.35,1.316647,534208,25767
1220.85,1.322097,540472,25744
1225.51,1.319658,549929,26342
1229.01,1.313167,556888,27077
1232.5,1.317933,562180,27036
1235.98,1.320895,567975,27129
1239.46,1.320022,574815,27511
1242.94,1.323136,582782,27693
1246.41,1.317458,591476,28476
1251.03,1.313544,604016,29343
1254.5,1.322765,612289,29120
1257.96,1.327408,619125,29132
1261.41,1.325407,624551,29523
1264.86,1.319567,629900,30179
1268.31,1.321127,634345,30283
1271.75,1.319930,638574,30569
1276.33,1.328787,642499,30136
1279.76,1.323143,645905,30692
1283.19,1.324741,648307,30693
1286.61,1.326894,650446,30642
1290.03,1.330420,652132,30473
1293.44,1.325614,653907,30896
1296.85,1.324426,655963,31078
1301.39,1.328077,657349,30883
1304.8,1.324044,657558,31181
1308.19,1.328130,658515,30934
1311.58,1.330248,658804,30797
1314.97,1.321922,659011,31403
1318.36,1.328700,658272,30882
1321.73,1.325271,658022,31115
1326.23,1.335152,657870,30408
1329.6,1.328207,656482,30833
1332.97,1.326740,654926,30864
1336.33,1.327467,653727,30756
1339.69,1.329226,652497,30574
1343.04,1.327389,649913,30582
1346.39,1.329554,647671,30325
1349.73,1.325630,645338,30490
1354.18,1.329797,641175,30004
1357.52,1.328955,638376,29931
1360.85,1.326101,635805,30007
1364.17,1.325276,633413,29951
1367.49,1.323056,631026,29991
1370.81,1.329160,628050,29433
1374.12,1.322913,625034,29716
1378.54,1.324634,620272,29373
1381.84,1.319608,616892,29553
1385.14,1.322437,613613,29205
1388.43,1.314185,611526,29664
1391.72,1.321133,610663,29152
1395.01,1.325560,610634,28855
1398.29,1.320398,611700,29251
1402.66,1.319857,614051,29400
1405.93,1.328782,616268,28906
1409.2,1.321229,617795,29486
1412.46,1.323047,618872,29414
1415.72,1.328027,619795,29122
1418.98,1.325145,620495,29349
1422.23,1.327398,621087,29225
1426.56,1.325953,621375,29336
1429.8,1.324983,621616,29413
1433.04,1.330794,622129,29046
1436.27,1.331391,621526,28978
1439.5,1.324690,621113,29409
1442.72,1.333101,620921,28836
1445.94,1.329794,620270,29026
1450.23,1.331914,618860,28819
1453.44,1.331911,617697,28765
1456.64,1.331386,616264,28733
1459.85,1.332170,614413,28595
1463.04,1.331957,612307,28511
1466.24,1.326518,610032,28763
1469.43,1.335967,607345,28020
1473.67,1.326178,603789,28491
1476.85,1.328967,601175,28186
1480.02,1.329213,597737,28009
1483.19,1.331876,594479,27686
1486.36,1.326714,591232,27864
1489.52,1.326773,587853,27701
1492.68,1.332294,583875,27166
1496.89,1.332287,578062,26896
1500.03,1.332749,574159,26686
1503.18,1.329304,570285,26717
1506.32,1.331131,565444,26379
1509.45,1.331757,560571,26114
1512.58,1.325756,555821,26253
1515.71,1.334111,550344,25499
1519.87,1.338097,543983,24974
1522.99,1.335286,538764,24895
1526.1,1.331737,533692,24863
1529.21,1.333618,527902,24487
1532.32,1.324580,521886,24717
1535.42,1.333304,515888,23947
1538.51,1.329470,509987,23883
1541.6,1.329961,503936,23573
1545.72,1.330800,494694,23096
1548.8,1.334763,488378,22594
1551.88,1.327061,481832,22690
1554.95,1.335071,474989,21959
1558.02,1.339988,467818,21384
1561.08,1.322527,460730,21924
1564.15,1.327251,454170,21378
1568.22,1.335573,444181,20511
1571.27,1.329438,436947,20464
1574.32,1.338993,429598,19682
1577.36,1.331659,422039,19665
1580.4,1.323016,414375,19696
1583.43,1.325355,406354,19211
1586.46,1.331145,398475,18589
1590.49,1.326886,388982,18325
1593.51,1.331369,380708,17751
1596.53,1.324868,372727,17641
1599.54,1.330283,365060,17064
1602.55,1.323723,357543,16967
1605.55,1.317073,349495,16841
1608.55,1.319672,341154,16341
1612.54,1.328076,330877,15545
1615.53,1.319359,322904,15478
1618.51,1.318259,315116,15143
1621.49,1.325628,307217,14515
1624.47,1.314163,299481,14528
1627.44,1.310456,292112,14292
1630.41,1.324971,284245,13450
1634.36,1.310674,274079,13403
1637.32,1.316223,266916,12887
1640.27,1.313920,259612,12601
1643.22,1.296576,251804,12720
1646.16,1.307671,244348,12032
1649.1,1.307170,236703,11669
1652.04,1.303954,228171,11332
1655.95,1.293055,215408,10970
1658.88,1.288697,204937,10542
1661.8,1.286185,193395,10006
1664.72,1.289461,179728,9229
1667.63,1.251952,163642,9161
1670.54,1.230883,146312,8598
1673.44,1.207388,128451,7968
1677.31,1.178911,105080,6960
1680.21,1.159703,88906,6155
1683.1,1.136234,75033,5483
1685.99,1.185176,63520,4147
1688.87,1.143613,53714,3859
1691.75,1.114534,45653,3507
1694.62,1.111002,39137,3031
1697.49,1.127898,33776,2516
1701.31,1.113004,28175,2172