File: ML/samples/unknown/Column 1_078013_20241121_164113.csv
Method:,Column 1,,
Host Date-Time:,21/11/24 @ 16:41:13,,
Header Version:,1,,
System Temp (C):,29.48,,
Detector Temp (C):,24.78,,
Humidity (%):,7.11,,
Lamp PD:,3815,,
Shift Vector Coefficients:,-10.5391,0.0761263,-0.000134223,,
Pixel to Wavelength Coefficients:,1775.68,-0.916766,-0.000235065,,
Serial Number:,5510004,,
Scan Config Name:,Column 1,,
Scan Config Type:,Slew,,
Section 1,,
Start wavelength (nm):,900,,
End wavelength (nm):,1700,,
Pattern Pixel Width (nm):,   7.03,,,,
Exposure (ms):,  0.635,,,,
Digital Resolution:,228,,
Num Repeats:,6,,
PGA Gain:,64,,
Total Measurement Time in sec:,  2.706,,
Wavelength (nm),Absorbance (AU),Reference Signal (unitless),Sample Signal (unitless)
901.51,1.334579,108485,5021
905.376,1.303061,121306,6037
909.237,1.397229,131909,5285
913.095,1.302302,143299,7144
916.948,1.315322,156982,7595
922.079,1.303395,179937,8948
925.923,1.306225,200504,9906
929.762,1.294718,222660,11296
933.597,1.301361,244426,12212
937.427,1.321256,263972,12598
941.254,1.314369,281845,13666
945.076,1.304154,297271,14757
950.165,1.307246,315605,15556
953.978,1.304658,328029,16265
957.786,1.316653,340470,16422
961.59,1.308913,352317,17299
965.389,1.301552,363056,18131
969.185,1.306891,373162,18408
972.976,1.302727,382632,19057
976.763,1.307610,391202,19266
981.806,1.317587,400190,19261
985.583,1.292482,406088,20708
989.355,1.310776,410162,20053
993.124,1.305288,412868,20442
996.888,1.314924,414263,20061
1000.65,1.313173,415476,20201
1004.4,1.306499,415479,20514
1009.41,1.309046,414358,20339
1013.15,1.312824,412923,20093
1016.89,1.310597,411526,20128
1020.63,1.307648,409066,20144
1024.36,1.320013,406777,19469
1028.09,1.305854,404427,19998
1031.82,1.317292,401911,19357
1036.78,1.313156,398410,19372
1040.49,1.312924,396204,19275
1044.2,1.319685,394236,18883
1047.91,1.317998,392042,18851
1051.61,1.309925,389823,19096
1055.31,1.313046,388234,18882
1059,1.309423,387599,19009
1063.92,1.311106,386688,18891
1067.61,1.319173,386598,18539
1071.29,1.310135,387377,18967
1074.96,1.315551,388536,18788
1078.63,1.312424,389855,18988
1082.3,1.317035,391215,18853
1085.96,1.315717,393215,19007
1090.84,1.320015,396270,18966
1094.49,1.314862,398760,19313
1098.14,1.311673,400987,19564
1101.79,1.318398,403477,19383
1105.43,1.315929,406116,19621
1109.06,1.320508,407701,19491
1112.7,1.322800,409859,19491
1117.53,1.319960,412494,19745
1121.15,1.321025,414909,19812
1124.77,1.311240,416559,20344
1128.38,1.324735,418532,19815
1131.99,1.318476,419956,20171
1135.6,1.324488,421946,19988
1139.2,1.318552,423881,20356
1143.99,1.322180,426786,20325
1147.58,1.322163,428617,20413
1151.17,1.320738,431169,20602
1154.75,1.320427,433579,20732
1158.33,1.316477,436264,21051
1161.91,1.320810,439132,20979
1165.48,1.322470,442389,21054
1169.04,1.317803,446101,21460
1173.79,1.318711,451929,21695
1177.34,1.317080,456026,21974
1180.9,1.318831,461306,22139
1184.44,1.327465,467657,22002
1187.99,1.317587,473969,22812
1191.52,1.318308,479856,23057
1195.06,1.330002,487372,22796
1199.76,1.323453,497347,23616
1203.29,1.324846,504311,23870
1206.81,1.320893,511507,24432
1210.33,1.328520,519078,24362
1213.84,1.319168,527163,25280
1217.35,1.328729,534208,25060
1220.85,1.318151,540472,25979
1225.51,1.322935,549929,26144
1229.01,1.319973,556888,26656
1232.5,1.328699,562180,26374
1235.98,1.319250,567975,27232
1239.46,1.326527,574815,27102
1242.94,1.327534,582782,27414
1246.41,1.319246,591476,28359
1251.03,1.327088,604016,28442
1254.5,1.325278,612289,28952
1257.96,1.322148,619125,29487
1261.41,1.331362,624551,29121
1264.86,1.333265,629900,29242
1268.31,1.329116,634345,29731
1271.75,1.333978,638574,29596
1276.33,1.327176,642499,30248
1279.76,1.332903,645905,30010
1283.19,1.327666,648307,30487
1286.61,1.332586,650446,30243
1290.03,1.326943,652132,30718
1293.44,1.329086,653907,30650
1296.85,1.331186,655963,30598
1301.39,1.328977,657349,30819
1304.8,1.332795,657558,30559
1308.19,1.332291,658515,30639
1311.58,1.331137,658804,30734
1314.97,1.330511,659011,30788
1318.36,1.330942,658272,30723
1321.73,1.332363,658022,30611
1326.23,1.334596,657870,30447
1329.6,1.331927,656482,30570
1332.97,1.333419,654926,30393
1336.33,1.332866,653727,30376
1339.69,1.334083,652497,30234
1343.04,1.330854,649913,30339
1346.39,1.330572,647671,30254
1349.73,1.333956,645338,29911
1354.18,1.332294,641175,29832
1357.52,1.329580,638376,29888
1360.85,1.334977,635805,29400
1364.17,1.326205,633413,29887
1367.49,1.336587,631026,29071
1370.81,1.329248,628050,29427
1374.12,1.330506,625034,29201
1378.54,1.329077,620272,29074
1381.84,1.336127,616892,28450
1385.14,1.333278,613613,28485
1388.43,1.335304,611526,28256
1391.72,1.328132,610663,28686
1395.01,1.332203,610634,28417
1398.29,1.332578,611700,28442
1402.66,1.331656,614051,28612
1405.93,1.331328,616268,28737
1409.2,1.336396,617795,28474
1412.46,1.332239,618872,28798
1415.72,1.337906,619795,28467
1418.98,1.332848,620495,28833
1422.23,1.335180,621087,28706
1426.56,1.331061,621375,28993
1429.8,1.327500,621616,29243
1433.04,1.333313,622129,28878
1436.27,1.335456,621526,28708
1439.5,1.332408,621113,28891
1442.72,1.336078,620921,28639
1445.94,1.339308,620270,28397
1450.23,1.331537,618860,28844
1453.44,1.339511,617697,28266
1456.64,1.336647,616264,28387
1459.85,1.342079,614413,27950
1463.04,1.333896,612307,28384
1466.24,1.334027,610032,28270
1469.43,1.338563,607345,27853
1473.67,1.336997,603789,27790
1476.85,1.331455,601175,28025
1480.02,1.338031,597737,27446
1483.19,1.334535,594479,27517
1486.36,1.339992,591232,27025
1489.52,1.331804,587853,27382
1492.68,1.340329,583875,26668
1496.89,1.335496,578062,26698
1500.03,1.337247,574159,26411
1503.18,1.339768,570285,26081
1506.32,1.338185,565444,25954
1509.45,1.337550,560571,25768
1512.58,1.339657,555821,25426
1515.71,1.345500,550344,24839
1519.87,1.342045,543983,24748
1522.99,1.339194,538764,24672
1526.1,1.346645,533692,24024
1529.21,1.342288,527902,24003
1532.32,1.339250,521886,23896
1535.42,1.345386,515888,23290
1538.51,1.334132,509987,23628
1541.6,1.331529,503936,23488
1545.72,1.338043,494694,22714
1548.8,1.345959,488378,22019
1551.88,1.342015,481832,21922
1554.95,1.342713,474989,21576
1558.02,1.333117,467818,21725
1561.08,1.341434,460730,20990
1564.15,1.336470,454170,20929
1568.22,1.336209,444181,20481
1571.27,1.339681,436947,19987
1574.32,1.335893,429598,19823
1577.36,1.341599,422039,19220
1580.4,1.341599,414375,18871
1583.43,1.336668,406354,18717
1586.46,1.337191,398475,18332
1590.49,1.324711,388982,18417
1593.51,1.331369,380708,17751
1596.53,1.329571,372727,17451
1599.54,1.333246,365060,16948
1602.55,1.332776,357543,16617
1605.55,1.329392,349495,16370
1608.55,1.331717,341154,15894
1612.54,1.331357,330877,15428
1615.53,1.328689,322904,15149
1618.51,1.343894,315116,14275
1621.49,1.331624,307217,14316
1624.47,1.329095,299481,14037
1627.44,1.326710,292112,13767
1630.41,1.310866,284245,13894
1634.36,1.333969,274079,12703
1637.32,1.323255,266916,12680
1640.27,1.322131,259612,12365
1643.22,1.335782,251804,11622
1646.16,1.325765,244348,11541
1649.1,1.334235,236703,10964
1652.04,1.331360,228171,10639
1655.95,1.325130,215408,10189
1658.88,1.325341,204937,9689
1661.8,1.323934,193395,9173
1664.72,1.330440,179728,8398
1667.63,1.332339,163642,7613
1670.54,1.334242,146312,6777
1673.44,1.385692,128451,5285
1677.31,1.347762,105080,4718
1680.21,1.350688,88906,3965
1683.1,1.395245,75033,3020
1685.99,1.307644,63520,3128
1688.87,1.245788,53714,3050
1691.75,1.401791,45653,1810
1694.62,1.353538,39137,1734
1697.49,1.417682,33776,1291
1701.31,1.357143,28175,1238