File: ML/samples/unknown/Column 1_078155_20241121_164810.csv
Method:,Column 1,,
Host Date-Time:,21/11/24 @ 16:48:10,,
Header Version:,1,,
System Temp (C):,33.3,,
Detector Temp (C):,29.33,,
Humidity (%):,3.22,,
Lamp PD:,3805,,
Shift Vector Coefficients:,-10.5391,0.0761263,-0.000134223,,
Pixel to Wavelength Coefficients:,1775.68,-0.916766,-0.000235065,,
Serial Number:,5510004,,
Scan Config Name:,Column 1,,
Scan Config Type:,Slew,,
Section 1,,
Start wavelength (nm):,900,,
End wavelength (nm):,1700,,
Pattern Pixel Width (nm):,   7.03,,,,
Exposure (ms):,  0.635,,,,
Digital Resolution:,228,,
Num Repeats:,6,,
PGA Gain:,64,,
Total Measurement Time in sec:,  2.726,,
Wavelength (nm),Absorbance (AU),Reference Signal (unitless),Sample Signal (unitless)
901.51,1.310112,108485,5312
905.376,1.283991,121306,6308
909.237,1.319695,131909,6318
913.095,1.330752,143299,6691
916.948,1.309021,156982,7706
922.079,1.304804,179937,8919
925.923,1.312584,200504,9762
929.762,1.328318,222660,10455
933.597,1.310162,244426,11967
937.427,1.319605,263972,12646
941.254,1.309817,281845,13810
945.076,1.306663,297271,14672
950.165,1.309766,315605,15466
953.978,1.317008,328029,15809
957.786,1.302576,340470,16963
961.59,1.312087,352317,17173
965.389,1.311559,363056,17718
969.185,1.313404,373162,18134
972.976,1.295024,382632,19398
976.763,1.300145,391202,19600
981.806,1.301215,400190,20001
985.583,1.314639,406088,19678
989.355,1.315567,410162,19833
993.124,1.316784,412868,19908
996.888,1.309716,414263,20303
1000.65,1.310003,415476,20349
1004.4,1.301615,415479,20746
1009.41,1.314028,414358,20107
1013.15,1.311853,412923,20138
1016.89,1.307801,411526,20258
1020.63,1.313355,409066,19881
1024.36,1.310002,406777,19923
1028.09,1.302716,404427,20143
1031.82,1.313717,401911,19517
1036.78,1.312730,398410,19391
1040.49,1.320035,396204,18962
1044.2,1.309210,394236,19344
1047.91,1.304034,392042,19467
1051.61,1.317380,389823,18771
1055.31,1.306721,388234,19159
1059,1.311094,387599,18936
1063.92,1.314498,386688,18744
1067.61,1.310683,386598,18905
1071.29,1.310089,387377,18969
1074.96,1.313429,388536,18880
1078.63,1.322793,389855,18540
1082.3,1.311564,391215,19092
1085.96,1.306224,393215,19427
1090.84,1.309183,396270,19445
1094.49,1.318679,398760,19144
1098.14,1.315664,400987,19385
1101.79,1.310164,403477,19754
1105.43,1.312336,406116,19784
1109.06,1.319173,407701,19551
1112.7,1.318896,409859,19667
1117.53,1.328378,412494,19366
1121.15,1.319711,414909,19872
1124.77,1.319734,416559,19950
1128.38,1.312652,418532,20374
1131.99,1.317165,419956,20232
1135.6,1.318896,421946,20247
1139.2,1.318637,423881,20352
1143.99,1.324193,426786,20231
1147.58,1.320527,428617,20490
1151.17,1.318279,431169,20719
1154.75,1.319611,433579,20771
1158.33,1.320040,436264,20879
1161.91,1.316751,439132,21176
1165.48,1.320453,442389,21152
1169.04,1.315623,446101,21568
1173.79,1.319492,451929,21656
1177.34,1.323512,456026,21651
1180.9,1.316444,461306,22261
1184.44,1.315665,467657,22608
1187.99,1.319915,473969,22690
1191.52,1.316335,479856,23162
1195.06,1.324926,487372,23064
1199.76,1.321875,497347,23702
1203.29,1.323574,504311,23940
1206.81,1.314190,511507,24812
1210.33,1.329180,519078,24325
1213.84,1.327966,527163,24773
1217.35,1.349312,534208,23900
1220.85,1.324771,540472,25586
1225.51,1.326621,549929,25923
1229.01,1.318493,556888,26747
1232.5,1.318270,562180,27015
1235.98,1.324464,567975,26907
1239.46,1.324193,574815,27248
1242.94,1.325353,582782,27552
1246.41,1.322412,591476,28153
1251.03,1.319475,604016,28945
1254.5,1.325623,612289,28929
1257.96,1.320868,619125,29574
1261.41,1.324276,624551,29600
1264.86,1.326720,629900,29686
1268.31,1.327032,634345,29874
1271.75,1.326472,638574,30112
1276.33,1.334605,642499,29735
1279.76,1.331790,645905,30087
1283.19,1.331759,648307,30201
1286.61,1.329610,650446,30451
1290.03,1.329267,652132,30554
1293.44,1.330022,653907,30584
1296.85,1.336010,655963,30260
1301.39,1.329048,657349,30814
1304.8,1.337252,657558,30247
1308.19,1.330763,658515,30747
1311.58,1.330163,658804,30803
1314.97,1.335733,659011,30420
1318.36,1.326946,658272,31007
1321.73,1.332278,658022,30617
1326.23,1.334239,657870,30472
1329.6,1.332752,656482,30512
1332.97,1.333948,654926,30356
1336.33,1.331667,653727,30460
1339.69,1.336200,652497,30087
1343.04,1.329682,649913,30421
1346.39,1.330801,647671,30238
1349.73,1.324577,645338,30564
1354.18,1.332979,641175,29785
1357.52,1.329536,638376,29891
1360.85,1.330158,635805,29728
1364.17,1.324334,633413,30016
1367.49,1.325962,631026,29791
1370.81,1.325428,628050,29687
1374.12,1.330105,625034,29228
1378.54,1.328048,620272,29143
1381.84,1.330364,616892,28830
1385.14,1.325407,613613,29006
1388.43,1.328972,611526,28671
1391.72,1.328450,610663,28665
1395.01,1.328702,610634,28647
1398.29,1.328944,611700,28681
1402.66,1.329491,614051,28755
1405.93,1.332387,616268,28667
1409.2,1.327295,617795,29077
1412.46,1.332450,618872,28784
1415.72,1.338807,619795,28408
1418.98,1.333965,620495,28759
1422.23,1.332465,621087,28886
1426.56,1.331750,621375,28947
1429.8,1.331919,621616,28947
1433.04,1.333043,622129,28896
1436.27,1.335290,621526,28719
1439.5,1.334608,621113,28745
1442.72,1.336291,620921,28625
1445.94,1.331638,620270,28903
1450.23,1.334286,618860,28662
1453.44,1.335854,617697,28505
1456.64,1.334480,616264,28529
1459.85,1.335785,614413,28358
1463.04,1.335597,612307,28273
1466.24,1.336693,610032,28097
1469.43,1.331634,607345,28301
1473.67,1.341537,603789,27501
1476.85,1.337212,601175,27656
1480.02,1.340220,597737,27308
1483.19,1.334756,594479,27503
1486.36,1.338100,591232,27143
1489.52,1.339920,587853,26875
1492.68,1.333527,583875,27089
1496.89,1.337436,578062,26579
1500.03,1.341063,574159,26180
1503.18,1.333486,570285,26461
1506.32,1.343285,565444,25651
1509.45,1.337837,560571,25751
1512.58,1.335831,555821,25651
1515.71,1.337771,550344,25285
1519.87,1.338654,543983,24942
1522.99,1.334520,538764,24939
1526.1,1.341149,533692,24330
1529.21,1.345922,527902,23803
1532.32,1.339796,521886,23866
1535.42,1.333196,515888,23953
1538.51,1.333857,509987,23643
1541.6,1.332900,503936,23414
1545.72,1.338464,494694,22692
1548.8,1.333094,488378,22681
1551.88,1.335527,481832,22252
1554.95,1.334537,474989,21986
1558.02,1.332398,467818,21761
1561.08,1.337234,460730,21194
1564.15,1.335869,454170,20958
1568.22,1.328100,444181,20867
1571.27,1.335185,436947,20195
1574.32,1.333773,429598,19920
1577.36,1.333185,422039,19596
1580.4,1.334319,414375,19190
1583.43,1.331479,406354,18942
1586.46,1.338734,398475,18267
1590.49,1.327217,388982,18311
1593.51,1.327448,380708,17912
1596.53,1.327237,372727,17545
1599.54,1.331507,365060,17016
1602.55,1.329858,357543,16729
1605.55,1.324014,349495,16574
1608.55,1.335284,341154,15764
1612.54,1.325458,330877,15639
1615.53,1.329292,322904,15128
1618.51,1.326978,315116,14842
1621.49,1.320867,307217,14675
1624.47,1.321580,299481,14282
1627.44,1.316392,292112,14098
1630.41,1.311930,284245,13860
1634.36,1.313404,274079,13319
1637.32,1.317269,266916,12856
1640.27,1.318075,259612,12481
1643.22,1.304952,251804,12477
1646.16,1.316679,244348,11785
1649.1,1.300742,236703,11843
1652.04,1.320476,228171,10909
1655.95,1.298794,215408,10826
1658.88,1.309498,204937,10049
1661.8,1.280836,193395,10130
1664.72,1.312955,179728,8743
1667.63,1.272433,163642,8739
1670.54,1.265624,146312,7937
1673.44,1.274444,128451,6828
1677.31,1.295853,105080,5317
1680.21,1.251789,88906,4979
1683.1,1.266512,75033,4062
1685.99,1.241571,63520,3642
1688.87,1.258209,53714,2964
1691.75,1.173748,45653,3060
1694.62,1.345105,39137,1768
1697.49,1.192549,33776,2168
1701.31,1.140021,28175,2041