File: ML/samples/unknown/Column 1_078750_20241121_172023.csv
Method:,Column 1,,
Host Date-Time:,21/11/24 @ 17:20:23,,
Header Version:,1,,
System Temp (C):,36.48,,
Detector Temp (C):,34.81,,
Humidity (%):,1.27,,
Lamp PD:,3798,,
Shift Vector Coefficients:,-10.5391,0.0761263,-0.000134223,,
Pixel to Wavelength Coefficients:,1775.68,-0.916766,-0.000235065,,
Serial Number:,5510004,,
Scan Config Name:,Column 1,,
Scan Config Type:,Slew,,
Section 1,,
Start wavelength (nm):,900,,
End wavelength (nm):,1700,,
Pattern Pixel Width (nm):,   7.03,,,,
Exposure (ms):,  0.635,,,,
Digital Resolution:,228,,
Num Repeats:,6,,
PGA Gain:,64,,
Total Measurement Time in sec:,  2.664,,
Wavelength (nm),Absorbance (AU),Reference Signal (unitless),Sample Signal (unitless)
901.51,1.306691,108485,5354
905.376,1.327855,121306,5702
909.237,1.331399,131909,6150
913.095,1.356489,143299,6306
916.948,1.337373,156982,7219
922.079,1.338772,179937,8248
925.923,1.328580,200504,9409
929.762,1.326660,222660,10495
933.597,1.324626,244426,11575
937.427,1.324301,263972,12510
941.254,1.309691,281845,13814
945.076,1.324488,297271,14082
950.165,1.313064,315605,15349
953.978,1.308628,328029,16117
957.786,1.306770,340470,16800
961.59,1.314649,352317,17072
965.389,1.309627,363056,17797
969.185,1.318511,373162,17922
972.976,1.317280,382632,18429
976.763,1.309303,391202,19191
981.806,1.308904,400190,19650
985.583,1.315037,406088,19660
989.355,1.314626,410162,19876
993.124,1.306160,412868,20401
996.888,1.305056,414263,20522
1000.65,1.300796,415476,20785
1004.4,1.313649,415479,20179
1009.41,1.309987,414358,20295
1013.15,1.304136,412923,20499
1016.89,1.306880,411526,20301
1020.63,1.310937,409066,19992
1024.36,1.307675,406777,20030
1028.09,1.305007,404427,20037
1031.82,1.314652,401911,19475
1036.78,1.309806,398410,19522
1040.49,1.301715,396204,19779
1044.2,1.306368,394236,19471
1047.91,1.312231,392042,19103
1051.61,1.310380,389823,19076
1055.31,1.309267,388234,19047
1059,1.313948,387599,18812
1063.92,1.311911,386688,18856
1067.61,1.308826,386598,18986
1071.29,1.312017,387377,18885
1074.96,1.312327,388536,18928
1078.63,1.309711,389855,19107
1082.3,1.318073,391215,18808
1085.96,1.306784,393215,19402
1090.84,1.310212,396270,19399
1094.49,1.315289,398760,19294
1098.14,1.318835,400987,19244
1101.79,1.318846,403477,19363
1105.43,1.320736,406116,19405
1109.06,1.310247,407701,19957
1112.7,1.320467,409859,19596
1117.53,1.311682,412494,20125
1121.15,1.321244,414909,19802
1124.77,1.322288,416559,19833
1128.38,1.320221,418532,20022
1131.99,1.317981,419956,20194
1135.6,1.320831,421946,20157
1139.2,1.310289,423881,20747
1143.99,1.318774,426786,20485
1147.58,1.322887,428617,20379
1151.17,1.318866,431169,20691
1154.75,1.315387,433579,20974
1158.33,1.328186,436264,20491
1161.91,1.319797,439132,21028
1165.48,1.315188,442389,21410
1169.04,1.317520,446101,21474
1173.79,1.318010,451929,21730
1177.34,1.322830,456026,21685
1180.9,1.312386,461306,22470
1184.44,1.314859,467657,22650
1187.99,1.319112,473969,22732
1191.52,1.323462,479856,22785
1195.06,1.319871,487372,23334
1199.76,1.317064,497347,23966
1203.29,1.328280,504311,23682
1206.81,1.321177,511507,24416
1210.33,1.321061,519078,24784
1213.84,1.325257,527163,24928
1217.35,1.320643,534208,25531
1220.85,1.321036,540472,25807
1225.51,1.319444,549929,26355
1229.01,1.324724,556888,26366
1232.5,1.327992,562180,26417
1235.98,1.323142,567975,26989
1239.46,1.317880,574815,27647
1242.94,1.328803,582782,27334
1246.41,1.324826,591476,27997
1251.03,1.321445,604016,28814
1254.5,1.322184,612289,29159
1257.96,1.329126,619125,29017
1261.41,1.326542,624551,29446
1264.86,1.317385,629900,30331
1268.31,1.325045,634345,30011
1271.75,1.322466,638574,30391
1276.33,1.333656,642499,29800
1279.76,1.329242,645905,30264
1283.19,1.327282,648307,30514
1286.61,1.324139,650446,30837
1290.03,1.326957,652132,30717
1293.44,1.333085,653907,30369
1296.85,1.325980,655963,30967
1301.39,1.328062,657349,30884
1304.8,1.326152,657558,31030
1308.19,1.323368,658515,31275
1311.58,1.329431,658804,30855
1314.97,1.325616,659011,31137
1318.36,1.328475,658272,30898
1321.73,1.326921,658022,30997
1326.23,1.332447,657870,30598
1329.6,1.329787,656482,30721
1332.97,1.330272,654926,30614
1336.33,1.323699,653727,31024
1339.69,1.329411,652497,30561
1343.04,1.329539,649913,30431
1346.39,1.329353,647671,30339
1349.73,1.323314,645338,30653
1354.18,1.322549,641175,30509
1357.52,1.320392,638376,30527
1360.85,1.324455,635805,30121
1364.17,1.329179,633413,29683
1367.49,1.331109,631026,29440
1370.81,1.329913,628050,29382
1374.12,1.324069,625034,29637
1378.54,1.319431,620272,29727
1381.84,1.327826,616892,28999
1385.14,1.323763,613613,29116
1388.43,1.322835,611526,29079
1391.72,1.326379,610663,28802
1395.01,1.326766,610634,28775
1398.29,1.321066,611700,29206
1402.66,1.327848,614051,28864
1405.93,1.326893,616268,29032
1409.2,1.329376,617795,28938
1412.46,1.330658,618872,28903
1415.72,1.332629,619795,28815
1418.98,1.330820,620495,28968
1422.23,1.321553,621087,29621
1426.56,1.328760,621375,29147
1429.8,1.333467,621616,28844
1433.04,1.328408,622129,29206
1436.27,1.331886,621526,28945
1439.5,1.332092,621113,28912
1442.72,1.329606,620921,29069
1445.94,1.327049,620270,29210
1450.23,1.338335,618860,28396
1453.44,1.336403,617697,28469
1456.64,1.333082,616264,28621
1459.85,1.326752,614413,28954
1463.04,1.332841,612307,28453
1466.24,1.331927,610032,28407
1469.43,1.331864,607345,28286
1473.67,1.333665,603789,28004
1476.85,1.335675,601175,27754
1480.02,1.335239,597737,27623
1483.19,1.338945,594479,27239
1486.36,1.330173,591232,27643
1489.52,1.336524,587853,27086
1492.68,1.336648,583875,26895
1496.89,1.333402,578062,26827
1500.03,1.339176,574159,26294
1503.18,1.329483,570285,26706
1506.32,1.332781,565444,26279
1509.45,1.337129,560571,25793
1512.58,1.335746,555821,25656
1515.71,1.330313,550344,25723
1519.87,1.335860,543983,25103
1522.99,1.331241,538764,25128
1526.1,1.337629,533692,24528
1529.21,1.331318,527902,24617
1532.32,1.337582,521886,23988
1535.42,1.344399,515888,23343
1538.51,1.331786,509987,23756
1541.6,1.328765,503936,23638
1545.72,1.330499,494694,23112
1548.8,1.344305,488378,22103
1551.88,1.338936,481832,22078
1554.95,1.334774,474989,21974
1558.02,1.328524,467818,21956
1561.08,1.336006,460730,21254
1564.15,1.332936,454170,21100
1568.22,1.333040,444181,20631
1571.27,1.326815,436947,20588
1574.32,1.326101,429598,20275
1577.36,1.334428,422039,19540
1580.4,1.334703,414375,19173
1583.43,1.334031,406354,18831
1586.46,1.322082,398475,18981
1590.49,1.336277,388982,17933
1593.51,1.331418,380708,17749
1596.53,1.331366,372727,17379
1599.54,1.332938,365060,16960
1602.55,1.325827,357543,16885
1605.55,1.326616,349495,16475
1608.55,1.316362,341154,16466
1612.54,1.318871,330877,15878
1615.53,1.319022,322904,15490
1618.51,1.320040,315116,15081
1621.49,1.322023,307217,14636
1624.47,1.313685,299481,14544
1627.44,1.318337,292112,14035
1630.41,1.323295,284245,13502
1634.36,1.309735,274079,13432
1637.32,1.309933,266916,13075
1640.27,1.319016,259612,12454
1643.22,1.311687,251804,12285
1646.16,1.306770,244348,12057
1649.1,1.314678,236703,11469
1652.04,1.317856,228171,10975
1655.95,1.307956,215408,10600
1658.88,1.299585,204937,10281
1661.8,1.290284,193395,9912
1664.72,1.298303,179728,9043
1667.63,1.260909,163642,8974
1670.54,1.250091,146312,8226
1673.44,1.235824,128451,7463
1677.31,1.198829,105080,6648
1680.21,1.192219,88906,5711
1683.1,1.195370,75033,4785
1685.99,1.158177,63520,4413
1688.87,1.161886,53714,3700
1691.75,1.130681,45653,3379
1694.62,1.182993,39137,2568
1697.49,1.248713,33776,1905
1701.31,1.178487,28175,1868