File: ML/samples/unknown/Column 1_078930_20241121_172903.csv
Method:,Column 1,,
Host Date-Time:,21/11/24 @ 17:29:3,,
Header Version:,1,,
System Temp (C):,37.29,,
Detector Temp (C):,36.46,,
Humidity (%):,0.58,,
Lamp PD:,3796,,
Shift Vector Coefficients:,-10.5391,0.0761263,-0.000134223,,
Pixel to Wavelength Coefficients:,1775.68,-0.916766,-0.000235065,,
Serial Number:,5510004,,
Scan Config Name:,Column 1,,
Scan Config Type:,Slew,,
Section 1,,
Start wavelength (nm):,900,,
End wavelength (nm):,1700,,
Pattern Pixel Width (nm):,   7.03,,,,
Exposure (ms):,  0.635,,,,
Digital Resolution:,228,,
Num Repeats:,6,,
PGA Gain:,64,,
Total Measurement Time in sec:,  2.708,,
Wavelength (nm),Absorbance (AU),Reference Signal (unitless),Sample Signal (unitless)
901.51,1.339888,108485,4960
905.376,1.312957,121306,5901
909.237,1.319008,131909,6328
913.095,1.325719,143299,6769
916.948,1.334196,156982,7272
922.079,1.308914,179937,8835
925.923,1.327934,200504,9423
929.762,1.345044,222660,10060
933.597,1.342238,244426,11115
937.427,1.307180,263972,13013
941.254,1.317015,281845,13583
945.076,1.326126,297271,14029
950.165,1.306381,315605,15587
953.978,1.302341,328029,16352
957.786,1.307701,340470,16764
961.59,1.311809,352317,17184
965.389,1.320799,363056,17345
969.185,1.310611,373162,18251
972.976,1.307723,382632,18839
976.763,1.297208,391202,19733
981.806,1.306523,400190,19758
985.583,1.312087,406088,19794
989.355,1.313819,410162,19913
993.124,1.308936,412868,20271
996.888,1.307880,414263,20389
1000.65,1.307598,415476,20462
1004.4,1.315807,415479,20079
1009.41,1.305347,414358,20513
1013.15,1.307091,412923,20360
1016.89,1.309605,411526,20174
1020.63,1.303528,409066,20336
1024.36,1.303833,406777,20208
1028.09,1.313478,404427,19650
1031.82,1.312095,401911,19590
1036.78,1.309161,398410,19551
1040.49,1.314844,396204,19190
1044.2,1.311619,394236,19237
1047.91,1.311663,392042,19128
1051.61,1.310653,389823,19064
1055.31,1.311209,388234,18962
1059,1.308191,387599,19063
1063.92,1.312764,386688,18819
1067.61,1.312802,386598,18813
1071.29,1.304787,387377,19202
1074.96,1.312740,388536,18910
1078.63,1.310325,389855,19080
1082.3,1.314119,391215,18980
1085.96,1.307747,393215,19359
1090.84,1.322772,396270,18846
1094.49,1.310833,398760,19493
1098.14,1.315217,400987,19405
1101.79,1.314983,403477,19536
1105.43,1.314360,406116,19692
1109.06,1.312450,407701,19856
1112.7,1.313432,409859,19916
1117.53,1.320114,412494,19738
1121.15,1.315535,414909,20064
1124.77,1.317519,416559,20052
1128.38,1.315561,418532,20238
1131.99,1.307171,419956,20703
1135.6,1.322212,421946,20093
1139.2,1.318594,423881,20354
1143.99,1.319114,426786,20469
1147.58,1.314947,428617,20755
1151.17,1.322851,431169,20502
1154.75,1.317296,433579,20882
1158.33,1.307372,436264,21497
1161.91,1.315461,439132,21239
1165.48,1.315573,442389,21391
1169.04,1.320361,446101,21334
1173.79,1.317331,451929,21764
1177.34,1.317733,456026,21941
1180.9,1.318851,461306,22138
1184.44,1.316685,467657,22555
1187.99,1.318139,473969,22783
1191.52,1.316804,479856,23137
1195.06,1.312252,487372,23747
1199.76,1.316919,497347,23974
1203.29,1.315647,504311,24381
1206.81,1.320910,511507,24431
1210.33,1.313488,519078,25220
1213.84,1.316684,527163,25425
1217.35,1.320660,534208,25530
1220.85,1.319725,540472,25885
1225.51,1.317602,549929,26467
1229.01,1.321344,556888,26572
1232.5,1.322470,562180,26755
1235.98,1.320160,567975,27175
1239.46,1.314547,574815,27860
1242.94,1.321727,582782,27783
1246.41,1.327143,591476,27848
1251.03,1.327577,604016,28410
1254.5,1.326284,612289,28885
1257.96,1.328303,619125,29072
1261.41,1.325113,624551,29543
1264.86,1.326544,629900,29698
1268.31,1.322132,634345,30213
1271.75,1.329017,638574,29936
1276.33,1.329147,642499,30111
1279.76,1.329687,645905,30233
1283.19,1.328308,648307,30442
1286.61,1.328058,650446,30560
1290.03,1.328486,652132,30609
1293.44,1.326373,653907,30842
1296.85,1.331598,655963,30569
1301.39,1.324296,657349,31153
1304.8,1.323001,657558,31256
1308.19,1.327428,658515,30984
1311.58,1.327100,658804,31021
1314.97,1.326146,659011,31099
1318.36,1.329911,658272,30796
1321.73,1.335338,658022,30402
1326.23,1.333470,657870,30526
1329.6,1.332695,656482,30516
1332.97,1.331124,654926,30554
1336.33,1.331310,653727,30485
1339.69,1.326465,652497,30769
1343.04,1.330210,649913,30384
1346.39,1.330888,647671,30232
1349.73,1.329953,645338,30188
1354.18,1.324675,641175,30360
1357.52,1.331035,638376,29788
1360.85,1.329297,635805,29787
1364.17,1.325131,633413,29961
1367.49,1.330240,631026,29499
1370.81,1.325501,628050,29682
1374.12,1.327320,625034,29416
1378.54,1.323069,620272,29479
1381.84,1.335395,616892,28498
1385.14,1.327869,613613,28842
1388.43,1.325006,611526,28934
1391.72,1.326424,610663,28799
1395.01,1.320339,610634,29204
1398.29,1.334476,611700,28318
1402.66,1.325836,614051,28998
1405.93,1.330528,616268,28790
1409.2,1.330623,617795,28855
1412.46,1.322486,618872,29452
1415.72,1.332841,619795,28801
1418.98,1.323963,620495,29429
1422.23,1.332931,621087,28855
1426.56,1.325879,621375,29341
1429.8,1.323803,621616,29493
1433.04,1.329943,622129,29103
1436.27,1.332486,621526,28905
1439.5,1.330039,621113,29049
1442.72,1.328219,620921,29162
1445.94,1.337127,620270,28540
1450.23,1.329899,618860,28953
1453.44,1.333651,617697,28650
1456.64,1.329350,616264,28868
1459.85,1.339121,614413,28141
1463.04,1.333483,612307,28411
1466.24,1.330950,610032,28471
1469.43,1.341583,607345,27660
1473.67,1.342675,603789,27429
1476.85,1.335362,601175,27774
1480.02,1.336262,597737,27558
1483.19,1.335721,594479,27442
1486.36,1.335325,591232,27317
1489.52,1.327197,587853,27674
1492.68,1.329760,583875,27325
1496.89,1.338614,578062,26507
1500.03,1.333596,574159,26634
1503.18,1.341018,570285,26006
1506.32,1.334885,565444,26152
1509.45,1.331790,560571,26112
1512.58,1.333787,555821,25772
1515.71,1.333447,550344,25538
1519.87,1.336726,543983,25053
1522.99,1.332660,538764,25046
1526.1,1.340542,533692,24364
1529.21,1.331759,527902,24592
1532.32,1.335991,521886,24076
1535.42,1.332960,515888,23966
1538.51,1.337917,509987,23423
1541.6,1.332325,503936,23445
1545.72,1.339575,494694,22634
1548.8,1.334590,488378,22603
1551.88,1.341560,481832,21945
1554.95,1.341567,474989,21633
1558.02,1.333377,467818,21712
1561.08,1.325010,460730,21799
1564.15,1.330289,454170,21229
1568.22,1.327144,444181,20913
1571.27,1.335831,436947,20165
1574.32,1.331035,429598,20046
1577.36,1.330270,422039,19728
1580.4,1.338480,414375,19007
1583.43,1.324181,406354,19263
1586.46,1.340879,398475,18177
1590.49,1.327502,388982,18299
1593.51,1.331834,380708,17732
1596.53,1.323638,372727,17691
1599.54,1.331405,365060,17020
1602.55,1.328148,357543,16795
1605.55,1.325747,349495,16508
1608.55,1.325478,341154,16124
1612.54,1.333643,330877,15347
1615.53,1.319022,322904,15490
1618.51,1.312051,315116,15361
1621.49,1.329234,307217,14395
1624.47,1.330738,299481,13984
1627.44,1.318461,292112,14031
1630.41,1.323456,284245,13497
1634.36,1.315169,274079,13265
1637.32,1.323427,266916,12675
1640.27,1.313093,259612,12625
1643.22,1.316236,251804,12157
1646.16,1.307815,244348,12028
1649.1,1.306352,236703,11691
1652.04,1.301813,228171,11388
1655.95,1.299075,215408,10819
1658.88,1.290307,204937,10503
1661.8,1.296684,193395,9767
1664.72,1.255137,179728,9988
1667.63,1.248552,163642,9233
1670.54,1.243178,146312,8358
1673.44,1.215975,128451,7812
1677.31,1.137065,105080,7664
1680.21,1.152079,88906,6264
1683.1,1.135838,75033,5488
1685.99,1.142994,63520,4570
1688.87,1.156752,53714,3744
1691.75,1.206151,45653,2840
1694.62,1.116916,39137,2990
1697.49,1.112800,33776,2605
1701.31,1.128265,28175,2097