File: ML/samples/unknown/Column 1_078278_20241121_165413.csv
Method:,Column 1,,
Host Date-Time:,21/11/24 @ 16:54:13,,
Header Version:,1,,
System Temp (C):,34.43,,
Detector Temp (C):,32.35,,
Humidity (%):,2.2,,
Lamp PD:,3802,,
Shift Vector Coefficients:,-10.5391,0.0761263,-0.000134223,,
Pixel to Wavelength Coefficients:,1775.68,-0.916766,-0.000235065,,
Serial Number:,5510004,,
Scan Config Name:,Column 1,,
Scan Config Type:,Slew,,
Section 1,,
Start wavelength (nm):,900,,
End wavelength (nm):,1700,,
Pattern Pixel Width (nm):,   7.03,,,,
Exposure (ms):,  0.635,,,,
Digital Resolution:,228,,
Num Repeats:,6,,
PGA Gain:,64,,
Total Measurement Time in sec:,  2.731,,
Wavelength (nm),Absorbance (AU),Reference Signal (unitless),Sample Signal (unitless)
901.51,1.327629,108485,5102
905.376,1.295785,121306,6139
909.237,1.314366,131909,6396
913.095,1.314821,143299,6941
916.948,1.321774,156982,7483
922.079,1.332032,179937,8377
925.923,1.323304,200504,9524
929.762,1.309340,222660,10922
933.597,1.318849,244426,11730
937.427,1.312689,263972,12849
941.254,1.309817,281845,13810
945.076,1.321629,297271,14175
950.165,1.312188,315605,15380
953.978,1.310140,328029,16061
957.786,1.308609,340470,16729
961.59,1.317713,352317,16952
965.389,1.324849,363056,17184
969.185,1.318366,373162,17928
972.976,1.314437,382632,18550
976.763,1.307677,391202,19263
981.806,1.307403,400190,19718
985.583,1.307851,406088,19988
989.355,1.309673,410162,20104
993.124,1.303190,412868,20541
996.888,1.311624,414263,20214
1000.65,1.307280,415476,20477
1004.4,1.300757,415479,20787
1009.41,1.311595,414358,20220
1013.15,1.305984,412923,20412
1016.89,1.316768,411526,19844
1020.63,1.308792,409066,20091
1024.36,1.313372,406777,19769
1028.09,1.307202,404427,19936
1031.82,1.305168,401911,19905
1036.78,1.306438,398410,19674
1040.49,1.313308,396204,19258
1044.2,1.306056,394236,19485
1047.91,1.313232,392042,19059
1051.61,1.316248,389823,18820
1055.31,1.308106,388234,19098
1059,1.310178,387599,18976
1063.92,1.315751,386688,18690
1067.61,1.305885,386598,19115
1071.29,1.307555,387377,19080
1074.96,1.303222,388536,19329
1078.63,1.315569,389855,18851
1082.3,1.319507,391215,18746
1085.96,1.316723,393215,18963
1090.84,1.316231,396270,19132
1094.49,1.301793,398760,19903
1098.14,1.316674,400987,19340
1101.79,1.312965,403477,19627
1105.43,1.315376,406116,19646
1109.06,1.314115,407701,19780
1112.7,1.315356,409859,19828
1117.53,1.308928,412494,20253
1121.15,1.319034,414909,19903
1124.77,1.318755,416559,19995
1128.38,1.321786,418532,19950
1131.99,1.320743,419956,20066
1135.6,1.319218,421946,20232
1139.2,1.312787,423881,20628
1143.99,1.322372,426786,20316
1147.58,1.309003,428617,21041
1151.17,1.316104,431169,20823
1154.75,1.322801,433579,20619
1158.33,1.320144,436264,20874
1161.91,1.319178,439132,21058
1165.48,1.316915,442389,21325
1169.04,1.310499,446101,21824
1173.79,1.318510,451929,21705
1177.34,1.315975,456026,22030
1180.9,1.317167,461306,22224
1184.44,1.322461,467657,22257
1187.99,1.319820,473969,22695
1191.52,1.320480,479856,22942
1195.06,1.324098,487372,23108
1199.76,1.325647,497347,23497
1203.29,1.319278,504311,24178
1206.81,1.326240,511507,24133
1210.33,1.325500,519078,24532
1213.84,1.322669,527163,25077
1217.35,1.327259,534208,25145
1220.85,1.326778,540472,25468
1225.51,1.327863,549929,25849
1229.01,1.324197,556888,26398
1232.5,1.325255,562180,26584
1235.98,1.321809,567975,27072
1239.46,1.322237,574815,27371
1242.94,1.328882,582782,27329
1246.41,1.321211,591476,28231
1251.03,1.326753,604016,28464
1254.5,1.321707,612289,29191
1257.96,1.324407,619125,29334
1261.41,1.324819,624551,29563
1264.86,1.325872,629900,29744
1268.31,1.326611,634345,29903
1271.75,1.325190,638574,30201
1276.33,1.330332,642499,30029
1279.76,1.330032,645905,30209
1283.19,1.327139,648307,30524
1286.61,1.329981,650446,30425
1290.03,1.334516,652132,30187
1293.44,1.327586,653907,30756
1296.85,1.331172,655963,30599
1301.39,1.332600,657349,30563
1304.8,1.333762,657558,30491
1308.19,1.335150,658515,30438
1311.58,1.330770,658804,30760
1314.97,1.332859,659011,30622
1318.36,1.326526,658272,31037
1321.73,1.334696,658022,30447
1326.23,1.327746,657870,30931
1329.6,1.332325,656482,30542
1332.97,1.331679,654926,30515
1336.33,1.330357,653727,30552
1339.69,1.337399,652497,30004
1343.04,1.328285,649913,30519
1346.39,1.327995,647671,30434
1349.73,1.330716,645338,30135
1354.18,1.328309,641175,30107
1357.52,1.334769,638376,29533
1360.85,1.328802,635805,29821
1364.17,1.328054,633413,29760
1367.49,1.332395,631026,29353
1370.81,1.326570,628050,29609
1374.12,1.327379,625034,29412
1378.54,1.325196,620272,29335
1381.84,1.328471,616892,28956
1385.14,1.324704,613613,29053
1388.43,1.326073,611526,28863
1391.72,1.325250,610663,28877
1395.01,1.329293,610634,28608
1398.29,1.328763,611700,28693
1402.66,1.327547,614051,28884
1405.93,1.329473,616268,28860
1409.2,1.321479,617795,29469
1412.46,1.332782,618872,28762
1415.72,1.334396,619795,28698
1418.98,1.333602,620495,28783
1422.23,1.331339,621087,28961
1426.56,1.333901,621375,28804
1429.8,1.335973,621616,28678
1433.04,1.339417,622129,28475
1436.27,1.332096,621526,28931
1439.5,1.336516,621113,28619
1442.72,1.330938,620921,28980
1445.94,1.336655,620270,28571
1450.23,1.340144,618860,28278
1453.44,1.329397,617697,28932
1456.64,1.332445,616264,28663
1459.85,1.338442,614413,28185
1463.04,1.337784,612307,28131
1466.24,1.334857,610032,28216
1469.43,1.337023,607345,27952
1473.67,1.333991,603789,27983
1476.85,1.335879,601175,27741
1480.02,1.340841,597737,27269
1483.19,1.335262,594479,27471
1486.36,1.344564,591232,26742
1489.52,1.335435,587853,27154
1492.68,1.336422,583875,26909
1496.89,1.338041,578062,26542
1500.03,1.333710,574159,26627
1503.18,1.339868,570285,26075
1506.32,1.338169,565444,25955
1509.45,1.332490,560571,26070
1512.58,1.342811,555821,25242
1515.71,1.340234,550344,25142
1519.87,1.335203,543983,25141
1522.99,1.338842,538764,24692
1526.1,1.334225,533692,24721
1529.21,1.337412,527902,24274
1532.32,1.338361,521886,23945
1535.42,1.338192,515888,23679
1538.51,1.334298,509987,23619
1541.6,1.331363,503936,23497
1545.72,1.330480,494694,23113
1548.8,1.334917,488378,22586
1551.88,1.336152,481832,22220
1554.95,1.338885,474989,21767
1558.02,1.328583,467818,21953
1561.08,1.344445,460730,20845
1564.15,1.337925,454170,20859
1568.22,1.335637,444181,20508
1571.27,1.326625,436947,20597
1574.32,1.340762,429598,19602
1577.36,1.327855,422039,19838
1580.4,1.332647,414375,19264
1583.43,1.337202,406354,18694
1586.46,1.322952,398475,18943
1590.49,1.324192,388982,18439
1593.51,1.330367,380708,17792
1596.53,1.334980,372727,17235
1599.54,1.329063,365060,17112
1602.55,1.330092,357543,16720
1605.55,1.323909,349495,16578
1608.55,1.324402,341154,16164
1612.54,1.326681,330877,15595
1615.53,1.320370,322904,15442
1618.51,1.315087,315116,15254
1621.49,1.335861,307217,14177
1624.47,1.328848,299481,14045
1627.44,1.323348,292112,13874
1630.41,1.315643,284245,13742
1634.36,1.312297,274079,13353
1637.32,1.313803,266916,12959
1640.27,1.319609,259612,12437
1643.22,1.312501,251804,12262
1646.16,1.321832,244348,11646
1649.1,1.315209,236703,11455
1652.04,1.296168,228171,11537
1655.95,1.290804,215408,11027
1658.88,1.279889,204937,10758
1661.8,1.287707,193395,9971
1664.72,1.291773,179728,9180
1667.63,1.267295,163642,8843
1670.54,1.257278,146312,8091
1673.44,1.263019,128451,7010
1677.31,1.202569,105080,6591
1680.21,1.209992,88906,5482
1683.1,1.241582,75033,4302
1685.99,1.211735,63520,3901
1688.87,1.190384,53714,3465
1691.75,1.209066,45653,2821
1694.62,1.269129,39137,2106
1697.49,1.253989,33776,1882
1701.31,1.316325,28175,1360