File: ML/samples/unknown/Column 1_078572_20241121_170917.csv
Method:,Column 1,,
Host Date-Time:,21/11/24 @ 17:9:17,,
Header Version:,1,,
System Temp (C):,36.23,,
Detector Temp (C):,34.54,,
Humidity (%):,1.17,,
Lamp PD:,3798,,
Shift Vector Coefficients:,-10.5391,0.0761263,-0.000134223,,
Pixel to Wavelength Coefficients:,1775.68,-0.916766,-0.000235065,,
Serial Number:,5510004,,
Scan Config Name:,Column 1,,
Scan Config Type:,Slew,,
Section 1,,
Start wavelength (nm):,900,,
End wavelength (nm):,1700,,
Pattern Pixel Width (nm):,   7.03,,,,
Exposure (ms):,  0.635,,,,
Digital Resolution:,228,,
Num Repeats:,6,,
PGA Gain:,64,,
Total Measurement Time in sec:,  2.728,,
Wavelength (nm),Absorbance (AU),Reference Signal (unitless),Sample Signal (unitless)
901.51,1.309376,108485,5321
905.376,1.311047,121306,5927
909.237,1.319214,131909,6325
913.095,1.316639,143299,6912
916.948,1.331279,156982,7321
922.079,1.330945,179937,8398
925.923,1.315262,200504,9702
929.762,1.314017,222660,10805
933.597,1.310816,244426,11949
937.427,1.325274,263972,12482
941.254,1.312910,281845,13712
945.076,1.324920,297271,14068
950.165,1.313658,315605,15328
953.978,1.320760,328029,15673
957.786,1.300405,340470,17048
961.59,1.304044,352317,17494
965.389,1.303160,363056,18064
969.185,1.312949,373162,18153
972.976,1.301134,382632,19127
976.763,1.300899,391202,19566
981.806,1.314218,400190,19411
985.583,1.303075,406088,20209
989.355,1.305395,410162,20303
993.124,1.302746,412868,20562
996.888,1.297255,414263,20894
1000.65,1.299482,415476,20848
1004.4,1.302789,415479,20690
1009.41,1.305919,414358,20486
1013.15,1.304582,412923,20478
1016.89,1.303046,411526,20481
1020.63,1.305561,409066,20241
1024.36,1.308739,406777,19981
1028.09,1.306266,404427,19979
1031.82,1.307223,401911,19811
1036.78,1.306371,398410,19677
1040.49,1.308575,396204,19469
1044.2,1.306457,394236,19467
1047.91,1.305822,392042,19387
1051.61,1.308223,389823,19171
1055.31,1.306789,388234,19156
1059,1.306668,387599,19130
1063.92,1.320424,386688,18490
1067.61,1.304071,386598,19195
1071.29,1.317898,387377,18631
1074.96,1.304257,388536,19283
1078.63,1.312653,389855,18978
1082.3,1.304882,391215,19388
1085.96,1.318559,393215,18883
1090.84,1.309094,396270,19449
1094.49,1.309876,398760,19536
1098.14,1.302774,400987,19969
1101.79,1.304897,403477,19995
1105.43,1.314426,406116,19689
1109.06,1.316913,407701,19653
1112.7,1.312888,409859,19941
1117.53,1.316259,412494,19914
1121.15,1.318511,414909,19927
1124.77,1.312523,416559,20284
1128.38,1.314211,418532,20301
1131.99,1.310329,419956,20553
1135.6,1.310505,421946,20642
1139.2,1.322151,423881,20188
1143.99,1.309524,426786,20926
1147.58,1.319532,428617,20537
1151.17,1.315021,431169,20875
1154.75,1.312930,433579,21093
1158.33,1.317530,436264,21000
1161.91,1.311816,439132,21418
1165.48,1.309545,442389,21690
1169.04,1.317177,446101,21491
1173.79,1.315142,451929,21874
1177.34,1.310568,456026,22306
1180.9,1.310939,461306,22545
1184.44,1.317089,467657,22534
1187.99,1.307537,473969,23346
1191.52,1.318666,479856,23038
1195.06,1.319574,487372,23350
1199.76,1.322388,497347,23674
1203.29,1.314739,504311,24432
1206.81,1.311868,511507,24945
1210.33,1.317640,519078,24980
1213.84,1.318378,527163,25326
1217.35,1.321187,534208,25499
1220.85,1.324975,540472,25574
1225.51,1.318884,549929,26389
1229.01,1.311790,556888,27163
1232.5,1.317195,562180,27082
1235.98,1.318835,567975,27258
1239.46,1.324512,574815,27228
1242.94,1.322212,582782,27752
1246.41,1.311566,591476,28865
1251.03,1.320136,604016,28901
1254.5,1.317665,612289,29464
1257.96,1.328423,619125,29064
1261.41,1.322227,624551,29740
1264.86,1.329096,629900,29524
1268.31,1.321988,634345,30223
1271.75,1.324701,638574,30235
1276.33,1.322421,642499,30581
1279.76,1.322154,645905,30762
1283.19,1.333286,648307,30095
1286.61,1.321695,650446,31011
1290.03,1.324026,652132,30925
1293.44,1.321932,653907,31159
1296.85,1.331413,655963,30582
1301.39,1.326560,657349,30991
1304.8,1.325020,657558,31111
1308.19,1.323799,658515,31244
1311.58,1.324212,658804,31228
1314.97,1.324404,659011,31224
1318.36,1.331805,658272,30662
1321.73,1.322252,658022,31332
1326.23,1.330380,657870,30744
1329.6,1.326576,656482,30949
1332.97,1.327205,654926,30831
1336.33,1.328315,653727,30696
1339.69,1.325746,652497,30820
1343.04,1.328100,649913,30532
1346.39,1.326628,647671,30530
1349.73,1.328717,645338,30274
1354.18,1.321000,641175,30618
1357.52,1.323605,638376,30302
1360.85,1.321208,635805,30347
1364.17,1.320545,633413,30279
1367.49,1.328081,631026,29646
1370.81,1.317887,628050,30207
1374.12,1.328769,625034,29318
1378.54,1.318745,620272,29774
1381.84,1.322719,616892,29342
1385.14,1.324285,613613,29081
1388.43,1.324721,611526,28953
1391.72,1.319913,610663,29234
1395.01,1.318750,610634,29311
1398.29,1.323632,611700,29034
1402.66,1.323924,614051,29126
1405.93,1.326175,616268,29080
1409.2,1.326191,617795,29151
1412.46,1.328649,618872,29037
1415.72,1.327237,619795,29175
1418.98,1.328890,620495,29097
1422.23,1.323183,621087,29510
1426.56,1.330327,621375,29042
1429.8,1.332159,621616,28931
1433.04,1.328631,622129,29191
1436.27,1.326088,621526,29334
1439.5,1.327594,621113,29213
1442.72,1.328860,620921,29119
1445.94,1.327347,620270,29190
1450.23,1.331251,618860,28863
1453.44,1.334136,617697,28618
1456.64,1.327114,616264,29017
1459.85,1.327052,614413,28934
1463.04,1.330831,612307,28585
1466.24,1.328471,610032,28634
1469.43,1.334204,607345,28134
1473.67,1.330513,603789,28208
1476.85,1.329445,601175,28155
1480.02,1.333701,597737,27721
1483.19,1.332756,594479,27630
1486.36,1.332346,591232,27505
1489.52,1.335387,587853,27157
1492.68,1.333976,583875,27061
1496.89,1.332061,578062,26910
1500.03,1.336393,574159,26463
1503.18,1.332502,570285,26521
1506.32,1.332963,565444,26268
1509.45,1.336624,560571,25823
1512.58,1.328761,555821,26072
1515.71,1.332089,550344,25618
1519.87,1.328569,543983,25528
1522.99,1.331431,538764,25117
1526.1,1.337575,533692,24531
1529.21,1.330085,527902,24687
1532.32,1.331112,521886,24348
1535.42,1.328238,515888,24228
1538.51,1.331183,509987,23789
1541.6,1.334275,503936,23340
1545.72,1.321793,494694,23580
1548.8,1.335148,488378,22574
1551.88,1.323364,481832,22884
1554.95,1.332232,474989,22103
1558.02,1.329593,467818,21902
1561.08,1.326427,460730,21728
1564.15,1.338404,454170,20836
1568.22,1.338718,444181,20363
1571.27,1.338033,436947,20063
1574.32,1.334755,429598,19875
1577.36,1.326871,422039,19883
1580.4,1.326602,414375,19534
1583.43,1.327371,406354,19122
1586.46,1.333159,398475,18503
1590.49,1.323345,388982,18475
1593.51,1.325030,380708,18012
1596.53,1.316360,372727,17990
1599.54,1.324368,365060,17298
1602.55,1.326806,357543,16847
1605.55,1.328385,349495,16408
1608.55,1.318902,341154,16370
1612.54,1.330036,330877,15475
1615.53,1.327487,322904,15191
1618.51,1.315885,315116,15226
1621.49,1.321578,307217,14651
1624.47,1.316021,299481,14466
1627.44,1.314057,292112,14174
1630.41,1.311930,284245,13860
1634.36,1.320604,274079,13100
1637.32,1.303831,266916,13260
1640.27,1.307556,259612,12787
1643.22,1.309572,251804,12345
1646.16,1.314510,244348,11844
1649.1,1.306724,236703,11681
1652.04,1.300518,228171,11422
1655.95,1.291435,215408,11011
1658.88,1.290224,204937,10505
1661.8,1.282812,193395,10084
1664.72,1.273250,179728,9580
1667.63,1.257342,163642,9048
1670.54,1.235759,146312,8502
1673.44,1.217033,128451,7793
1677.31,1.202042,105080,6599
1680.21,1.184083,88906,5819
1683.1,1.157499,75033,5221
1685.99,1.104288,63520,4996
1688.87,1.172701,53714,3609
1691.75,1.166569,45653,3111
1694.62,1.190842,39137,2522
1697.49,1.217490,33776,2047
1701.31,1.202627,28175,1767