File: ML/samples/unknown/Column 1_078056_20241121_164319.csv
Method:,Column 1,,
Host Date-Time:,21/11/24 @ 16:43:19,,
Header Version:,1,,
System Temp (C):,31.1,,
Detector Temp (C):,25.86,,
Humidity (%):,5.37,,
Lamp PD:,3810,,
Shift Vector Coefficients:,-10.5391,0.0761263,-0.000134223,,
Pixel to Wavelength Coefficients:,1775.68,-0.916766,-0.000235065,,
Serial Number:,5510004,,
Scan Config Name:,Column 1,,
Scan Config Type:,Slew,,
Section 1,,
Start wavelength (nm):,900,,
End wavelength (nm):,1700,,
Pattern Pixel Width (nm):,   7.03,,,,
Exposure (ms):,  0.635,,,,
Digital Resolution:,228,,
Num Repeats:,6,,
PGA Gain:,64,,
Total Measurement Time in sec:,  2.708,,
Wavelength (nm),Absorbance (AU),Reference Signal (unitless),Sample Signal (unitless)
901.51,1.287027,108485,5602
905.376,1.319781,121306,5809
909.237,1.314366,131909,6396
913.095,1.292266,143299,7311
916.948,1.309303,156982,7701
922.079,1.302086,179937,8975
925.923,1.321166,200504,9571
929.762,1.301694,222660,11116
933.597,1.299020,244426,12278
937.427,1.285281,263972,13686
941.254,1.302767,281845,14036
945.076,1.320895,297271,14199
950.165,1.308392,315605,15515
953.978,1.318632,328029,15750
957.786,1.302064,340470,16983
961.59,1.302558,352317,17554
965.389,1.306708,363056,17917
969.185,1.307954,373162,18363
972.976,1.305012,382632,18957
976.763,1.306237,391202,19327
981.806,1.310121,400190,19595
985.583,1.300227,406088,20342
989.355,1.313819,410162,19913
993.124,1.309022,412868,20267
996.888,1.306031,414263,20476
1000.65,1.313302,415476,20195
1004.4,1.305716,415479,20551
1009.41,1.303551,414358,20598
1013.15,1.308074,412923,20314
1016.89,1.307822,411526,20257
1020.63,1.307971,409066,20129
1024.36,1.312056,406777,19829
1028.09,1.307769,404427,19910
1031.82,1.314407,401911,19486
1036.78,1.306349,398410,19678
1040.49,1.300552,396204,19832
1044.2,1.307015,394236,19442
1047.91,1.306225,392042,19369
1051.61,1.307928,389823,19184
1055.31,1.313990,388234,18841
1059,1.310773,387599,18950
1063.92,1.308105,386688,19022
1067.61,1.311396,386598,18874
1071.29,1.303297,387377,19268
1074.96,1.312349,388536,18927
1078.63,1.310712,389855,19063
1082.3,1.303831,391215,19435
1085.96,1.306180,393215,19429
1090.84,1.317709,396270,19067
1094.49,1.308721,398760,19588
1098.14,1.315351,400987,19399
1101.79,1.313563,403477,19600
1105.43,1.317726,406116,19540
1109.06,1.309464,407701,19993
1112.7,1.312866,409859,19942
1117.53,1.308478,412494,20274
1121.15,1.316988,414909,19997
1124.77,1.315401,416559,20150
1128.38,1.313762,418532,20322
1131.99,1.310540,419956,20543
1135.6,1.324183,421946,20002
1139.2,1.308263,423881,20844
1143.99,1.311083,426786,20851
1147.58,1.325194,428617,20271
1151.17,1.313236,431169,20961
1154.75,1.312950,433579,21092
1158.33,1.311227,436264,21307
1161.91,1.319302,439132,21052
1165.48,1.309985,442389,21668
1169.04,1.316692,446101,21515
1173.79,1.320999,451929,21581
1177.34,1.315187,456026,22070
1180.9,1.307963,461306,22700
1184.44,1.309713,467657,22920
1187.99,1.326492,473969,22349
1191.52,1.318289,479856,23058
1195.06,1.317033,487372,23487
1199.76,1.319754,497347,23818
1203.29,1.314615,504311,24439
1206.81,1.323549,511507,24283
1210.33,1.324545,519078,24586
1213.84,1.323606,527163,25023
1217.35,1.317676,534208,25706
1220.85,1.319893,540472,25875
1225.51,1.320367,549929,26299
1229.01,1.322293,556888,26514
1232.5,1.321287,562180,26828
1235.98,1.321665,567975,27081
1239.46,1.323143,574815,27314
1242.94,1.319591,582782,27920
1246.41,1.320350,591476,28287
1251.03,1.323061,604016,28707
1254.5,1.322080,612289,29166
1257.96,1.316994,619125,29839
1261.41,1.323529,624551,29651
1264.86,1.326471,629900,29703
1268.31,1.326887,634345,29884
1271.75,1.323396,638574,30326
1276.33,1.329061,642499,30117
1279.76,1.324348,645905,30607
1283.19,1.329966,648307,30326
1286.61,1.320926,650446,31066
1290.03,1.335336,652132,30130
1293.44,1.321696,653907,31176
1296.85,1.322252,655963,31234
1301.39,1.329725,657349,30766
1304.8,1.330555,657558,30717
1308.19,1.327933,658515,30948
1311.58,1.331476,658804,30710
1314.97,1.326593,659011,31067
1318.36,1.330221,658272,30774
1321.73,1.329633,658022,30804
1326.23,1.324849,657870,31138
1329.6,1.327728,656482,30867
1332.97,1.331437,654926,30532
1336.33,1.330428,653727,30547
1339.69,1.328191,652497,30647
1343.04,1.329739,649913,30417
1346.39,1.328609,647671,30391
1349.73,1.328029,645338,30322
1354.18,1.330406,641175,29962
1357.52,1.327420,638376,30037
1360.85,1.322871,635805,30231
1364.17,1.328448,633413,29733
1367.49,1.333239,631026,29296
1370.81,1.320367,628050,30035
1374.12,1.323615,625034,29668
1378.54,1.325329,620272,29326
1381.84,1.324945,616892,29192
1385.14,1.322973,613613,29169
1388.43,1.329305,611526,28649
1391.72,1.320047,610663,29225
1395.01,1.327249,610634,28743
1398.29,1.327568,611700,28772
1402.66,1.328842,614051,28798
1405.93,1.326071,616268,29087
1409.2,1.329841,617795,28907
1412.46,1.327753,618872,29097
1415.72,1.327565,619795,29153
1418.98,1.332036,620495,28887
1422.23,1.324392,621087,29428
1426.56,1.335003,621375,28731
1429.8,1.332880,621616,28883
1433.04,1.339569,622129,28465
1436.27,1.332697,621526,28891
1439.5,1.332468,621113,28887
1442.72,1.327505,620921,29210
1445.94,1.336124,620270,28606
1450.23,1.336336,618860,28527
1453.44,1.333848,617697,28637
1456.64,1.331265,616264,28741
1459.85,1.333616,614413,28500
1463.04,1.335244,612307,28296
1466.24,1.329762,610032,28549
1469.43,1.332817,607345,28224
1473.67,1.341300,603789,27516
1476.85,1.324400,601175,28484
1480.02,1.333169,597737,27755
1483.19,1.330264,594479,27789
1486.36,1.334959,591232,27340
1489.52,1.339888,587853,26877
1492.68,1.339679,583875,26708
1496.89,1.335544,578062,26695
1500.03,1.332846,574159,26680
1503.18,1.336715,570285,26265
1506.32,1.334536,565444,26173
1509.45,1.334996,560571,25920
1512.58,1.338497,555821,25494
1515.71,1.336879,550344,25337
1519.87,1.341186,543983,24797
1522.99,1.339917,538764,24631
1526.1,1.333540,533692,24760
1529.21,1.330719,527902,24651
1532.32,1.341364,521886,23780
1535.42,1.336947,515888,23747
1538.51,1.352472,509987,22651
1541.6,1.323832,503936,23908
1545.72,1.327932,494694,23249
1548.8,1.330307,488378,22827
1551.88,1.337875,481832,22132
1554.95,1.330252,474989,22204
1558.02,1.330944,467818,21834
1561.08,1.338526,460730,21131
1564.15,1.331580,454170,21166
1568.22,1.336378,444181,20473
1571.27,1.330948,436947,20393
1574.32,1.326123,429598,20274
1577.36,1.327833,422039,19839
1580.4,1.328630,414375,19443
1583.43,1.334146,406354,18826
1586.46,1.334758,398475,18435
1590.49,1.332971,388982,18070
1593.51,1.327084,380708,17927
1596.53,1.333797,372727,17282
1599.54,1.322065,365060,17390
1602.55,1.329677,357543,16736
1605.55,1.325562,349495,16515
1608.55,1.321003,341154,16291
1612.54,1.321394,330877,15786
1615.53,1.326459,322904,15227
1618.51,1.315742,315116,15231
1621.49,1.321371,307217,14658
1624.47,1.323653,299481,14214
1627.44,1.317904,292112,14049
1630.41,1.321241,284245,13566
1634.36,1.312980,274079,13332
1637.32,1.314810,266916,12929
1640.27,1.319854,259612,12430
1643.22,1.310981,251804,12305
1646.16,1.301009,244348,12218
1649.1,1.315474,236703,11448
1652.04,1.309974,228171,11176
1655.95,1.305382,215408,10663
1658.88,1.326329,204937,9667
1661.8,1.334574,193395,8951
1664.72,1.317549,179728,8651
1667.63,1.317699,163642,7874
1670.54,1.324797,146312,6926
1673.44,1.290116,128451,6586
1677.31,1.285203,105080,5449
1680.21,1.285230,88906,4610
1683.1,1.331805,75033,3495
1685.99,1.311269,63520,3102
1688.87,1.326967,53714,2530
1691.75,1.300583,45653,2285
1694.62,1.236753,39137,2269
1697.49,1.394112,33776,1363
1701.31,1.294832,28175,1429