File: ML/samples/unknown/Column 1_078107_20241121_164548.csv
Method:,Column 1,,
Host Date-Time:,21/11/24 @ 16:45:48,,
Header Version:,1,,
System Temp (C):,32.5,,
Detector Temp (C):,27.78,,
Humidity (%):,4.01,,
Lamp PD:,3807,,
Shift Vector Coefficients:,-10.5391,0.0761263,-0.000134223,,
Pixel to Wavelength Coefficients:,1775.68,-0.916766,-0.000235065,,
Serial Number:,5510004,,
Scan Config Name:,Column 1,,
Scan Config Type:,Slew,,
Section 1,,
Start wavelength (nm):,900,,
End wavelength (nm):,1700,,
Pattern Pixel Width (nm):,   7.03,,,,
Exposure (ms):,  0.635,,,,
Digital Resolution:,228,,
Num Repeats:,6,,
PGA Gain:,64,,
Total Measurement Time in sec:,  2.705,,
Wavelength (nm),Absorbance (AU),Reference Signal (unitless),Sample Signal (unitless)
901.51,1.307910,108485,5339
905.376,1.308053,121306,5968
909.237,1.300533,131909,6603
913.095,1.307254,143299,7063
916.948,1.323635,156982,7451
922.079,1.309750,179937,8818
925.923,1.308334,200504,9858
929.762,1.311453,222660,10869
933.597,1.304609,244426,12121
937.427,1.307815,263972,12994
941.254,1.315674,281845,13625
945.076,1.316603,297271,14340
950.165,1.297365,315605,15914
953.978,1.306370,328029,16201
957.786,1.314200,340470,16515
961.59,1.311607,352317,17192
965.389,1.301815,363056,18120
969.185,1.316432,373162,18008
972.976,1.311846,382632,18661
976.763,1.308896,391202,19209
981.806,1.308793,400190,19655
985.583,1.306181,406088,20065
989.355,1.304114,410162,20363
993.124,1.303951,412868,20505
996.888,1.302798,414263,20629
1000.65,1.303521,415476,20655
1004.4,1.311610,415479,20274
1009.41,1.309132,414358,20335
1013.15,1.313365,412923,20068
1016.89,1.312413,411526,20044
1020.63,1.313923,409066,19855
1024.36,1.308696,406777,19983
1028.09,1.309758,404427,19819
1031.82,1.303426,401911,19985
1036.78,1.315696,398410,19259
1040.49,1.313398,396204,19254
1044.2,1.313225,394236,19166
1047.91,1.307483,392042,19313
1051.61,1.311497,389823,19027
1055.31,1.316927,388234,18714
1059,1.310338,387599,18969
1063.92,1.323441,386688,18362
1067.61,1.310086,386598,18931
1071.29,1.310525,387377,18950
1074.96,1.314973,388536,18813
1078.63,1.313500,389855,18941
1082.3,1.315426,391215,18923
1085.96,1.312167,393215,19163
1090.84,1.317891,396270,19059
1094.49,1.313806,398760,19360
1098.14,1.324148,400987,19010
1101.79,1.306399,403477,19926
1105.43,1.315619,406116,19635
1109.06,1.320352,407701,19498
1112.7,1.313280,409859,19923
1117.53,1.313238,412494,20053
1121.15,1.316359,414909,20026
1124.77,1.325850,416559,19671
1128.38,1.315647,418532,20234
1131.99,1.323152,419956,19955
1135.6,1.316756,421946,20347
1139.2,1.328042,423881,19916
1143.99,1.312627,426786,20777
1147.58,1.313047,428617,20846
1151.17,1.327644,431169,20277
1154.75,1.322274,433579,20644
1158.33,1.319084,436264,20925
1161.91,1.312791,439132,21370
1165.48,1.322408,442389,21057
1169.04,1.319344,446101,21384
1173.79,1.321462,451929,21558
1177.34,1.312656,456026,22199
1180.9,1.318459,461306,22158
1184.44,1.323047,467657,22227
1187.99,1.319112,473969,22732
1191.52,1.322073,479856,22858
1195.06,1.317736,487372,23449
1199.76,1.319554,497347,23829
1203.29,1.315095,504311,24412
1206.81,1.323174,511507,24304
1210.33,1.328431,519078,24367
1213.84,1.328475,527163,24744
1217.35,1.330274,534208,24971
1220.85,1.321473,540472,25781
1225.51,1.327309,549929,25882
1229.01,1.324757,556888,26364
1232.5,1.318640,562180,26992
1235.98,1.319537,567975,27214
1239.46,1.322174,574815,27375
1242.94,1.321055,582782,27826
1246.41,1.322968,591476,28117
1251.03,1.326722,604016,28466
1254.5,1.321157,612289,29228
1257.96,1.326574,619125,29188
1261.41,1.324071,624551,29614
1264.86,1.327027,629900,29665
1268.31,1.325146,634345,30004
1271.75,1.326010,638574,30144
1276.33,1.326616,642499,30287
1279.76,1.326253,645905,30473
1283.19,1.338046,648307,29767
1286.61,1.332974,650446,30216
1290.03,1.326900,652132,30721
1293.44,1.331430,653907,30485
1296.85,1.329699,655963,30703
1301.39,1.333453,657349,30503
1304.8,1.331461,657558,30653
1308.19,1.331526,658515,30693
1311.58,1.329910,658804,30821
1314.97,1.329398,659011,30867
1318.36,1.331777,658272,30664
1321.73,1.329056,658022,30845
1326.23,1.328350,657870,30888
1329.6,1.333750,656482,30442
1332.97,1.332263,654926,30474
1336.33,1.325846,653727,30871
1339.69,1.324002,652497,30944
1343.04,1.330196,649913,30385
1346.39,1.329668,647671,30317
1349.73,1.331668,645338,30069
1354.18,1.325606,641175,30295
1357.52,1.330147,638376,29849
1360.85,1.327711,635805,29896
1364.17,1.330102,633413,29620
1367.49,1.327832,631026,29663
1370.81,1.332448,628050,29211
1374.12,1.329303,625034,29282
1378.54,1.333869,620272,28755
1381.84,1.331450,616892,28758
1385.14,1.324300,613613,29080
1388.43,1.329548,611526,28633
1391.72,1.327451,610663,28731
1395.01,1.330723,610634,28514
1398.29,1.321215,611700,29196
1402.66,1.328465,614051,28823
1405.93,1.328661,616268,28914
1409.2,1.330172,617795,28885
1412.46,1.331305,618872,28860
1415.72,1.337800,619795,28474
1418.98,1.328115,620495,29149
1422.23,1.331669,621087,28939
1426.56,1.326946,621375,29269
1429.8,1.332354,621616,28918
1433.04,1.333464,622129,28868
1436.27,1.333841,621526,28815
1439.5,1.334321,621113,28764
1442.72,1.334822,620921,28722
1445.94,1.333913,620270,28752
1450.23,1.334847,618860,28625
1453.44,1.336266,617697,28478
1456.64,1.335776,616264,28444
1459.85,1.336198,614413,28331
1463.04,1.338603,612307,28078
1466.24,1.334903,610032,28213
1469.43,1.331956,607345,28280
1473.67,1.331068,603789,28172
1476.85,1.332728,601175,27943
1480.02,1.334219,597737,27688
1483.19,1.333133,594479,27606
1486.36,1.335675,591232,27295
1489.52,1.342936,587853,26689
1492.68,1.340199,583875,26676
1496.89,1.333564,578062,26817
1500.03,1.334804,574159,26560
1503.18,1.333338,570285,26470
1506.32,1.342000,565444,25727
1509.45,1.338512,560571,25711
1512.58,1.338514,555821,25493
1515.71,1.336485,550344,25360
1519.87,1.330512,543983,25414
1522.99,1.341153,538764,24561
1526.1,1.331423,533692,24881
1529.21,1.344083,527902,23904
1532.32,1.338833,521886,23919
1535.42,1.333649,515888,23928
1538.51,1.337379,509987,23452
1541.6,1.330883,503936,23523
1545.72,1.336383,494694,22801
1548.8,1.336284,488378,22515
1551.88,1.331312,481832,22469
1554.95,1.339025,474989,21760
1558.02,1.336227,467818,21570
1561.08,1.336988,460730,21206
1564.15,1.333863,454170,21055
1568.22,1.321409,444181,21191
1571.27,1.329842,436947,20445
1574.32,1.328830,429598,20148
1577.36,1.335184,422039,19506
1580.4,1.329816,414375,19390
1583.43,1.330402,406354,18989
1586.46,1.325297,398475,18841
1590.49,1.322781,388982,18499
1593.51,1.340767,380708,17371
1596.53,1.327634,372727,17529
1599.54,1.320196,365060,17465
1602.55,1.329832,357543,16730
1605.55,1.328332,349495,16410
1608.55,1.335119,341154,15770
1612.54,1.328383,330877,15534
1615.53,1.334694,322904,14941
1618.51,1.326422,315116,14861
1621.49,1.327187,307217,14463
1624.47,1.325766,299481,14145
1627.44,1.318677,292112,14024
1630.41,1.330201,284245,13289
1634.36,1.319909,274079,13121
1637.32,1.328528,266916,12527
1640.27,1.329248,259612,12164
1643.22,1.311864,251804,12280
1646.16,1.319971,244348,11696
1649.1,1.310345,236703,11584
1652.04,1.325883,228171,10774
1655.95,1.312693,215408,10485
1658.88,1.311143,204937,10011
1661.8,1.313410,193395,9398
1664.72,1.288850,179728,9242
1667.63,1.294555,163642,8305
1670.54,1.288716,146312,7526
1673.44,1.293625,128451,6533
1677.31,1.254810,105080,5844
1680.21,1.246932,88906,5035
1683.1,1.253246,75033,4188
1685.99,1.223813,63520,3794
1688.87,1.284017,53714,2793
1691.75,1.305745,45653,2258
1694.62,1.236753,39137,2269
1697.49,1.379081,33776,1411
1701.31,1.143010,28175,2027