File: ML/samples/unknown/Column 1_078599_20241121_171037.csv
Method:,Column 1,,
Host Date-Time:,21/11/24 @ 17:10:37,,
Header Version:,1,,
System Temp (C):,36.93,,
Detector Temp (C):,34.91,,
Humidity (%):,1.08,,
Lamp PD:,3798,,
Shift Vector Coefficients:,-10.5391,0.0761263,-0.000134223,,
Pixel to Wavelength Coefficients:,1775.68,-0.916766,-0.000235065,,
Serial Number:,5510004,,
Scan Config Name:,Column 1,,
Scan Config Type:,Slew,,
Section 1,,
Start wavelength (nm):,900,,
End wavelength (nm):,1700,,
Pattern Pixel Width (nm):,   7.03,,,,
Exposure (ms):,  0.635,,,,
Digital Resolution:,228,,
Num Repeats:,6,,
PGA Gain:,64,,
Total Measurement Time in sec:,  2.724,,
Wavelength (nm),Absorbance (AU),Reference Signal (unitless),Sample Signal (unitless)
901.51,1.311176,108485,5299
905.376,1.322932,121306,5767
909.237,1.308833,131909,6478
913.095,1.332443,143299,6665
916.948,1.327970,156982,7377
922.079,1.333278,179937,8353
925.923,1.323943,200504,9510
929.762,1.309102,222660,10928
933.597,1.302857,244426,12170
937.427,1.322395,263972,12565
941.254,1.329733,281845,13191
945.076,1.315212,297271,14386
950.165,1.322185,315605,15030
953.978,1.310762,328029,16038
957.786,1.312337,340470,16586
961.59,1.308913,352317,17299
965.389,1.315054,363056,17576
969.185,1.305360,373162,18473
972.976,1.319216,382632,18347
976.763,1.301632,391202,19533
981.806,1.314666,400190,19391
985.583,1.306787,406088,20037
989.355,1.306766,410162,20239
993.124,1.311127,412868,20169
996.888,1.312183,414263,20188
1000.65,1.305143,415476,20578
1004.4,1.314274,415479,20150
1009.41,1.301217,414358,20709
1013.15,1.312435,412923,20111
1016.89,1.314890,411526,19930
1020.63,1.307928,409066,20131
1024.36,1.302931,406777,20250
1028.09,1.307137,404427,19939
1031.82,1.318033,401911,19324
1036.78,1.305908,398410,19698
1040.49,1.304092,396204,19671
1044.2,1.323566,394236,18715
1047.91,1.308068,392042,19287
1051.61,1.311041,389823,19047
1055.31,1.313299,388234,18871
1059,1.306169,387599,19152
1063.92,1.305373,386688,19142
1067.61,1.306067,386598,19107
1071.29,1.300556,387377,19390
1074.96,1.314396,388536,18838
1078.63,1.319526,389855,18680
1082.3,1.310632,391215,19133
1085.96,1.311261,393215,19203
1090.84,1.310817,396270,19372
1094.49,1.316371,398760,19246
1098.14,1.308532,400987,19706
1101.79,1.311308,403477,19702
1105.43,1.312687,406116,19768
1109.06,1.325663,407701,19261
1112.7,1.312061,409859,19979
1117.53,1.308371,412494,20279
1121.15,1.320521,414909,19835
1124.77,1.311967,416559,20310
1128.38,1.319290,418532,20065
1131.99,1.309042,419956,20614
1135.6,1.314585,421946,20449
1139.2,1.322646,423881,20165
1143.99,1.321817,426786,20342
1147.58,1.312984,428617,20849
1151.17,1.324656,431169,20417
1154.75,1.310896,433579,21192
1158.33,1.325292,436264,20628
1161.91,1.316464,439132,21190
1165.48,1.306095,442389,21863
1169.04,1.308731,446101,21913
1173.79,1.313952,451929,21934
1177.34,1.321770,456026,21738
1180.9,1.318184,461306,22172
1184.44,1.314955,467657,22645
1187.99,1.309439,473969,23244
1191.52,1.319043,479856,23018
1195.06,1.319183,487372,23371
1199.76,1.344709,497347,22488
1203.29,1.324755,504311,23875
1206.81,1.321159,511507,24417
1210.33,1.318702,519078,24919
1213.84,1.317060,527163,25403
1217.35,1.320524,534208,25538
1220.85,1.319004,540472,25928
1225.51,1.321028,549929,26259
1229.01,1.317131,556888,26831
1232.5,1.319139,562180,26961
1235.98,1.320895,567975,27129
1239.46,1.318304,574815,27620
1242.94,1.323717,582782,27656
1246.41,1.320243,591476,28294
1251.03,1.324591,604016,28606
1254.5,1.321633,612289,29196
1257.96,1.323697,619125,29382
1261.41,1.325820,624551,29495
1264.86,1.325931,629900,29740
1268.31,1.324683,634345,30036
1271.75,1.322209,638574,30409
1276.33,1.323587,642499,30499
1279.76,1.320688,645905,30866
1283.19,1.326187,648307,30591
1286.61,1.328015,650446,30563
1290.03,1.320641,652132,31167
1293.44,1.332842,653907,30386
1296.85,1.325336,655963,31013
1301.39,1.324324,657349,31151
1304.8,1.329045,657558,30824
1308.19,1.326127,658515,31077
1311.58,1.331307,658804,30722
1314.97,1.327909,659011,30973
1318.36,1.323222,658272,31274
1321.73,1.326613,658022,31019
1326.23,1.329956,657870,30774
1329.6,1.326436,656482,30959
1332.97,1.329181,654926,30691
1336.33,1.329576,653727,30607
1339.69,1.325267,652497,30854
1343.04,1.332460,649913,30227
1346.39,1.327995,647671,30434
1349.73,1.331408,645338,30087
1354.18,1.329334,641175,30036
1357.52,1.324222,638376,30259
1360.85,1.329954,635805,29742
1364.17,1.326903,633413,29839
1367.49,1.325918,631026,29794
1370.81,1.326277,628050,29629
1374.12,1.328162,625034,29359
1378.54,1.326620,620272,29239
1381.84,1.330786,616892,28802
1385.14,1.322437,613613,29205
1388.43,1.319785,611526,29284
1391.72,1.326650,610663,28784
1395.01,1.319967,610634,29229
1398.29,1.322944,611700,29080
1402.66,1.329899,614051,28728
1405.93,1.330272,616268,28807
1409.2,1.325075,617795,29226
1412.46,1.327902,618872,29087
1415.72,1.331065,619795,28919
1418.98,1.327936,620495,29161
1422.23,1.331459,621087,28953
1426.56,1.338951,621375,28471
1429.8,1.331199,621616,28995
1433.04,1.328914,622129,29172
1436.27,1.332862,621526,28880
1439.5,1.332814,621113,28864
1442.72,1.324025,620921,29445
1445.94,1.329824,620270,29024
1450.23,1.338764,618860,28368
1453.44,1.329953,617697,28895
1456.64,1.335349,616264,28472
1459.85,1.331882,614413,28614
1463.04,1.333911,612307,28383
1466.24,1.330858,610032,28477
1469.43,1.331910,607345,28283
1473.67,1.327292,603789,28418
1476.85,1.326448,601175,28350
1480.02,1.330206,597737,27945
1483.19,1.333826,594479,27562
1486.36,1.329576,591232,27681
1489.52,1.341053,587853,26805
1492.68,1.337764,583875,26826
1496.89,1.335821,578062,26678
1500.03,1.334641,574159,26570
1503.18,1.335509,570285,26338
1506.32,1.334171,565444,26195
1509.45,1.337011,560571,25800
1512.58,1.337935,555821,25527
1515.71,1.339372,550344,25192
1519.87,1.332740,543983,25284
1522.99,1.332227,538764,25071
1526.1,1.331615,533692,24870
1529.21,1.331071,527902,24631
1532.32,1.330738,521886,24369
1535.42,1.337715,515888,23705
1538.51,1.329234,509987,23896
1541.6,1.328067,503936,23676
1545.72,1.332835,494694,22988
1548.8,1.337153,488378,22470
1551.88,1.332086,481832,22429
1554.95,1.333176,474989,22055
1558.02,1.333557,467818,21703
1561.08,1.342843,460730,20922
1564.15,1.332751,454170,21109
1568.22,1.335573,444181,20511
1571.27,1.334884,436947,20209
1574.32,1.331143,429598,20041
1577.36,1.327811,422039,19840
1580.4,1.334590,414375,19178
1583.43,1.326056,406354,19180
1586.46,1.328559,398475,18700
1590.49,1.331005,388982,18152
1593.51,1.332668,380708,17698
1596.53,1.338928,372727,17079
1599.54,1.314170,365060,17709
1602.55,1.325390,357543,16902
1605.55,1.321141,349495,16684
1608.55,1.324536,341154,16159
1612.54,1.315628,330877,15997
1615.53,1.324666,322904,15290
1618.51,1.329414,315116,14759
1621.49,1.322438,307217,14622
1624.47,1.331453,299481,13961
1627.44,1.327026,292112,13757
1630.41,1.330364,284245,13284
1634.36,1.308379,274079,13474
1637.32,1.309866,266916,13077
1640.27,1.325763,259612,12262
1643.22,1.305754,251804,12454
1646.16,1.305331,244348,12097
1649.1,1.310495,236703,11580
1652.04,1.294627,228171,11578
1655.95,1.299597,215408,10806
1658.88,1.303063,204937,10199
1661.8,1.275044,193395,10266
1664.72,1.267934,179728,9698
1667.63,1.263287,163642,8925
1670.54,1.242295,146312,8375
1673.44,1.231021,128451,7546
1677.31,1.209075,105080,6493
1680.21,1.216618,88906,5399
1683.1,1.189779,75033,4847
1685.99,1.147772,63520,4520
1688.87,1.221558,53714,3225
1691.75,1.156360,45653,3185
1694.62,1.212919,39137,2397
1697.49,1.132234,33776,2491
1701.31,1.202136,28175,1769