File: ML/samples/unknown/Column 1_078943_20241121_172940.csv
Method:,Column 1,,
Host Date-Time:,21/11/24 @ 17:29:40,,
Header Version:,1,,
System Temp (C):,37.67,,
Detector Temp (C):,36.62,,
Humidity (%):,0.59,,
Lamp PD:,3796,,
Shift Vector Coefficients:,-10.5391,0.0761263,-0.000134223,,
Pixel to Wavelength Coefficients:,1775.68,-0.916766,-0.000235065,,
Serial Number:,5510004,,
Scan Config Name:,Column 1,,
Scan Config Type:,Slew,,
Section 1,,
Start wavelength (nm):,900,,
End wavelength (nm):,1700,,
Pattern Pixel Width (nm):,   7.03,,,,
Exposure (ms):,  0.635,,,,
Digital Resolution:,228,,
Num Repeats:,6,,
PGA Gain:,64,,
Total Measurement Time in sec:,  2.714,,
Wavelength (nm),Absorbance (AU),Reference Signal (unitless),Sample Signal (unitless)
901.51,1.335012,108485,5016
905.376,1.347486,121306,5450
909.237,1.316067,131909,6371
913.095,1.363012,143299,6212
916.948,1.303811,156982,7799
922.079,1.315901,179937,8694
925.923,1.335840,200504,9253
929.762,1.325420,222660,10525
933.597,1.327450,244426,11500
937.427,1.323711,263972,12527
941.254,1.321385,281845,13447
945.076,1.325167,297271,14060
950.165,1.308868,315605,15498
953.978,1.318632,328029,15750
957.786,1.318189,340470,16364
961.59,1.309013,352317,17295
965.389,1.310751,363056,17751
969.185,1.303764,373162,18541
972.976,1.313712,382632,18581
976.763,1.309620,391202,19177
981.806,1.304528,400190,19849
985.583,1.309527,406088,19911
989.355,1.304711,410162,20335
993.124,1.299589,412868,20712
996.888,1.304760,414263,20536
1000.65,1.308193,415476,20434
1004.4,1.306922,415479,20494
1009.41,1.299877,414358,20773
1013.15,1.306899,412923,20369
1016.89,1.302813,411526,20492
1020.63,1.304704,409066,20281
1024.36,1.311771,406777,19842
1028.09,1.305940,404427,19994
1031.82,1.312850,401911,19556
1036.78,1.304895,398410,19744
1040.49,1.319806,396204,18972
1044.2,1.306145,394236,19481
1047.91,1.300899,392042,19608
1051.61,1.307317,389823,19211
1055.31,1.305340,388234,19220
1059,1.311898,387599,18901
1063.92,1.312095,386688,18848
1067.61,1.312087,386598,18844
1071.29,1.305081,387377,19189
1074.96,1.312809,388536,18907
1078.63,1.306292,389855,19258
1082.3,1.314669,391215,18956
1085.96,1.311193,393215,19206
1090.84,1.309966,396270,19410
1094.49,1.319201,398760,19121
1098.14,1.317371,400987,19309
1101.79,1.317145,403477,19439
1105.43,1.321677,406116,19363
1109.06,1.319662,407701,19529
1112.7,1.318631,409859,19679
1117.53,1.322807,412494,19616
1121.15,1.323619,414909,19694
1124.77,1.321348,416559,19876
1128.38,1.317109,418532,20166
1131.99,1.316714,419956,20253
1135.6,1.314542,421946,20451
1139.2,1.318082,423881,20378
1143.99,1.317652,426786,20538
1147.58,1.320273,428617,20502
1151.17,1.316563,431169,20801
1154.75,1.313610,433579,21060
1158.33,1.313024,436264,21219
1161.91,1.312060,439132,21406
1165.48,1.308405,442389,21747
1169.04,1.310320,446101,21833
1173.79,1.318030,451929,21729
1177.34,1.320912,456026,21781
1180.9,1.314110,461306,22381
1184.44,1.313175,467657,22738
1187.99,1.318501,473969,22764
1191.52,1.316879,479856,23133
1195.06,1.312673,487372,23724
1199.76,1.318807,497347,23870
1203.29,1.324810,504311,23872
1206.81,1.319685,511507,24500
1210.33,1.320081,519078,24840
1213.84,1.315490,527163,25495
1217.35,1.322791,534208,25405
1220.85,1.320548,540472,25836
1225.51,1.320648,549929,26282
1229.01,1.327201,556888,26216
1232.5,1.318270,562180,27015
1235.98,1.321088,567975,27117
1239.46,1.321651,574815,27408
1242.94,1.328866,582782,27330
1246.41,1.323664,591476,28072
1251.03,1.322169,604016,28766
1254.5,1.326570,612289,28866
1257.96,1.327348,619125,29136
1261.41,1.325216,624551,29536
1264.86,1.323441,629900,29911
1268.31,1.329628,634345,29696
1271.75,1.325737,638574,30163
1276.33,1.327952,642499,30194
1279.76,1.324873,645905,30570
1283.19,1.325010,648307,30674
1286.61,1.326214,650446,30690
1290.03,1.329609,652132,30530
1293.44,1.324827,653907,30952
1296.85,1.321710,655963,31273
1301.39,1.322710,657349,31267
1304.8,1.330810,657558,30699
1308.19,1.326966,658515,31017
1311.58,1.331505,658804,30708
1314.97,1.330935,659011,30758
1318.36,1.329700,658272,30811
1321.73,1.330692,658022,30729
1326.23,1.329068,657870,30837
1329.6,1.325735,656482,31009
1332.97,1.326206,654926,30902
1336.33,1.333281,653727,30347
1339.69,1.329709,652497,30540
1343.04,1.332633,649913,30215
1346.39,1.336730,647671,29828
1349.73,1.322423,645338,30716
1354.18,1.325892,641175,30275
1357.52,1.324638,638376,30230
1360.85,1.321523,635805,30325
1364.17,1.321421,633413,30218
1367.49,1.323404,631026,29967
1370.81,1.325252,628050,29699
1374.12,1.327512,625034,29403
1378.54,1.326887,620272,29221
1381.84,1.328351,616892,28964
1385.14,1.324002,613613,29100
1388.43,1.324586,611526,28962
1391.72,1.322401,610663,29067
1395.01,1.322485,610634,29060
1398.29,1.322750,611700,29093
1402.66,1.327713,614051,28873
1405.93,1.331389,616268,28733
1409.2,1.321435,617795,29472
1412.46,1.328829,618872,29025
1415.72,1.328161,619795,29113
1418.98,1.330475,620495,28991
1422.23,1.327041,621087,29249
1426.56,1.328224,621375,29183
1429.8,1.331484,621616,28976
1433.04,1.331273,622129,29014
1436.27,1.333931,621526,28809
1439.5,1.331162,621113,28974
1442.72,1.331193,620921,28963
1445.94,1.340595,620270,28313
1450.23,1.332834,618860,28758
1453.44,1.332243,617697,28743
1456.64,1.332127,616264,28684
1459.85,1.334959,614413,28412
1463.04,1.332399,612307,28482
1466.24,1.335242,610032,28191
1469.43,1.327540,607345,28569
1473.67,1.334177,603789,27971
1476.85,1.332852,601175,27935
1480.02,1.338760,597737,27400
1483.19,1.333968,594479,27553
1486.36,1.339029,591232,27085
1489.52,1.329904,587853,27502
1492.68,1.336971,583875,26875
1496.89,1.331190,578062,26964
1500.03,1.334575,574159,26574
1503.18,1.331635,570285,26574
1506.32,1.332682,565444,26285
1509.45,1.331824,560571,26110
1512.58,1.336661,555821,25602
1515.71,1.334998,550344,25447
1519.87,1.336708,543983,25054
1522.99,1.335129,538764,24904
1526.1,1.331388,533692,24883
1529.21,1.336983,527902,24298
1532.32,1.340743,521886,23814
1535.42,1.333123,515888,23957
1538.51,1.335716,509987,23542
1541.6,1.332103,503936,23457
1545.72,1.328194,494694,23235
1548.8,1.328485,488378,22923
1551.88,1.327559,481832,22664
1554.95,1.344306,474989,21497
1558.02,1.330506,467818,21856
1561.08,1.328390,460730,21630
1564.15,1.330391,454170,21224
1568.22,1.334220,444181,20575
1571.27,1.335486,436947,20181
1574.32,1.334078,429598,19906
1577.36,1.321617,422039,20125
1580.4,1.328720,414375,19439
1583.43,1.331387,406354,18946
1586.46,1.333229,398475,18500
1590.49,1.326933,388982,18323
1593.51,1.328103,380708,17885
1596.53,1.321117,372727,17794
1599.54,1.335455,365060,16862
1602.55,1.324107,357543,16952
1605.55,1.325352,349495,16523
1608.55,1.327421,341154,16052
1612.54,1.322551,330877,15744
1615.53,1.316450,322904,15582
1618.51,1.322611,315116,14992
1621.49,1.330624,307217,14349
1624.47,1.314822,299481,14506
1627.44,1.317873,292112,14050
1630.41,1.318751,284245,13644
1634.36,1.318290,274079,13170
1637.32,1.318046,266916,12833
1640.27,1.311034,259612,12685
1643.22,1.317059,251804,12134
1646.16,1.308683,244348,12004
1649.1,1.309596,236703,11604
1652.04,1.303073,228171,11355
1655.95,1.298473,215408,10834
1658.88,1.296722,204937,10349
1661.8,1.282985,193395,10080
1664.72,1.254833,179728,9995
1667.63,1.251005,163642,9181
1670.54,1.214477,146312,8929
1673.44,1.175909,128451,8567
1677.31,1.176360,105080,7001
1680.21,1.133287,88906,6541
1683.1,1.123973,75033,5640
1685.99,1.099275,63520,5054
1688.87,1.100168,53714,4265
1691.75,1.095395,45653,3665
1694.62,1.147295,39137,2788
1697.49,1.140152,33776,2446
1701.31,1.139171,28175,2045