File: ML/samples/unknown/Column 1_078055_20241121_164316.csv
Method:,Column 1,,
Host Date-Time:,21/11/24 @ 16:43:16,,
Header Version:,1,,
System Temp (C):,31.04,,
Detector Temp (C):,25.79,,
Humidity (%):,5.37,,
Lamp PD:,3809,,
Shift Vector Coefficients:,-10.5391,0.0761263,-0.000134223,,
Pixel to Wavelength Coefficients:,1775.68,-0.916766,-0.000235065,,
Serial Number:,5510004,,
Scan Config Name:,Column 1,,
Scan Config Type:,Slew,,
Section 1,,
Start wavelength (nm):,900,,
End wavelength (nm):,1700,,
Pattern Pixel Width (nm):,   7.03,,,,
Exposure (ms):,  0.635,,,,
Digital Resolution:,228,,
Num Repeats:,6,,
PGA Gain:,64,,
Total Measurement Time in sec:,  2.706,,
Wavelength (nm),Absorbance (AU),Reference Signal (unitless),Sample Signal (unitless)
901.51,1.298416,108485,5457
905.376,1.319781,121306,5809
909.237,1.302313,131909,6576
913.095,1.309906,143299,7020
916.948,1.314294,156982,7613
922.079,1.317803,179937,8656
925.923,1.305874,200504,9914
929.762,1.313977,222660,10806
933.597,1.315898,244426,11810
937.427,1.302170,263972,13164
941.254,1.302798,281845,14035
945.076,1.307522,297271,14643
950.165,1.314992,315605,15281
953.978,1.305513,328029,16233
957.786,1.310795,340470,16645
961.59,1.309717,352317,17267
965.389,1.312516,363056,17679
969.185,1.299267,373162,18734
972.976,1.298689,382632,19235
976.763,1.305990,391202,19338
981.806,1.311097,400190,19551
985.583,1.309265,406088,19923
989.355,1.308250,410162,20170
993.124,1.312550,412868,20103
996.888,1.310958,414263,20245
1000.65,1.309001,415476,20396
1004.4,1.308664,415479,20412
1009.41,1.314504,414358,20085
1013.15,1.312004,412923,20131
1016.89,1.314781,411526,19935
1020.63,1.311698,409066,19957
1024.36,1.305405,406777,20135
1028.09,1.313146,404427,19665
1031.82,1.313139,401911,19543
1036.78,1.315539,398410,19266
1040.49,1.317545,396204,19071
1044.2,1.309188,394236,19345
1047.91,1.315197,392042,18973
1051.61,1.306843,389823,19232
1055.31,1.310843,388234,18978
1059,1.309058,387599,19025
1063.92,1.306896,386688,19075
1067.61,1.303348,386598,19227
1071.29,1.309083,387377,19013
1074.96,1.315551,388536,18788
1078.63,1.320550,389855,18636
1082.3,1.316345,391215,18883
1085.96,1.317847,393215,18914
1090.84,1.313718,396270,19243
1094.49,1.315717,398760,19275
1098.14,1.316135,400987,19364
1101.79,1.309000,403477,19807
1105.43,1.319173,406116,19475
1109.06,1.319484,407701,19537
1112.7,1.321310,409859,19558
1117.53,1.314019,412494,20017
1121.15,1.315687,414909,20057
1124.77,1.320823,416559,19900
1128.38,1.317669,418532,20140
1131.99,1.323413,419956,19943
1135.6,1.327387,421946,19855
1139.2,1.317763,423881,20393
1143.99,1.322736,426786,20299
1147.58,1.322950,428617,20376
1151.17,1.321540,431169,20564
1154.75,1.320092,433579,20748
1158.33,1.318897,436264,20934
1161.91,1.322407,439132,20902
1165.48,1.315898,442389,21375
1169.04,1.319486,446101,21377
1173.79,1.313814,451929,21941
1177.34,1.315325,456026,22063
1180.9,1.324041,461306,21875
1184.44,1.314744,467657,22656
1187.99,1.317929,473969,22794
1191.52,1.324645,479856,22723
1195.06,1.315372,487372,23577
1199.76,1.322865,497347,23648
1203.29,1.322867,504311,23979
1206.81,1.320555,511507,24451
1210.33,1.321166,519078,24778
1213.84,1.319116,527163,25283
1217.35,1.320983,534208,25511
1220.85,1.326250,540472,25499
1225.51,1.326504,549929,25930
1229.01,1.325037,556888,26347
1232.5,1.323185,562180,26711
1235.98,1.326827,567975,26761
1239.46,1.319675,574815,27533
1242.94,1.319871,582782,27902
1246.41,1.326489,591476,27890
1251.03,1.320286,604016,28891
1254.5,1.323153,612289,29094
1257.96,1.322855,619125,29439
1261.41,1.328197,624551,29334
1264.86,1.324779,629900,29819
1268.31,1.324322,634345,30061
1271.75,1.330660,638574,29823
1276.33,1.328931,642499,30126
1279.76,1.326011,645905,30490
1283.19,1.329722,648307,30343
1286.61,1.324661,650446,30800
1290.03,1.338955,652132,29880
1293.44,1.334016,653907,30304
1296.85,1.327948,655963,30827
1301.39,1.328780,657349,30833
1304.8,1.330499,657558,30721
1308.19,1.334038,658515,30516
1311.58,1.336755,658804,30339
1314.97,1.332646,659011,30637
1318.36,1.331550,658272,30680
1321.73,1.334839,658022,30437
1326.23,1.328674,657870,30865
1329.6,1.332411,656482,30536
1332.97,1.334434,654926,30322
1336.33,1.328032,653727,30716
1339.69,1.331148,652497,30439
1343.04,1.327816,649913,30552
1346.39,1.331678,647671,30177
1349.73,1.327171,645338,30382
1354.18,1.334952,641175,29650
1357.52,1.327536,638376,30029
1360.85,1.330714,635805,29690
1364.17,1.329443,633413,29665
1367.49,1.320400,631026,30175
1370.81,1.325223,628050,29701
1374.12,1.329080,625034,29297
1378.54,1.324294,620272,29396
1381.84,1.326794,616892,29068
1385.14,1.326997,613613,28900
1388.43,1.329063,611526,28665
1391.72,1.327602,610663,28721
1395.01,1.332922,610634,28370
1398.29,1.334139,611700,28340
1402.66,1.325133,614051,29045
1405.93,1.325593,616268,29119
1409.2,1.332569,617795,28726
1412.46,1.333810,618872,28694
1415.72,1.330840,619795,28934
1418.98,1.329981,620495,29024
1422.23,1.335816,621087,28664
1426.56,1.328492,621375,29165
1429.8,1.333994,621616,28809
1433.04,1.335484,622129,28734
1436.27,1.334580,621526,28766
1439.5,1.333597,621113,28812
1442.72,1.336959,620921,28581
1445.94,1.329988,620270,29013
1450.23,1.331507,618860,28846
1453.44,1.329472,617697,28927
1456.64,1.333112,616264,28619
1459.85,1.328842,614413,28815
1463.04,1.337090,612307,28176
1466.24,1.337699,610032,28032
1469.43,1.332033,607345,28275
1473.67,1.339017,603789,27661
1476.85,1.331517,601175,28021
1480.02,1.330439,597737,27930
1483.19,1.335183,594479,27476
1486.36,1.334055,591232,27397
1489.52,1.337567,587853,27021
1492.68,1.340150,583875,26679
1496.89,1.333969,578062,26792
1500.03,1.345263,574159,25928
1503.18,1.346565,570285,25676
1506.32,1.341208,565444,25774
1509.45,1.338529,560571,25710
1512.58,1.342536,555821,25258
1515.71,1.337308,550344,25312
1519.87,1.345251,543983,24566
1522.99,1.336877,538764,24804
1526.1,1.342275,533692,24267
1529.21,1.334505,527902,24437
1532.32,1.335450,521886,24106
1535.42,1.340767,515888,23539
1538.51,1.342558,509987,23174
1541.6,1.334386,503936,23334
1545.72,1.335431,494694,22851
1548.8,1.335225,488378,22570
1551.88,1.336406,481832,22207
1554.95,1.330840,474989,22174
1558.02,1.339663,467818,21400
1561.08,1.340876,460730,21017
1564.15,1.335020,454170,20999
1568.22,1.337249,444181,20432
1571.27,1.336046,436947,20155
1574.32,1.344053,429598,19454
1577.36,1.333695,422039,19573
1580.4,1.338389,414375,19011
1583.43,1.331410,406354,18945
1586.46,1.322151,398475,18978
1590.49,1.338364,388982,17847
1593.51,1.336142,380708,17557
1596.53,1.338115,372727,17111
1599.54,1.326155,365060,17227
1602.55,1.337083,357543,16453
1605.55,1.317589,349495,16821
1608.55,1.325047,341154,16140
1612.54,1.323490,330877,15710
1615.53,1.330413,322904,15089
1618.51,1.333939,315116,14606
1621.49,1.322023,307217,14636
1624.47,1.327674,299481,14083
1627.44,1.319421,292112,14000
1630.41,1.322459,284245,13528
1634.36,1.325237,274079,12961
1637.32,1.311630,266916,13024
1640.27,1.316720,259612,12520
1643.22,1.302800,251804,12539
1646.16,1.312827,244348,11890
1649.1,1.316044,236703,11433
1652.04,1.309780,228171,11181
1655.95,1.316688,215408,10389
1658.88,1.321148,204937,9783
1661.8,1.296506,193395,9771
1664.72,1.328634,179728,8433
1667.63,1.329156,163642,7669
1670.54,1.335205,146312,6762
1673.44,1.350659,128451,5729
1677.31,1.340641,105080,4796
1680.21,1.344489,88906,4022
1683.1,1.353461,75033,3325
1685.99,1.346696,63520,2859
1688.87,1.319142,53714,2576
1691.75,1.370550,45653,1945
1694.62,1.381734,39137,1625
1697.49,1.264263,33776,1838
1701.31,1.168376,28175,1912