File: ML/samples/unknown/Column 1_078995_20241121_173210.csv
Method:,Column 1,,
Host Date-Time:,21/11/24 @ 17:32:10,,
Header Version:,1,,
System Temp (C):,37.61,,
Detector Temp (C):,36.98,,
Humidity (%):,0.73,,
Lamp PD:,3795,,
Shift Vector Coefficients:,-10.5391,0.0761263,-0.000134223,,
Pixel to Wavelength Coefficients:,1775.68,-0.916766,-0.000235065,,
Serial Number:,5510004,,
Scan Config Name:,Column 1,,
Scan Config Type:,Slew,,
Section 1,,
Start wavelength (nm):,900,,
End wavelength (nm):,1700,,
Pattern Pixel Width (nm):,   7.03,,,,
Exposure (ms):,  0.635,,,,
Digital Resolution:,228,,
Num Repeats:,6,,
PGA Gain:,64,,
Total Measurement Time in sec:,  2.727,,
Wavelength (nm),Absorbance (AU),Reference Signal (unitless),Sample Signal (unitless)
901.51,1.281251,108485,5677
905.376,1.328694,121306,5691
909.237,1.329708,131909,6174
913.095,1.311580,143299,6993
916.948,1.306772,156982,7746
922.079,1.309258,179937,8828
925.923,1.319445,200504,9609
929.762,1.321968,222660,10609
933.597,1.318036,244426,11752
937.427,1.334664,263972,12215
941.254,1.315387,281845,13634
945.076,1.308889,297271,14597
950.165,1.303770,315605,15681
953.978,1.309194,328029,16096
957.786,1.304552,340470,16886
961.59,1.308085,352317,17332
965.389,1.300571,363056,18172
969.185,1.305689,373162,18459
972.976,1.308554,382632,18803
976.763,1.302277,391202,19504
981.806,1.315025,400190,19375
985.583,1.313075,406088,19749
989.355,1.301180,410162,20501
993.124,1.303973,412868,20504
996.888,1.298108,414263,20853
1000.65,1.306030,415476,20536
1004.4,1.308132,415479,20437
1009.41,1.301657,414358,20688
1013.15,1.299794,412923,20705
1016.89,1.300846,411526,20585
1020.63,1.304833,409066,20275
1024.36,1.300301,406777,20373
1028.09,1.314828,404427,19589
1031.82,1.297426,401911,20263
1036.78,1.306040,398410,19692
1040.49,1.303232,396204,19710
1044.2,1.307194,394236,19434
1047.91,1.296975,392042,19786
1051.61,1.303043,389823,19401
1055.31,1.307538,388234,19123
1059,1.315451,387599,18747
1063.92,1.299044,386688,19423
1067.61,1.298943,386598,19423
1071.29,1.310112,387377,18968
1074.96,1.309126,388536,19068
1078.63,1.313752,389855,18930
1082.3,1.305353,391215,19367
1085.96,1.304595,393215,19500
1090.84,1.309250,396270,19442
1094.49,1.307902,398760,19625
1098.14,1.301124,400987,20045
1101.79,1.300833,403477,20183
1105.43,1.310234,406116,19880
1109.06,1.313852,407701,19792
1112.7,1.307584,409859,20186
1117.53,1.307451,412494,20322
1121.15,1.313915,414909,20139
1124.77,1.308580,416559,20469
1128.38,1.313719,418532,20324
1131.99,1.321306,419956,20040
1135.6,1.321370,421946,20132
1139.2,1.311400,423881,20694
1143.99,1.299979,426786,21391
1147.58,1.312089,428617,20892
1151.17,1.308312,431169,21200
1154.75,1.312251,433579,21126
1158.33,1.311921,436264,21273
1161.91,1.304777,439132,21768
1165.48,1.313972,442389,21470
1169.04,1.317844,446101,21458
1173.79,1.303467,451929,22470
1177.34,1.315758,456026,22041
1180.9,1.311980,461306,22491
1184.44,1.310851,467657,22860
1187.99,1.317987,473969,22791
1191.52,1.310172,479856,23493
1195.06,1.312526,487372,23732
1199.76,1.316937,497347,23973
1203.29,1.314988,504311,24418
1206.81,1.317846,511507,24604
1210.33,1.318232,519078,24946
1213.84,1.320028,527163,25230
1217.35,1.316411,534208,25781
1220.85,1.322806,540472,25702
1225.51,1.324532,549929,26048
1229.01,1.318038,556888,26775
1232.5,1.315083,562180,27214
1235.98,1.311928,567975,27695
1239.46,1.316234,574815,27752
1242.94,1.322196,582782,27753
1246.41,1.315343,591476,28615
1251.03,1.322365,604016,28753
1254.5,1.321306,612289,29218
1257.96,1.328767,619125,29041
1261.41,1.319258,624551,29944
1264.86,1.319869,629900,30158
1268.31,1.322290,634345,30202
1271.75,1.326255,638574,30127
1276.33,1.323103,642499,30533
1279.76,1.324760,645905,30578
1283.19,1.326769,648307,30550
1286.61,1.326738,650446,30653
1290.03,1.332993,652132,30293
1293.44,1.323804,653907,31025
1296.85,1.324748,655963,31055
1301.39,1.320631,657349,31417
1304.8,1.329144,657558,30817
1308.19,1.325442,658515,31126
1311.58,1.326513,658804,31063
1314.97,1.329961,659011,30827
1318.36,1.331550,658272,30680
1321.73,1.329591,658022,30807
1326.23,1.325869,657870,31065
1329.6,1.326352,656482,30965
1332.97,1.323963,654926,31062
1336.33,1.325073,653727,30926
1339.69,1.323806,652497,30958
1343.04,1.324615,649913,30778
1346.39,1.321312,647671,30906
1349.73,1.323470,645338,30642
1354.18,1.328021,641175,30127
1357.52,1.325026,638376,30203
1360.85,1.320908,635805,30368
1364.17,1.324913,633413,29976
1367.49,1.323824,631026,29938
1370.81,1.321742,628050,29940
1374.12,1.324113,625034,29634
1378.54,1.320382,620272,29662
1381.84,1.318741,616892,29612
1385.14,1.322854,613613,29177
1388.43,1.321910,611526,29141
1391.72,1.327013,610663,28760
1395.01,1.319818,610634,29239
1398.29,1.326558,611700,28839
1402.66,1.325313,614051,29033
1405.93,1.327881,616268,28966
1409.2,1.324926,617795,29236
1412.46,1.328664,618872,29036
1415.72,1.327937,619795,29128
1418.98,1.333678,620495,28778
1422.23,1.324938,621087,29391
1426.56,1.326946,621375,29269
1429.8,1.328139,621616,29200
1433.04,1.327948,622129,29237
1436.27,1.327913,621526,29211
1439.5,1.329980,621113,29053
1442.72,1.323892,620921,29454
1445.94,1.329913,620270,29018
1450.23,1.325303,618860,29261
1453.44,1.336815,617697,28442
1456.64,1.330616,616264,28784
1459.85,1.331275,614413,28654
1463.04,1.325711,612307,28924
1466.24,1.329458,610032,28569
1469.43,1.331404,607345,28316
1473.67,1.326467,603789,28472
1476.85,1.329091,601175,28178
1480.02,1.332840,597737,27776
1483.19,1.329857,594479,27815
1486.36,1.331022,591232,27589
1489.52,1.330078,587853,27491
1492.68,1.330714,583875,27265
1496.89,1.330144,578062,27029
1500.03,1.326704,574159,27060
1503.18,1.336880,570285,26255
1506.32,1.329062,565444,26505
1509.45,1.333557,560571,26006
1512.58,1.328861,555821,26066
1515.71,1.327217,550344,25907
1519.87,1.324589,543983,25763
1522.99,1.329808,538764,25211
1526.1,1.330812,533692,24916
1529.21,1.331601,527902,24601
1532.32,1.326941,521886,24583
1535.42,1.336490,515888,23772
1538.51,1.327782,509987,23976
1541.6,1.326767,503936,23747
1545.72,1.328643,494694,23211
1548.8,1.326085,488378,23050
1551.88,1.337443,481832,22154
1554.95,1.329998,474989,22217
1558.02,1.325803,467818,22094
1561.08,1.325169,460730,21791
1564.15,1.330391,454170,21224
1568.22,1.330667,444181,20744
1571.27,1.327807,436947,20541
1574.32,1.321860,429598,20474
1577.36,1.326347,422039,19907
1580.4,1.326980,414375,19517
1583.43,1.325083,406354,19223
1586.46,1.327771,398475,18734
1590.49,1.322781,388982,18499
1593.51,1.321955,380708,18140
1596.53,1.311749,372727,18182
1599.54,1.317197,365060,17586
1602.55,1.305306,357543,17702
1605.55,1.319322,349495,16754
1608.55,1.310000,341154,16709
1612.54,1.315384,330877,16006
1615.53,1.318518,322904,15508
1618.51,1.311655,315116,15375
1621.49,1.315924,307217,14843
1624.47,1.329157,299481,14035
1627.44,1.325324,292112,13811
1630.41,1.299817,284245,14252
1634.36,1.308702,274079,13464
1637.32,1.298590,266916,13421
1640.27,1.307726,259612,12782
1643.22,1.294566,251804,12779
1646.16,1.307563,244348,12035
1649.1,1.304721,236703,11735
1652.04,1.301622,228171,11393
1655.95,1.281801,215408,11258
1658.88,1.272643,204937,10939
1661.8,1.273903,193395,10293
1664.72,1.262018,179728,9831
1667.63,1.231036,163642,9613
1670.54,1.211134,146312,8998
1673.44,1.202241,128451,8063
1677.31,1.151585,105080,7412
1680.21,1.141261,88906,6422
1683.1,1.097536,75033,5994
1685.99,1.097474,63520,5075
1688.87,1.136358,53714,3924
1691.75,1.060023,45653,3976
1694.62,1.127056,39137,2921
1697.49,1.087699,33776,2760
1701.31,1.076584,28175,2362