File: ML/samples/unknown/Column 1_078003_20241121_164044.csv
Method:,Column 1,,
Host Date-Time:,21/11/24 @ 16:40:44,,
Header Version:,1,,
System Temp (C):,29.02,,
Detector Temp (C):,26.96,,
Humidity (%):,7.88,,
Lamp PD:,3817,,
Shift Vector Coefficients:,-10.5391,0.0761263,-0.000134223,,
Pixel to Wavelength Coefficients:,1775.68,-0.916766,-0.000235065,,
Serial Number:,5510004,,
Scan Config Name:,Column 1,,
Scan Config Type:,Slew,,
Section 1,,
Start wavelength (nm):,900,,
End wavelength (nm):,1700,,
Pattern Pixel Width (nm):,   7.03,,,,
Exposure (ms):,  0.635,,,,
Digital Resolution:,228,,
Num Repeats:,6,,
PGA Gain:,64,,
Total Measurement Time in sec:,  2.706,,
Wavelength (nm),Absorbance (AU),Reference Signal (unitless),Sample Signal (unitless)
901.51,1.293745,108485,5516
905.376,1.307544,121306,5975
909.237,1.306827,131909,6508
913.095,1.315322,143299,6933
916.948,1.302310,156982,7826
922.079,1.290201,179937,9224
925.923,1.299094,200504,10070
929.762,1.307832,222660,10960
933.597,1.299303,244426,12270
937.427,1.313399,263972,12828
941.254,1.303758,281845,14004
945.076,1.303390,297271,14783
950.165,1.306995,315605,15565
953.978,1.314215,328029,15911
957.786,1.306692,340470,16803
961.59,1.304815,352317,17463
965.389,1.307096,363056,17901
969.185,1.305736,373162,18457
972.976,1.307148,382632,18864
976.763,1.304734,391202,19394
981.806,1.309988,400190,19601
985.583,1.303721,406088,20179
989.355,1.315239,410162,19848
993.124,1.302556,412868,20571
996.888,1.301642,414263,20684
1000.65,1.310558,415476,20323
1004.4,1.304429,415479,20612
1009.41,1.298791,414358,20825
1013.15,1.311012,412923,20177
1016.89,1.302368,411526,20513
1020.63,1.312417,409066,19924
1024.36,1.304220,406777,20190
1028.09,1.301768,404427,20187
1031.82,1.308563,401911,19750
1036.78,1.307941,398410,19606
1040.49,1.306972,396204,19541
1044.2,1.307373,394236,19426
1047.91,1.307663,392042,19305
1051.61,1.308223,389823,19171
1055.31,1.311874,388234,18933
1059,1.307941,387599,19074
1063.92,1.314174,386688,18758
1067.61,1.310361,386598,18919
1071.29,1.311557,387377,18905
1074.96,1.312832,388536,18906
1078.63,1.313133,389855,18957
1082.3,1.310269,391215,19149
1085.96,1.314826,393215,19046
1090.84,1.308358,396270,19482
1094.49,1.309654,398760,19546
1098.14,1.315082,400987,19411
1101.79,1.315940,403477,19493
1105.43,1.318794,406116,19492
1109.06,1.313852,407701,19792
1112.7,1.310715,409859,20041
1117.53,1.316565,412494,19900
1121.15,1.322782,414909,19732
1124.77,1.311838,416559,20316
1128.38,1.325458,418532,19782
1131.99,1.320656,419956,20070
1135.6,1.332226,421946,19635
1139.2,1.319983,423881,20289
1143.99,1.324064,426786,20237
1147.58,1.317212,428617,20647
1151.17,1.317881,431169,20738
1154.75,1.318692,433579,20815
1158.33,1.320998,436264,20833
1161.91,1.313502,439132,21335
1165.48,1.317588,442389,21292
1169.04,1.321686,446101,21269
1173.79,1.318250,451929,21718
1177.34,1.309149,456026,22379
1180.9,1.316737,461306,22246
1184.44,1.313978,467657,22696
1187.99,1.315081,473969,22944
1191.52,1.320726,479856,22929
1195.06,1.321008,487372,23273
1199.76,1.323380,497347,23620
1203.29,1.315540,504311,24387
1206.81,1.318340,511507,24576
1210.33,1.320956,519078,24790
1213.84,1.316838,527163,25416
1217.35,1.322176,534208,25441
1220.85,1.320800,540472,25821
1225.51,1.320516,549929,26290
1229.01,1.323671,556888,26430
1232.5,1.330531,562180,26263
1235.98,1.320032,567975,27183
1239.46,1.322269,574815,27369
1242.94,1.322165,582782,27755
1246.41,1.318267,591476,28423
1251.03,1.321641,604016,28801
1254.5,1.319082,612289,29368
1257.96,1.318773,619125,29717
1261.41,1.324467,624551,29587
1264.86,1.327393,629900,29640
1268.31,1.324669,634345,30037
1271.75,1.325708,638574,30165
1276.33,1.323444,642499,30509
1279.76,1.322889,645905,30710
1283.19,1.328721,648307,30413
1286.61,1.328399,650446,30536
1290.03,1.331462,652132,30400
1293.44,1.333157,653907,30364
1296.85,1.326640,655963,30920
1301.39,1.325804,657349,31045
1304.8,1.332085,657558,30609
1308.19,1.327246,658515,30997
1311.58,1.329740,658804,30833
1314.97,1.336062,659011,30397
1318.36,1.331677,658272,30671
1321.73,1.329436,658022,30818
1326.23,1.336913,657870,30285
1329.6,1.327644,656482,30873
1332.97,1.328488,654926,30740
1336.33,1.332809,653727,30380
1339.69,1.329198,652497,30576
1343.04,1.326722,649913,30629
1346.39,1.328652,647671,30388
1349.73,1.331481,645338,30082
1354.18,1.331117,641175,29913
1357.52,1.327999,638376,29997
1360.85,1.330480,635805,29706
1364.17,1.323525,633413,30072
1367.49,1.330873,631026,29456
1370.81,1.327790,628050,29526
1374.12,1.326627,625034,29463
1378.54,1.329003,620272,29079
1381.84,1.329116,616892,28913
1385.14,1.324898,613613,29040
1388.43,1.327158,611526,28791
1391.72,1.325370,610663,28869
1395.01,1.321202,610634,29146
1398.29,1.329020,611700,28676
1402.66,1.333268,614051,28506
1405.93,1.321511,616268,29394
1409.2,1.329962,617795,28899
1412.46,1.332586,618872,28775
1415.72,1.332720,619795,28809
1418.98,1.335280,620495,28672
1422.23,1.333172,621087,28839
1426.56,1.334414,621375,28770
1429.8,1.332114,621616,28934
1433.04,1.329048,622129,29163
1436.27,1.331751,621526,28954
1439.5,1.333100,621113,28845
1442.72,1.331958,620921,28912
1445.94,1.333234,620270,28797
1450.23,1.333589,618860,28708
1453.44,1.336754,617697,28446
1456.64,1.334054,616264,28557
1459.85,1.330942,614413,28676
1463.04,1.335843,612307,28257
1466.24,1.334950,610032,28210
1469.43,1.332125,607345,28269
1473.67,1.337153,603789,27780
1476.85,1.335847,601175,27743
1480.02,1.334815,597737,27650
1483.19,1.337576,594479,27325
1486.36,1.334975,591232,27339
1489.52,1.332343,587853,27348
1492.68,1.336761,583875,26888
1496.89,1.340190,578062,26411
1500.03,1.329635,574159,26878
1503.18,1.335278,570285,26352
1506.32,1.341124,565444,25779
1509.45,1.342227,560571,25492
1512.58,1.329761,555821,26012
1515.71,1.341047,550344,25095
1519.87,1.341274,543983,24792
1522.99,1.338210,538764,24728
1526.1,1.340239,533692,24381
1529.21,1.336340,527902,24334
1532.32,1.333007,521886,24242
1535.42,1.334303,515888,23892
1538.51,1.332884,509987,23696
1541.6,1.330495,503936,23544
1545.72,1.329279,494694,23177
1548.8,1.345032,488378,22066
1551.88,1.329653,481832,22555
1554.95,1.340224,474989,21700
1558.02,1.332358,467818,21763
1561.08,1.331756,460730,21463
1564.15,1.338196,454170,20846
1568.22,1.331737,444181,20693
1571.27,1.333639,436947,20267
1574.32,1.334493,429598,19887
1577.36,1.326281,422039,19910
1580.4,1.332985,414375,19249
1583.43,1.335625,406354,18762
1586.46,1.321350,398475,19013
1590.49,1.341711,388982,17710
1593.51,1.328030,380708,17888
1596.53,1.335686,372727,17207
1599.54,1.330589,365060,17052
1602.55,1.332671,357543,16621
1605.55,1.330774,349495,16318
1608.55,1.328478,341154,16013
1612.54,1.319008,330877,15873
1615.53,1.337493,322904,14845
1618.51,1.318431,315116,15137
1621.49,1.319331,307217,14727
1624.47,1.318037,299481,14399
1627.44,1.314640,292112,14155
1630.41,1.312965,284245,13827
1634.36,1.312915,274079,13334
1637.32,1.325694,266916,12609
1640.27,1.323467,259612,12327
1643.22,1.329991,251804,11778
1646.16,1.321124,244348,11665
1649.1,1.305907,236703,11703
1652.04,1.312664,228171,11107
1655.95,1.324321,215408,10208
1658.88,1.311490,204937,10003
1661.8,1.319178,193395,9274
1664.72,1.326784,179728,8469
1667.63,1.320410,163642,7825
1670.54,1.332069,146312,6811
1673.44,1.325048,128451,6077
1677.31,1.347854,105080,4717
1680.21,1.332036,88906,4139
1683.1,1.317745,75033,3610
1685.99,1.430183,63520,2359
1688.87,1.380616,53714,2236
1691.75,1.439100,45653,1661
1694.62,1.322375,39137,1863
1697.49,1.306933,33776,1666
1701.31,1.261780,28175,1542