File: ML/samples/unknown/Column 1_078825_20241121_172359.csv
Method:,Column 1,,
Host Date-Time:,21/11/24 @ 17:23:59,,
Header Version:,1,,
System Temp (C):,37.43,,
Detector Temp (C):,35.56,,
Humidity (%):,1.08,,
Lamp PD:,3797,,
Shift Vector Coefficients:,-10.5391,0.0761263,-0.000134223,,
Pixel to Wavelength Coefficients:,1775.68,-0.916766,-0.000235065,,
Serial Number:,5510004,,
Scan Config Name:,Column 1,,
Scan Config Type:,Slew,,
Section 1,,
Start wavelength (nm):,900,,
End wavelength (nm):,1700,,
Pattern Pixel Width (nm):,   7.03,,,,
Exposure (ms):,  0.635,,,,
Digital Resolution:,228,,
Num Repeats:,6,,
PGA Gain:,64,,
Total Measurement Time in sec:,  2.727,,
Wavelength (nm),Absorbance (AU),Reference Signal (unitless),Sample Signal (unitless)
901.51,1.305395,108485,5370
905.376,1.314579,121306,5879
909.237,1.333239,131909,6124
913.095,1.299998,143299,7182
916.948,1.328618,156982,7366
922.079,1.330531,179937,8406
925.923,1.319716,200504,9603
929.762,1.329275,222660,10432
933.597,1.327941,244426,11487
937.427,1.309892,263972,12932
941.254,1.323522,281845,13381
945.076,1.316210,297271,14353
950.165,1.311595,315605,15401
953.978,1.312907,328029,15959
957.786,1.309232,340470,16705
961.59,1.310220,352317,17247
965.389,1.310213,363056,17773
969.185,1.304163,373162,18524
972.976,1.310870,382632,18703
976.763,1.304018,391202,19426
981.806,1.306062,400190,19779
985.583,1.303893,406088,20171
989.355,1.301477,410162,20487
993.124,1.307482,412868,20339
996.888,1.300426,414263,20742
1000.65,1.307195,415476,20481
1004.4,1.304766,415479,20596
1009.41,1.304670,414358,20545
1013.15,1.303121,412923,20547
1016.89,1.317491,411526,19811
1020.63,1.302611,409066,20379
1024.36,1.306658,406777,20077
1028.09,1.305767,404427,20002
1031.82,1.307640,401911,19792
1036.78,1.305842,398410,19701
1040.49,1.307662,396204,19510
1044.2,1.305143,394236,19526
1047.91,1.314031,392042,19024
1051.61,1.310153,389823,19086
1055.31,1.312035,388234,18926
1059,1.301343,387599,19366
1063.92,1.314267,386688,18754
1067.61,1.305726,386598,19122
1071.29,1.316106,387377,18708
1074.96,1.307989,388536,19118
1078.63,1.309007,389855,19138
1082.3,1.315494,391215,18920
1085.96,1.321721,393215,18746
1090.84,1.316140,396270,19136
1094.49,1.309831,398760,19538
1098.14,1.321098,400987,19144
1101.79,1.308584,403477,19826
1105.43,1.311809,406116,19808
1109.06,1.318174,407701,19596
1112.7,1.314699,409859,19858
1117.53,1.309894,412494,20208
1121.15,1.312430,414909,20208
1124.77,1.315854,416559,20129
1128.38,1.316506,418532,20194
1131.99,1.315451,419956,20312
1135.6,1.307674,421946,20777
1139.2,1.322086,423881,20191
1143.99,1.316301,426786,20602
1147.58,1.319110,428617,20557
1151.17,1.310200,431169,21108
1154.75,1.320197,433579,20743
1158.33,1.305960,436264,21567
1161.91,1.319508,439132,21042
1165.48,1.316773,442389,21332
1169.04,1.321482,446101,21279
1173.79,1.314051,451929,21929
1177.34,1.312930,456026,22185
1180.9,1.312231,461306,22478
1184.44,1.311498,467657,22826
1187.99,1.311312,473969,23144
1191.52,1.317875,479856,23080
1195.06,1.310937,487372,23819
1199.76,1.316358,497347,24005
1203.29,1.314899,504311,24423
1206.81,1.321302,511507,24409
1210.33,1.318929,519078,24906
1213.84,1.318481,527163,25320
1217.35,1.316124,534208,25798
1220.85,1.318736,540472,25944
1225.51,1.319641,549929,26343
1229.01,1.317261,556888,26823
1232.5,1.320753,562180,26861
1235.98,1.323497,567975,26967
1239.46,1.317488,574815,27672
1242.94,1.316151,582782,28142
1246.41,1.321873,591476,28188
1251.03,1.322093,604016,28771
1254.5,1.325098,612289,28964
1257.96,1.321294,619125,29545
1261.41,1.319084,624551,29956
1264.86,1.330570,629900,29424
1268.31,1.327701,634345,29828
1271.75,1.325535,638574,30177
1276.33,1.321385,642499,30654
1279.76,1.322804,645905,30716
1283.19,1.324770,648307,30691
1286.61,1.328997,650446,30494
1290.03,1.327863,652132,30653
1293.44,1.326444,653907,30837
1296.85,1.325322,655963,31014
1301.39,1.323127,657349,31237
1304.8,1.322043,657558,31325
1308.19,1.323382,658515,31274
1311.58,1.327016,658804,31027
1314.97,1.328695,659011,30917
1318.36,1.324780,658272,31162
1321.73,1.329239,658022,30832
1326.23,1.331752,657870,30647
1329.6,1.327700,656482,30869
1332.97,1.325069,654926,30983
1336.33,1.326719,653727,30809
1339.69,1.322839,652497,31027
1343.04,1.330711,649913,30349
1346.39,1.322339,647671,30833
1349.73,1.323782,645338,30620
1354.18,1.323974,641175,30409
1357.52,1.317882,638376,30704
1360.85,1.323317,635805,30200
1364.17,1.325667,633413,29924
1367.49,1.321192,631026,30120
1370.81,1.326791,628050,29594
1374.12,1.329659,625034,29258
1378.54,1.317812,620272,29838
1381.84,1.320947,616892,29462
1385.14,1.312296,613613,29895
1388.43,1.319355,611526,29313
1391.72,1.328026,610663,28693
1395.01,1.326012,610634,28825
1398.29,1.323886,611700,29017
1402.66,1.327788,614051,28868
1405.93,1.326130,616268,29083
1409.2,1.323740,617795,29316
1412.46,1.331124,618872,28872
1415.72,1.331170,619795,28912
1418.98,1.326672,620495,29246
1422.23,1.329095,621087,29111
1426.56,1.327941,621375,29202
1429.8,1.326773,621616,29292
1433.04,1.332652,622129,28922
1436.27,1.330044,621526,29068
1439.5,1.329278,621113,29100
1442.72,1.333222,620921,28828
1445.94,1.332269,620270,28861
1450.23,1.333635,618860,28705
1453.44,1.330645,617697,28849
1456.64,1.328989,616264,28892
1459.85,1.331321,614413,28651
1463.04,1.331926,612307,28513
1466.24,1.332004,610032,28402
1469.43,1.342700,607345,27589
1473.67,1.335219,603789,27904
1476.85,1.328013,601175,28248
1480.02,1.330906,597737,27900
1483.19,1.335041,594479,27485
1486.36,1.340314,591232,27005
1489.52,1.329399,587853,27534
1492.68,1.330030,583875,27308
1496.89,1.335821,578062,26678
1500.03,1.328538,574159,26946
1503.18,1.333551,570285,26457
1506.32,1.333525,565444,26234
1509.45,1.331093,560571,26154
1512.58,1.339554,555821,25432
1515.71,1.336126,550344,25381
1519.87,1.329898,543983,25450
1522.99,1.339229,538764,24670
1526.1,1.331371,533692,24884
1529.21,1.336197,527902,24342
1532.32,1.334101,521886,24181
1535.42,1.320703,515888,24652
1538.51,1.329707,509987,23870
1541.6,1.330458,503936,23546
1545.72,1.327316,494694,23282
1548.8,1.334110,488378,22628
1551.88,1.330269,481832,22523
1554.95,1.320180,474989,22725
1558.02,1.336872,467818,21538
1561.08,1.326527,460730,21723
1564.15,1.330596,454170,21214
1568.22,1.340064,444181,20300
1571.27,1.328929,436947,20488
1574.32,1.336002,429598,19818
1577.36,1.335697,422039,19483
1580.4,1.320334,414375,19818
1583.43,1.321192,406354,19396
1586.46,1.330958,398475,18597
1590.49,1.323533,388982,18467
1593.51,1.324139,380708,18049
1596.53,1.326570,372727,17572
1599.54,1.318087,365060,17550
1602.55,1.319951,357543,17115
1605.55,1.317718,349495,16816
1608.55,1.313890,341154,16560
1612.54,1.317642,330877,15923
1615.53,1.316645,322904,15575
1618.51,1.318029,315116,15151
1621.49,1.322201,307217,14630
1624.47,1.317103,299481,14430
1627.44,1.321692,292112,13927
1630.41,1.313782,284245,13801
1634.36,1.302934,274079,13644
1637.32,1.312665,266916,12993
1640.27,1.304240,259612,12885
1643.22,1.318421,251804,12096
1646.16,1.300050,244348,12245
1649.1,1.295529,236703,11986
1652.04,1.307417,228171,11242
1655.95,1.285792,215408,11155
1658.88,1.301617,204937,10233
1661.8,1.279039,193395,10172
1664.72,1.269594,179728,9661
1667.63,1.264749,163642,8895
1670.54,1.211762,146312,8985
1673.44,1.218652,128451,7764
1677.31,1.174503,105080,7031
1680.21,1.151941,88906,6266
1683.1,1.124513,75033,5633
1685.99,1.116006,63520,4863
1688.87,1.120066,53714,4074
1691.75,1.076724,45653,3826
1694.62,1.139116,39137,2841
1697.49,1.123604,33776,2541
1701.31,1.210815,28175,1734