File: ML/samples/unknown/Column 1_078336_20241121_165703.csv
Method:,Column 1,,
Host Date-Time:,21/11/24 @ 16:57:3,,
Header Version:,1,,
System Temp (C):,34.68,,
Detector Temp (C):,33.09,,
Humidity (%):,2.55,,
Lamp PD:,3801,,
Shift Vector Coefficients:,-10.5391,0.0761263,-0.000134223,,
Pixel to Wavelength Coefficients:,1775.68,-0.916766,-0.000235065,,
Serial Number:,5510004,,
Scan Config Name:,Column 1,,
Scan Config Type:,Slew,,
Section 1,,
Start wavelength (nm):,900,,
End wavelength (nm):,1700,,
Pattern Pixel Width (nm):,   7.03,,,,
Exposure (ms):,  0.635,,,,
Digital Resolution:,228,,
Num Repeats:,6,,
PGA Gain:,64,,
Total Measurement Time in sec:,  2.735,,
Wavelength (nm),Absorbance (AU),Reference Signal (unitless),Sample Signal (unitless)
901.51,1.315707,108485,5244
905.376,1.313693,121306,5891
909.237,1.307762,131909,6494
913.095,1.305413,143299,7093
916.948,1.297948,156982,7905
922.079,1.315302,179937,8706
925.923,1.311163,200504,9794
929.762,1.330901,222660,10393
933.597,1.303107,244426,12163
937.427,1.314552,263972,12794
941.254,1.325734,281845,13313
945.076,1.311635,297271,14505
950.165,1.323197,315605,14995
953.978,1.317888,328029,15777
957.786,1.307494,340470,16772
961.59,1.311052,352317,17214
965.389,1.309602,363056,17798
969.185,1.309684,373162,18290
972.976,1.312592,382632,18629
976.763,1.309439,391202,19185
981.806,1.300737,400190,20023
985.583,1.307330,406088,20012
989.355,1.315983,410162,19814
993.124,1.317504,412868,19875
996.888,1.310787,414263,20253
1000.65,1.299773,415476,20834
1004.4,1.309771,415479,20360
1009.41,1.305601,414358,20501
1013.15,1.310174,412923,20216
1016.89,1.312543,411526,20038
1020.63,1.312679,409066,19912
1024.36,1.302438,406777,20273
1028.09,1.309583,404427,19827
1031.82,1.311807,401911,19603
1036.78,1.315336,398410,19275
1040.49,1.308598,396204,19468
1044.2,1.309727,394236,19321
1047.91,1.313597,392042,19043
1051.61,1.311885,389823,19010
1055.31,1.310500,388234,18993
1059,1.307986,387599,19072
1063.92,1.311658,386688,18867
1067.61,1.309719,386598,18947
1071.29,1.316571,387377,18688
1074.96,1.315898,388536,18773
1078.63,1.313821,389855,18927
1082.3,1.306633,391215,19310
1085.96,1.312325,393215,19156
1090.84,1.312772,396270,19285
1094.49,1.312328,398760,19426
1098.14,1.316606,400987,19343
1101.79,1.315562,403477,19510
1105.43,1.318660,406116,19498
1109.06,1.316736,407701,19661
1112.7,1.315662,409859,19814
1117.53,1.317263,412494,19868
1121.15,1.322672,414909,19737
1124.77,1.312031,416559,20307
1128.38,1.313677,418532,20326
1131.99,1.316286,419956,20273
1135.6,1.318039,421946,20287
1139.2,1.314770,423881,20534
1143.99,1.311646,426786,20824
1147.58,1.321058,428617,20465
1151.17,1.324549,431169,20422
1154.75,1.317962,433579,20850
1158.33,1.320498,436264,20857
1161.91,1.325305,439132,20763
1165.48,1.315553,442389,21392
1169.04,1.314598,446101,21619
1173.79,1.316474,451929,21807
1177.34,1.317971,456026,21929
1180.9,1.315256,461306,22322
1184.44,1.311840,467657,22808
1187.99,1.322257,473969,22568
1191.52,1.325870,479856,22659
1195.06,1.312051,487372,23758
1199.76,1.317354,497347,23950
1203.29,1.325793,504311,23818
1206.81,1.319987,511507,24483
1210.33,1.319330,519078,24883
1213.84,1.322185,527163,25105
1217.35,1.321801,534208,25463
1220.85,1.321069,540472,25805
1225.51,1.322669,549929,26160
1229.01,1.317568,556888,26804
1232.5,1.322227,562180,26770
1235.98,1.326713,567975,26768
1239.46,1.329679,574815,26906
1242.94,1.324849,582782,27584
1246.41,1.319936,591476,28314
1251.03,1.326204,604016,28500
1254.5,1.326074,612289,28899
1257.96,1.327214,619125,29145
1261.41,1.327827,624551,29359
1264.86,1.322281,629900,29991
1268.31,1.324467,634345,30051
1271.75,1.326847,638574,30086
1276.33,1.329941,642499,30056
1279.76,1.330680,645905,30164
1283.19,1.331170,648307,30242
1286.61,1.325663,650446,30729
1290.03,1.331648,652132,30387
1293.44,1.330391,653907,30558
1296.85,1.328244,655963,30806
1301.39,1.332657,657349,30559
1304.8,1.333093,657558,30538
1308.19,1.331399,658515,30702
1311.58,1.329360,658804,30860
1314.97,1.326356,659011,31084
1318.36,1.337149,658272,30287
1321.73,1.333172,658022,30554
1326.23,1.328899,657870,30849
1329.6,1.329434,656482,30746
1332.97,1.334707,654926,30303
1336.33,1.335404,653727,30199
1339.69,1.333179,652497,30297
1343.04,1.331384,649913,30302
1346.39,1.328509,647671,30398
1349.73,1.326914,645338,30400
1354.18,1.325176,641175,30325
1357.52,1.331619,638376,29748
1360.85,1.329779,635805,29754
1364.17,1.329589,633413,29655
1367.49,1.326677,631026,29742
1370.81,1.327731,628050,29530
1374.12,1.323337,625034,29687
1378.54,1.328033,620272,29144
1381.84,1.331164,616892,28777
1385.14,1.326576,613613,28928
1388.43,1.322388,611526,29109
1391.72,1.323898,610663,28967
1395.01,1.327294,610634,28740
1398.29,1.333052,611700,28411
1402.66,1.326616,614051,28946
1405.93,1.329609,616268,28851
1409.2,1.330759,617795,28846
1412.46,1.329877,618872,28955
1415.72,1.327252,619795,29174
1418.98,1.328353,620495,29133
1422.23,1.333353,621087,28827
1426.56,1.336047,621375,28662
1429.8,1.335640,621616,28700
1433.04,1.328825,622129,29178
1436.27,1.332637,621526,28895
1439.5,1.337169,621113,28576
1442.72,1.334791,620921,28724
1445.94,1.330378,620270,28987
1450.23,1.334483,618860,28649
1453.44,1.338376,617697,28340
1456.64,1.341354,616264,28081
1459.85,1.338319,614413,28193
1463.04,1.332628,612307,28467
1466.24,1.338257,610032,27996
1469.43,1.335797,607345,28031
1473.67,1.332550,603789,28076
1476.85,1.332479,601175,27959
1480.02,1.335853,597737,27584
1483.19,1.334472,594479,27521
1486.36,1.340057,591232,27021
1489.52,1.336299,587853,27100
1492.68,1.332150,583875,27175
1496.89,1.337894,578062,26551
1500.03,1.342159,574159,26114
1503.18,1.338288,570285,26170
1506.32,1.332483,565444,26297
1509.45,1.335767,560571,25874
1512.58,1.337867,555821,25531
1515.71,1.331276,550344,25666
1519.87,1.336379,543983,25073
1522.99,1.331535,538764,25111
1526.1,1.343601,533692,24193
1529.21,1.337734,527902,24256
1532.32,1.333832,521886,24196
1535.42,1.330809,515888,24085
1538.51,1.334592,509987,23603
1541.6,1.336906,503936,23199
1545.72,1.331101,494694,23080
1548.8,1.340568,488378,22294
1551.88,1.336367,481832,22209
1554.95,1.335685,474989,21928
1558.02,1.333697,467818,21696
1561.08,1.332141,460730,21444
1564.15,1.333554,454170,21070
1568.22,1.337845,444181,20404
1571.27,1.329481,436947,20462
1574.32,1.336704,429598,19786
1577.36,1.338133,422039,19374
1580.4,1.329771,414375,19392
1583.43,1.331020,406354,18962
1586.46,1.330002,398475,18638
1590.49,1.333573,388982,18045
1593.51,1.328127,380708,17884
1596.53,1.331766,372727,17363
1599.54,1.315521,365060,17654
1602.55,1.333560,357543,16587
1605.55,1.332160,349495,16266
1608.55,1.325451,341154,16125
1612.54,1.319692,330877,15848
1615.53,1.318070,322904,15524
1618.51,1.320271,315116,15073
1621.49,1.324463,307217,14554
1624.47,1.324693,299481,14180
1627.44,1.328892,292112,13698
1630.41,1.301986,284245,14181
1634.36,1.307349,274079,13506
1637.32,1.306822,266916,13169
1640.27,1.308202,259612,12768
1643.22,1.315665,251804,12173
1646.16,1.310677,244348,11949
1649.1,1.316804,236703,11413
1652.04,1.307031,228171,11252
1655.95,1.300240,215408,10790
1658.88,1.305283,204937,10147
1661.8,1.305443,193395,9572
1664.72,1.296482,179728,9081
1667.63,1.257822,163642,9038
1670.54,1.252155,146312,8187
1673.44,1.253703,128451,7162
1677.31,1.211893,105080,6451
1680.21,1.217181,88906,5392
1683.1,1.190586,75033,4838
1685.99,1.189915,63520,4102
1688.87,1.173423,53714,3603
1691.75,1.225540,45653,2716
1694.62,1.163643,39137,2685
1697.49,1.169342,33776,2287
1701.31,1.099422,28175,2241