File: ML/samples/unknown/Column 1_078012_20241121_164110.csv
Method:,Column 1,,
Host Date-Time:,21/11/24 @ 16:41:10,,
Header Version:,1,,
System Temp (C):,29.38,,
Detector Temp (C):,24.77,,
Humidity (%):,7.15,,
Lamp PD:,3815,,
Shift Vector Coefficients:,-10.5391,0.0761263,-0.000134223,,
Pixel to Wavelength Coefficients:,1775.68,-0.916766,-0.000235065,,
Serial Number:,5510004,,
Scan Config Name:,Column 1,,
Scan Config Type:,Slew,,
Section 1,,
Start wavelength (nm):,900,,
End wavelength (nm):,1700,,
Pattern Pixel Width (nm):,   7.03,,,,
Exposure (ms):,  0.635,,,,
Digital Resolution:,228,,
Num Repeats:,6,,
PGA Gain:,64,,
Total Measurement Time in sec:,  2.724,,
Wavelength (nm),Absorbance (AU),Reference Signal (unitless),Sample Signal (unitless)
901.51,1.297065,108485,5474
905.376,1.338573,121306,5563
909.237,1.324881,131909,6243
913.095,1.295725,143299,7253
916.948,1.313268,156982,7631
922.079,1.308374,179937,8846
925.923,1.293864,200504,10192
929.762,1.306724,222660,10988
933.597,1.307124,244426,12051
937.427,1.307080,263972,13016
941.254,1.307089,281845,13897
945.076,1.303419,297271,14782
950.165,1.308420,315605,15514
953.978,1.313887,328029,15923
957.786,1.304552,340470,16886
961.59,1.301125,352317,17612
965.389,1.309505,363056,17802
969.185,1.299105,373162,18741
972.976,1.296235,382632,19344
976.763,1.306079,391202,19334
981.806,1.306282,400190,19769
985.583,1.315523,406088,19638
989.355,1.304540,410162,20343
993.124,1.307140,412868,20355
996.888,1.305056,414263,20522
1000.65,1.307662,415476,20459
1004.4,1.308089,415479,20439
1009.41,1.308001,414358,20388
1013.15,1.316296,412923,19933
1016.89,1.309519,411526,20178
1020.63,1.310937,409066,19992
1024.36,1.300323,406777,20372
1028.09,1.307551,404427,19920
1031.82,1.310502,401911,19662
1036.78,1.311857,398410,19430
1040.49,1.316499,396204,19117
1044.2,1.314496,394236,19110
1047.91,1.311345,392042,19142
1051.61,1.300276,389823,19525
1055.31,1.303851,388234,19286
1059,1.311416,387599,18922
1063.92,1.317288,386688,18624
1067.61,1.310040,386598,18933
1071.29,1.309838,387377,18980
1074.96,1.315389,388536,18795
1078.63,1.301872,389855,19455
1082.3,1.312954,391215,19031
1085.96,1.323230,393215,18681
1090.84,1.308826,396270,19461
1094.49,1.320133,398760,19080
1098.14,1.318271,400987,19269
1101.79,1.320104,403477,19307
1105.43,1.320535,406116,19414
1109.06,1.314555,407701,19760
1112.7,1.317199,409859,19744
1117.53,1.320467,412494,19722
1121.15,1.316684,414909,20011
1124.77,1.318755,416559,19995
1128.38,1.310462,418532,20477
1131.99,1.314234,419956,20369
1135.6,1.318082,421946,20285
1139.2,1.318424,423881,20362
1143.99,1.319411,426786,20455
1147.58,1.330692,428617,20016
1151.17,1.320822,431169,20598
1154.75,1.312272,433579,21125
1158.33,1.322397,436264,20766
1161.91,1.322740,439132,20886
1165.48,1.309064,442389,21714
1169.04,1.317844,446101,21458
1173.79,1.316753,451929,21793
1177.34,1.317258,456026,21965
1180.9,1.318792,461306,22141
1184.44,1.319893,467657,22389
1187.99,1.312176,473969,23098
1191.52,1.317950,479856,23076
1195.06,1.315206,487372,23586
1199.76,1.323527,497347,23612
1203.29,1.324919,504311,23866
1206.81,1.325108,511507,24196
1210.33,1.318040,519078,24957
1213.84,1.322791,527163,25070
1217.35,1.323750,534208,25349
1220.85,1.322620,540472,25713
1225.51,1.320615,549929,26284
1229.01,1.324971,556888,26351
1232.5,1.325255,562180,26584
1235.98,1.321440,567975,27095
1239.46,1.326367,574815,27112
1242.94,1.319529,582782,27924
1246.41,1.326598,591476,27883
1251.03,1.321535,604016,28808
1254.5,1.320504,612289,29272
1257.96,1.328602,619125,29052
1261.41,1.328552,624551,29310
1264.86,1.327057,629900,29663
1268.31,1.330125,634345,29662
1271.75,1.329976,638574,29870
1276.33,1.330100,642499,30045
1279.76,1.328654,645905,30305
1283.19,1.328422,648307,30434
1286.61,1.326045,650446,30702
1290.03,1.330677,652132,30455
1293.44,1.328618,653907,30683
1296.85,1.328399,655963,30795
1301.39,1.333041,657349,30532
1304.8,1.328412,657558,30869
1308.19,1.330057,658515,30797
1311.58,1.331858,658804,30683
1314.97,1.328948,659011,30899
1318.36,1.331027,658272,30717
1321.73,1.335067,658022,30421
1326.23,1.328378,657870,30886
1329.6,1.338599,656482,30104
1332.97,1.328729,654926,30723
1336.33,1.335893,653727,30165
1339.69,1.327016,652497,30730
1343.04,1.331886,649913,30267
1346.39,1.326485,647671,30540
1349.73,1.328832,645338,30266
1354.18,1.330609,641175,29948
1357.52,1.330001,638376,29859
1360.85,1.326956,635805,29948
1364.17,1.324855,633413,29980
1367.49,1.332632,631026,29337
1370.81,1.328187,628050,29499
1374.12,1.325376,625034,29548
1378.54,1.325833,620272,29292
1381.84,1.330907,616892,28794
1385.14,1.330603,613613,28661
1388.43,1.326902,611526,28808
1391.72,1.322327,610663,29072
1395.01,1.326193,610634,28813
1398.29,1.336135,611700,28210
1402.66,1.327893,614051,28861
1405.93,1.322517,616268,29326
1409.2,1.329136,617795,28954
1412.46,1.331169,618872,28869
1415.72,1.333656,619795,28747
1418.98,1.329338,620495,29067
1422.23,1.330844,621087,28994
1426.56,1.334338,621375,28775
1429.8,1.333226,621616,28860
1433.04,1.329943,622129,29103
1436.27,1.335048,621526,28735
1439.5,1.336850,621113,28597
1442.72,1.332800,620921,28856
1445.94,1.330992,620270,28946
1450.23,1.335318,618860,28594
1453.44,1.333075,617697,28688
1456.64,1.332657,616264,28649
1459.85,1.335142,614413,28400
1463.04,1.336135,612307,28238
1466.24,1.334211,610032,28258
1469.43,1.342353,607345,27611
1473.67,1.334861,603789,27927
1476.85,1.333226,601175,27911
1480.02,1.337383,597737,27487
1483.19,1.337370,594479,27338
1486.36,1.341199,591232,26950
1489.52,1.333329,587853,27286
1492.68,1.341030,583875,26625
1496.89,1.338450,578062,26517
1500.03,1.332928,574159,26675
1503.18,1.335542,570285,26336
1506.32,1.341562,565444,25753
1509.45,1.340560,560571,25590
1512.58,1.332911,555821,25824
1515.71,1.338390,550344,25249
1519.87,1.339648,543983,24885
1522.99,1.334293,538764,24952
1526.1,1.337416,533692,24540
1529.21,1.333760,527902,24479
1532.32,1.340743,521886,23814
1535.42,1.341469,515888,23501
1538.51,1.335107,509987,23575
1541.6,1.337918,503936,23145
1545.72,1.333403,494694,22958
1548.8,1.335513,488378,22555
1551.88,1.327981,481832,22642
1554.95,1.345925,474989,21417
1558.02,1.334980,467818,21632
1561.08,1.328430,460730,21628
1564.15,1.343457,454170,20595
1568.22,1.329309,444181,20809
1571.27,1.340290,436947,19959
1574.32,1.332989,429598,19956
1577.36,1.338133,422039,19374
1580.4,1.334205,414375,19195
1583.43,1.330906,406354,18967
1586.46,1.331192,398475,18587
1590.49,1.335817,388982,17952
1593.51,1.332177,380708,17718
1596.53,1.328328,372727,17501
1599.54,1.330411,365060,17059
1602.55,1.326703,357543,16851
1605.55,1.327856,349495,16428
1608.55,1.320363,341154,16315
1612.54,1.324376,330877,15678
1615.53,1.326602,322904,15222
1618.51,1.328297,315116,14797
1621.49,1.323539,307217,14585
1624.47,1.327520,299481,14088
1627.44,1.324194,292112,13847
1630.41,1.319611,284245,13617
1634.36,1.323331,274079,13018
1637.32,1.325728,266916,12608
1640.27,1.323608,259612,12323
1643.22,1.329622,251804,11788
1646.16,1.297328,244348,12322
1649.1,1.319552,236703,11341
1652.04,1.324756,228171,10802
1655.95,1.321522,215408,10274
1658.88,1.329440,204937,9598
1661.8,1.318850,193395,9281
1664.72,1.337899,179728,8255
1667.63,1.343725,163642,7416
1670.54,1.319996,146312,7003
1673.44,1.318804,128451,6165
1677.31,1.360181,105080,4585
1680.21,1.331616,88906,4143
1683.1,1.352678,75033,3331
1685.99,1.342614,63520,2886
1688.87,1.281072,53714,2812
1691.75,1.318233,45653,2194
1694.62,1.296581,39137,1977
1697.49,1.182843,33776,2217
1701.31,1.305290,28175,1395