File: ML/samples/unknown/Column 1_078694_20241121_171740.csv
Method:,Column 1,,
Host Date-Time:,21/11/24 @ 17:17:40,,
Header Version:,1,,
System Temp (C):,34.99,,
Detector Temp (C):,34.5,,
Humidity (%):,1.71,,
Lamp PD:,3800,,
Shift Vector Coefficients:,-10.5391,0.0761263,-0.000134223,,
Pixel to Wavelength Coefficients:,1775.68,-0.916766,-0.000235065,,
Serial Number:,5510004,,
Scan Config Name:,Column 1,,
Scan Config Type:,Slew,,
Section 1,,
Start wavelength (nm):,900,,
End wavelength (nm):,1700,,
Pattern Pixel Width (nm):,   7.03,,,,
Exposure (ms):,  0.635,,,,
Digital Resolution:,228,,
Num Repeats:,6,,
PGA Gain:,64,,
Total Measurement Time in sec:,  2.724,,
Wavelength (nm),Absorbance (AU),Reference Signal (unitless),Sample Signal (unitless)
901.51,1.319450,108485,5199
905.376,1.320604,121306,5798
909.237,1.311389,131909,6440
913.095,1.313509,143299,6962
916.948,1.320557,156982,7504
922.079,1.319664,179937,8619
925.923,1.337581,200504,9216
929.762,1.315346,222660,10772
933.597,1.318331,244426,11744
937.427,1.318233,263972,12686
941.254,1.315865,281845,13619
945.076,1.305009,297271,14728
950.165,1.313035,315605,15350
953.978,1.304178,328029,16283
957.786,1.304218,340470,16899
961.59,1.304268,352317,17485
965.389,1.307655,363056,17878
969.185,1.299893,373162,18707
972.976,1.299299,382632,19208
976.763,1.302277,391202,19504
981.806,1.301953,400190,19967
985.583,1.308460,406088,19960
989.355,1.304306,410162,20354
993.124,1.309815,412868,20230
996.888,1.302482,414263,20644
1000.65,1.298067,415476,20916
1004.4,1.303482,415479,20657
1009.41,1.308662,414358,20357
1013.15,1.309251,412923,20259
1016.89,1.316243,411526,19868
1020.63,1.308857,409066,20088
1024.36,1.306074,406777,20104
1028.09,1.300780,404427,20233
1031.82,1.304753,401911,19924
1036.78,1.303599,398410,19803
1040.49,1.323392,396204,18816
1044.2,1.302814,394236,19631
1047.91,1.298844,392042,19701
1051.61,1.298656,389823,19598
1055.31,1.302256,388234,19357
1059,1.295971,387599,19607
1063.92,1.296525,386688,19536
1067.61,1.305454,386598,19134
1071.29,1.316710,387377,18682
1074.96,1.313176,388536,18891
1078.63,1.315407,389855,18858
1082.3,1.309046,391215,19203
1085.96,1.304863,393215,19488
1090.84,1.309921,396270,19412
1094.49,1.309343,398760,19560
1098.14,1.305348,400987,19851
1101.79,1.316274,403477,19478
1105.43,1.311240,406116,19834
1109.06,1.308184,407701,20052
1112.7,1.315947,409859,19801
1117.53,1.317810,412494,19843
1121.15,1.309965,414909,20323
1124.77,1.317411,416559,20057
1128.38,1.320981,418532,19987
1131.99,1.308031,419956,20662
1135.6,1.313545,421946,20498
1139.2,1.312471,423881,20643
1143.99,1.319092,426786,20470
1147.58,1.308302,428617,21075
1151.17,1.317295,431169,20766
1154.75,1.315263,433579,20980
1158.33,1.310616,436264,21337
1161.91,1.318560,439132,21088
1165.48,1.319796,442389,21184
1169.04,1.317581,446101,21471
1173.79,1.307994,451929,22237
1177.34,1.312402,456026,22212
1180.9,1.307963,461306,22700
1184.44,1.318324,467657,22470
1187.99,1.315858,473969,22903
1191.52,1.314296,479856,23271
1195.06,1.314268,487372,23637
1199.76,1.326702,497347,23440
1203.29,1.315736,504311,24376
1206.81,1.322602,511507,24336
1210.33,1.320029,519078,24843
1213.84,1.313976,527163,25584
1217.35,1.318369,534208,25665
1220.85,1.321153,540472,25800
1225.51,1.317028,549929,26502
1229.01,1.326010,556888,26288
1232.5,1.314796,562180,27232
1235.98,1.316674,567975,27394
1239.46,1.318855,574815,27585
1242.94,1.320089,582782,27888
1246.41,1.318894,591476,28382
1251.03,1.317932,604016,29048
1254.5,1.322840,612289,29115
1257.96,1.317606,619125,29797
1261.41,1.318505,624551,29996
1264.86,1.325712,629900,29755
1268.31,1.322333,634345,30199
1271.75,1.322338,638574,30400
1276.33,1.324713,642499,30420
1279.76,1.326125,645905,30482
1283.19,1.318657,648307,31126
1286.61,1.324111,650446,30839
1290.03,1.330050,652132,30499
1293.44,1.326148,653907,30858
1296.85,1.328371,655963,30797
1301.39,1.325231,657349,31086
1304.8,1.327695,657558,30920
1308.19,1.324801,658515,31172
1311.58,1.329656,658804,30839
1314.97,1.327419,659011,31008
1318.36,1.326246,658272,31057
1321.73,1.332718,658022,30586
1326.23,1.326568,657870,31015
1329.6,1.329138,656482,30767
1332.97,1.331650,654926,30517
1336.33,1.326775,653727,30805
1339.69,1.334960,652497,30173
1343.04,1.322841,649913,30904
1346.39,1.328338,647671,30410
1349.73,1.324762,645338,30551
1354.18,1.327459,641175,30166
1357.52,1.326986,638376,30067
1360.85,1.323950,635805,30156
1364.17,1.324537,633413,30002
1367.49,1.323158,631026,29984
1370.81,1.325384,628050,29690
1374.12,1.325876,625034,29514
1378.54,1.326367,620272,29256
1381.84,1.322468,616892,29359
1385.14,1.331270,613613,28617
1388.43,1.331372,611526,28513
1391.72,1.322073,610663,29089
1395.01,1.328672,610634,28649
1398.29,1.323751,611700,29026
1402.66,1.327442,614051,28891
1405.93,1.324104,616268,29219
1409.2,1.328821,617795,28975
1412.46,1.328500,618872,29047
1415.72,1.332147,619795,28847
1418.98,1.325678,620495,29313
1422.23,1.325086,621087,29381
1426.56,1.330956,621375,29000
1429.8,1.331604,621616,28968
1433.04,1.332922,622129,28904
1436.27,1.335003,621526,28738
1439.5,1.333296,621113,28832
1442.72,1.330309,620921,29022
1445.94,1.323540,620270,29447
1450.23,1.336854,618860,28493
1453.44,1.330825,617697,28837
1456.64,1.333705,616264,28580
1459.85,1.330049,614413,28735
1463.04,1.332063,612307,28504
1466.24,1.331958,610032,28405
1469.43,1.330729,607345,28360
1473.67,1.331083,603789,28171
1476.85,1.335065,601175,27793
1480.02,1.332372,597737,27806
1483.19,1.356482,594479,26161
1486.36,1.337365,591232,27189
1489.52,1.331217,587853,27419
1492.68,1.328538,583875,27402
1496.89,1.328797,578062,27113
1500.03,1.336508,574159,26456
1503.18,1.333962,570285,26432
1506.32,1.331477,565444,26358
1509.45,1.336271,560571,25844
1512.58,1.327164,555821,26168
1515.71,1.332343,550344,25603
1519.87,1.333444,543983,25243
1522.99,1.334206,538764,24957
1526.1,1.329594,533692,24986
1529.21,1.329259,527902,24734
1532.32,1.331344,521886,24335
1535.42,1.334267,515888,23894
1538.51,1.326733,509987,24034
1541.6,1.331492,503936,23490
1545.72,1.330649,494694,23104
1548.8,1.331565,488378,22761
1551.88,1.325838,481832,22754
1554.95,1.333452,474989,22041
1558.02,1.325390,467818,22115
1561.08,1.327047,460730,21697
1564.15,1.338988,454170,20808
1568.22,1.325734,444181,20981
1571.27,1.337816,436947,20073
1574.32,1.330905,429598,20052
1577.36,1.334161,422039,19552
1580.4,1.334545,414375,19180
1583.43,1.336483,406354,18725
1586.46,1.328234,398475,18714
1590.49,1.320931,388982,18578
1593.51,1.325537,380708,17991
1596.53,1.326965,372727,17556
1599.54,1.328455,365060,17136
1602.55,1.329936,357543,16726
1605.55,1.325720,349495,16509
1608.55,1.326394,341154,16090
1612.54,1.326264,330877,15610
1615.53,1.317818,322904,15533
1618.51,1.314148,315116,15287
1621.49,1.311962,307217,14979
1624.47,1.315271,299481,14491
1627.44,1.307700,292112,14383
1630.41,1.321882,284245,13546
1634.36,1.321036,274079,13087
1637.32,1.303864,266916,13259
1640.27,1.311274,259612,12678
1643.22,1.313317,251804,12239
1646.16,1.317897,244348,11752
1649.1,1.322395,236703,11267
1652.04,1.317263,228171,10990
1655.95,1.303229,215408,10716
1658.88,1.296512,204937,10354
1661.8,1.279167,193395,10169
1664.72,1.255833,179728,9972
1667.63,1.271639,163642,8755
1670.54,1.239607,146312,8427
1673.44,1.232058,128451,7528
1677.31,1.197785,105080,6664
1680.21,1.168830,88906,6027
1683.1,1.152290,75033,5284
1685.99,1.187592,63520,4124
1688.87,1.108600,53714,4183
1691.75,1.168949,45653,3094
1694.62,1.138811,39137,2843
1697.49,1.209711,33776,2084
1701.31,1.206578,28175,1751