File: ML/samples/unknown/Column 1_078611_20241121_171113.csv
Method:,Column 1,,
Host Date-Time:,21/11/24 @ 17:11:13,,
Header Version:,1,,
System Temp (C):,36.82,,
Detector Temp (C):,35.09,,
Humidity (%):,0.83,,
Lamp PD:,3798,,
Shift Vector Coefficients:,-10.5391,0.0761263,-0.000134223,,
Pixel to Wavelength Coefficients:,1775.68,-0.916766,-0.000235065,,
Serial Number:,5510004,,
Scan Config Name:,Column 1,,
Scan Config Type:,Slew,,
Section 1,,
Start wavelength (nm):,900,,
End wavelength (nm):,1700,,
Pattern Pixel Width (nm):,   7.03,,,,
Exposure (ms):,  0.635,,,,
Digital Resolution:,228,,
Num Repeats:,6,,
PGA Gain:,64,,
Total Measurement Time in sec:,  2.730,,
Wavelength (nm),Absorbance (AU),Reference Signal (unitless),Sample Signal (unitless)
901.51,1.325930,108485,5122
905.376,1.334842,121306,5611
909.237,1.326275,131909,6223
913.095,1.311145,143299,7000
916.948,1.350628,156982,7002
922.079,1.341784,179937,8191
925.923,1.327381,200504,9435
929.762,1.317772,222660,10712
933.597,1.322232,244426,11639
937.427,1.322914,263972,12550
941.254,1.317430,281845,13570
945.076,1.321967,297271,14164
950.165,1.308644,315605,15506
953.978,1.321953,328029,15630
957.786,1.313517,340470,16541
961.59,1.308938,352317,17298
965.389,1.297072,363056,18319
969.185,1.306655,373162,18418
972.976,1.302772,382632,19055
976.763,1.300877,391202,19567
981.806,1.306963,400190,19738
985.583,1.309091,406088,19931
989.355,1.301647,410162,20479
993.124,1.301544,412868,20619
996.888,1.303219,414263,20609
1000.65,1.306347,415476,20521
1004.4,1.305420,415479,20565
1009.41,1.311380,414358,20230
1013.15,1.303882,412923,20511
1016.89,1.306132,411526,20336
1020.63,1.308749,409066,20093
1024.36,1.313174,406777,19778
1028.09,1.305788,404427,20001
1031.82,1.306698,401911,19835
1036.78,1.309272,398410,19546
1040.49,1.309022,396204,19449
1044.2,1.307105,394236,19438
1047.91,1.310597,392042,19175
1051.61,1.298080,389823,19624
1055.31,1.302143,388234,19362
1059,1.305647,387599,19175
1063.92,1.308767,386688,18993
1067.61,1.308118,386598,19017
1071.29,1.310227,387377,18963
1074.96,1.302997,388536,19339
1078.63,1.313592,389855,18937
1082.3,1.328070,391215,18380
1085.96,1.311487,393215,19193
1090.84,1.315913,396270,19146
1094.49,1.309631,398760,19547
1098.14,1.310409,400987,19621
1101.79,1.311154,403477,19709
1105.43,1.307642,406116,19999
1109.06,1.319106,407701,19554
1112.7,1.317155,409859,19746
1117.53,1.314931,412494,19975
1121.15,1.314649,414909,20105
1124.77,1.318169,416559,20022
1128.38,1.312439,418532,20384
1131.99,1.315430,419956,20313
1135.6,1.313270,421946,20511
1139.2,1.327040,423881,19962
1143.99,1.328074,426786,20051
1147.58,1.317802,428617,20619
1151.17,1.315000,431169,20876
1154.75,1.322506,433579,20633
1158.33,1.322648,436264,20754
1161.91,1.319962,439132,21020
1165.48,1.313730,442389,21482
1169.04,1.317136,446101,21493
1173.79,1.317391,451929,21761
1177.34,1.314853,456026,22087
1180.9,1.318478,461306,22157
1184.44,1.315377,467657,22623
1187.99,1.313154,473969,23046
1191.52,1.322510,479856,22835
1195.06,1.324249,487372,23100
1199.76,1.322406,497347,23673
1203.29,1.319404,504311,24171
1206.81,1.319544,511507,24508
1210.33,1.318267,519078,24944
1213.84,1.322825,527163,25068
1217.35,1.330535,534208,24956
1220.85,1.326369,540472,25492
1225.51,1.317979,549929,26444
1229.01,1.316678,556888,26859
1232.5,1.319655,562180,26929
1235.98,1.322178,567975,27049
1239.46,1.322507,574815,27354
1242.94,1.324660,582782,27596
1246.41,1.314782,591476,28652
1251.03,1.342063,604016,27478
1254.5,1.322661,612289,29127
1257.96,1.325133,619125,29285
1261.41,1.325967,624551,29485
1264.86,1.333993,629900,29193
1268.31,1.324611,634345,30041
1271.75,1.327396,638574,30048
1276.33,1.323544,642499,30502
1279.76,1.322451,645905,30741
1283.19,1.323413,648307,30787
1286.61,1.321178,650446,31048
1290.03,1.323128,652132,30989
1293.44,1.323091,653907,31076
1296.85,1.328752,655963,30770
1301.39,1.324157,657349,31163
1304.8,1.329087,657558,30821
1308.19,1.325442,658515,31126
1311.58,1.327072,658804,31023
1314.97,1.330215,659011,30809
1318.36,1.330659,658272,30743
1321.73,1.330494,658022,30743
1326.23,1.329519,657870,30805
1329.6,1.327841,656482,30859
1332.97,1.332876,654926,30431
1336.33,1.330912,653727,30513
1339.69,1.333093,652497,30303
1343.04,1.326212,649913,30665
1346.39,1.330242,647671,30277
1349.73,1.326029,645338,30462
1354.18,1.326754,641175,30215
1357.52,1.323978,638376,30276
1360.85,1.330056,635805,29735
1364.17,1.326714,633413,29852
1367.49,1.322116,631026,30056
1370.81,1.320699,628050,30012
1374.12,1.317814,625034,30067
1378.54,1.321966,620272,29554
1381.84,1.318932,616892,29599
1385.14,1.320938,613613,29306
1388.43,1.326254,611526,28851
1391.72,1.325039,610663,28891
1395.01,1.326358,610634,28802
1398.29,1.327523,611700,28775
1402.66,1.327141,614051,28911
1405.93,1.318566,616268,29594
1409.2,1.327698,617795,29050
1412.46,1.327962,618872,29083
1415.72,1.354466,619795,27402
1418.98,1.331690,620495,28910
1422.23,1.329394,621087,29091
1426.56,1.333178,621375,28852
1429.8,1.332099,621616,28935
1433.04,1.333930,622129,28837
1436.27,1.332862,621526,28880
1439.5,1.327476,621113,29221
1442.72,1.329487,620921,29077
1445.94,1.333294,620270,28793
1450.23,1.328895,618860,29020
1453.44,1.330660,617697,28848
1456.64,1.328388,616264,28932
1459.85,1.337457,614413,28249
1463.04,1.336505,612307,28214
1466.24,1.330310,610032,28513
1469.43,1.330944,607345,28346
1473.67,1.332596,603789,28073
1476.85,1.339226,601175,27528
1480.02,1.333059,597737,27762
1483.19,1.329093,594479,27864
1486.36,1.333595,591232,27426
1489.52,1.331170,587853,27422
1492.68,1.336858,583875,26882
1496.89,1.333807,578062,26802
1500.03,1.335393,574159,26524
1503.18,1.331145,570285,26604
1506.32,1.339862,565444,25854
1509.45,1.336019,560571,25859
1512.58,1.337119,555821,25575
1515.71,1.334946,550344,25450
1519.87,1.334357,543983,25190
1522.99,1.330740,538764,25157
1526.1,1.335174,533692,24667
1529.21,1.328697,527902,24766
1532.32,1.338796,521886,23921
1535.42,1.329243,515888,24172
1538.51,1.338882,509987,23371
1541.6,1.331030,503936,23515
1545.72,1.333384,494694,22959
1548.8,1.331985,488378,22739
1551.88,1.333618,481832,22350
1554.95,1.334340,474989,21996
1558.02,1.327891,467818,21988
1561.08,1.328009,460730,21649
1564.15,1.331826,454170,21154
1568.22,1.331464,444181,20706
1571.27,1.332185,436947,20335
1574.32,1.336134,429598,19812
1577.36,1.329104,422039,19781
1580.4,1.326336,414375,19546
1583.43,1.332834,406354,18883
1586.46,1.338781,398475,18265
1590.49,1.330145,388982,18188
1593.51,1.327133,380708,17925
1596.53,1.324449,372727,17658
1599.54,1.336719,365060,16813
1602.55,1.318609,357543,17168
1605.55,1.319426,349495,16750
1608.55,1.327638,341154,16044
1612.54,1.312005,330877,16131
1615.53,1.316506,322904,15580
1618.51,1.318746,315116,15126
1621.49,1.322082,307217,14634
1624.47,1.315031,299481,14499
1627.44,1.322129,292112,13913
1630.41,1.327626,284245,13368
1634.36,1.302012,274079,13673
1637.32,1.331031,266916,12455
1640.27,1.303163,259612,12917
1643.22,1.298046,251804,12677
1646.16,1.305654,244348,12088
1649.1,1.311622,236703,11550
1652.04,1.320754,228171,10902
1655.95,1.303229,215408,10716
1658.88,1.283985,204937,10657
1661.8,1.284193,193395,10052
1664.72,1.267934,179728,9698
1667.63,1.237316,163642,9475
1670.54,1.241208,146312,8396
1673.44,1.194659,128451,8205
1677.31,1.182105,105080,6909
1680.21,1.171142,88906,5995
1683.1,1.172219,75033,5047
1685.99,1.153965,63520,4456
1688.87,1.157332,53714,3739
1691.75,1.190089,45653,2947
1694.62,1.172962,39137,2628
1697.49,1.137673,33776,2460
1701.31,1.113204,28175,2171