File: ML/samples/unknown/Column 1_078963_20241121_173038.csv
Method:,Column 1,,
Host Date-Time:,21/11/24 @ 17:30:38,,
Header Version:,1,,
System Temp (C):,37.79,,
Detector Temp (C):,36.83,,
Humidity (%):,0.64,,
Lamp PD:,3795,,
Shift Vector Coefficients:,-10.5391,0.0761263,-0.000134223,,
Pixel to Wavelength Coefficients:,1775.68,-0.916766,-0.000235065,,
Serial Number:,5510004,,
Scan Config Name:,Column 1,,
Scan Config Type:,Slew,,
Section 1,,
Start wavelength (nm):,900,,
End wavelength (nm):,1700,,
Pattern Pixel Width (nm):,   7.03,,,,
Exposure (ms):,  0.635,,,,
Digital Resolution:,228,,
Num Repeats:,6,,
PGA Gain:,64,,
Total Measurement Time in sec:,  2.728,,
Wavelength (nm),Absorbance (AU),Reference Signal (unitless),Sample Signal (unitless)
901.51,1.300890,108485,5426
905.376,1.294020,121306,6164
909.237,1.297714,131909,6646
913.095,1.309844,143299,7021
916.948,1.322820,156982,7465
922.079,1.326059,179937,8493
925.923,1.309570,200504,9830
929.762,1.311333,222660,10872
933.597,1.313185,244426,11884
937.427,1.318473,263972,12679
941.254,1.314878,281845,13650
945.076,1.306160,297271,14689
950.165,1.320743,315605,15080
953.978,1.312988,328029,15956
957.786,1.316785,340470,16417
961.59,1.314395,352317,17082
965.389,1.318402,363056,17441
969.185,1.306207,373162,18437
972.976,1.309664,382632,18755
976.763,1.308354,391202,19233
981.806,1.305031,400190,19826
985.583,1.312130,406088,19792
989.355,1.307432,410162,20208
993.124,1.301354,412868,20628
996.888,1.308989,414263,20337
1000.65,1.304068,415476,20629
1004.4,1.300778,415479,20786
1009.41,1.299125,414358,20809
1013.15,1.309530,412923,20246
1016.89,1.305598,411526,20361
1020.63,1.301504,409066,20431
1024.36,1.300088,406777,20383
1028.09,1.314208,404427,19617
1031.82,1.301994,401911,20051
1036.78,1.311589,398410,19442
1040.49,1.309401,396204,19432
1044.2,1.296576,394236,19915
1047.91,1.301831,392042,19566
1051.61,1.303267,389823,19391
1055.31,1.306268,388234,19179
1059,1.310499,387599,18962
1063.92,1.299783,386688,19390
1067.61,1.307889,386598,19027
1071.29,1.307305,387377,19091
1074.96,1.313268,388536,18887
1078.63,1.312104,389855,19002
1082.3,1.302425,391215,19498
1085.96,1.312189,393215,19162
1090.84,1.315188,396270,19178
1094.49,1.309099,398760,19571
1098.14,1.306355,400987,19805
1101.79,1.309922,403477,19765
1105.43,1.312797,406116,19763
1109.06,1.312538,407701,19852
1112.7,1.321110,409859,19567
1117.53,1.309572,412494,20223
1121.15,1.313549,414909,20156
1124.77,1.318256,416559,20018
1128.38,1.314147,418532,20304
1131.99,1.305203,419956,20797
1135.6,1.320099,421946,20191
1139.2,1.317316,423881,20414
1143.99,1.317335,426786,20553
1147.58,1.313797,428617,20810
1151.17,1.305983,431169,21314
1154.75,1.316984,433579,20897
1158.33,1.314562,436264,21144
1161.91,1.308604,439132,21577
1165.48,1.316061,442389,21367
1169.04,1.312713,446101,21713
1173.79,1.312509,451929,22007
1177.34,1.318883,456026,21883
1180.9,1.315840,461306,22292
1184.44,1.316319,467657,22574
1187.99,1.312307,473969,23091
1191.52,1.311784,479856,23406
1195.06,1.312288,487372,23745
1199.76,1.318843,497347,23868
1203.29,1.317253,504311,24291
1206.81,1.320964,511507,24428
1210.33,1.313350,519078,25228
1213.84,1.315524,527163,25493
1217.35,1.313540,534208,25952
1220.85,1.319691,540472,25887
1225.51,1.316046,549929,26562
1229.01,1.317536,556888,26806
1232.5,1.314206,562180,27269
1235.98,1.316293,567975,27418
1239.46,1.320101,574815,27506
1242.94,1.323795,582782,27651
1246.41,1.316742,591476,28523
1251.03,1.314759,604016,29261
1254.5,1.316237,612289,29561
1257.96,1.321118,619125,29557
1261.41,1.318997,624551,29962
1264.86,1.320676,629900,30102
1268.31,1.319881,634345,30370
1271.75,1.326529,638574,30108
1276.33,1.324528,642499,30433
1279.76,1.319999,645905,30915
1283.19,1.322202,648307,30873
1286.61,1.325776,650446,30721
1290.03,1.326943,652132,30718
1293.44,1.320305,653907,31276
1296.85,1.323840,655963,31120
1301.39,1.332472,657349,30572
1304.8,1.327540,657558,30931
1308.19,1.324272,658515,31210
1311.58,1.322962,658804,31318
1314.97,1.329258,659011,30877
1318.36,1.325589,658272,31104
1321.73,1.325704,658022,31084
1326.23,1.325003,657870,31127
1329.6,1.330155,656482,30695
1332.97,1.327571,654926,30805
1336.33,1.324736,653727,30950
1339.69,1.318632,652497,31329
1343.04,1.326595,649913,30638
1346.39,1.324655,647671,30669
1349.73,1.325060,645338,30530
1354.18,1.326280,641175,30248
1357.52,1.324581,638376,30234
1360.85,1.321265,635805,30343
1364.17,1.322904,633413,30115
1367.49,1.326210,631026,29774
1370.81,1.324113,628050,29777
1374.12,1.322548,625034,29741
1378.54,1.327021,620272,29212
1381.84,1.326465,616892,29090
1385.14,1.326426,613613,28938
1388.43,1.326390,611526,28842
1391.72,1.327345,610663,28738
1395.01,1.317330,610634,29407
1398.29,1.323841,611700,29020
1402.66,1.323864,614051,29130
1405.93,1.327506,616268,28991
1409.2,1.331316,617795,28809
1412.46,1.333961,618872,28684
1415.72,1.333067,619795,28786
1418.98,1.327192,620495,29211
1422.23,1.330485,621087,29018
1426.56,1.323179,621375,29524
1429.8,1.322509,621616,29581
1433.04,1.330211,622129,29085
1436.27,1.328419,621526,29177
1439.5,1.325104,621113,29381
1442.72,1.332334,620921,28887
1445.94,1.327079,620270,29208
1450.23,1.332215,618860,28799
1453.44,1.325066,617697,29222
1456.64,1.335273,616264,28477
1459.85,1.328887,614413,28812
1463.04,1.331287,612307,28555
1466.24,1.329518,610032,28565
1469.43,1.333787,607345,28161
1473.67,1.330374,603789,28217
1476.85,1.325560,601175,28408
1480.02,1.335114,597737,27631
1483.19,1.328906,594479,27876
1486.36,1.329969,591232,27656
1489.52,1.330015,587853,27495
1492.68,1.331991,583875,27185
1496.89,1.329887,578062,27045
1500.03,1.333058,574159,26667
1503.18,1.337907,570285,26193
1506.32,1.335450,565444,26118
1509.45,1.332256,560571,26084
1512.58,1.338548,555821,25491
1515.71,1.335185,550344,25436
1519.87,1.337246,543983,25023
1522.99,1.333615,538764,24991
1526.1,1.329890,533692,24969
1529.21,1.330666,527902,24654
1532.32,1.330204,521886,24399
1535.42,1.330412,515888,24107
1538.51,1.335845,509987,23535
1541.6,1.330514,503936,23543
1545.72,1.329523,494694,23164
1548.8,1.330936,488378,22794
1551.88,1.330732,481832,22499
1554.95,1.331447,474989,22143
1558.02,1.329276,467818,21918
1561.08,1.328470,460730,21626
1564.15,1.326419,454170,21419
1568.22,1.329455,444181,20802
1571.27,1.339898,436947,19977
1574.32,1.323965,429598,20375
1577.36,1.331261,422039,19683
1580.4,1.315778,414375,20027
1583.43,1.326214,406354,19173
1586.46,1.326752,398475,18778
1590.49,1.312389,388982,18947
1593.51,1.323466,380708,18077
1596.53,1.328676,372727,17487
1599.54,1.328328,365060,17141
1602.55,1.318634,357543,17167
1605.55,1.323385,349495,16598
1608.55,1.321910,341154,16257
1612.54,1.314381,330877,16043
1615.53,1.309373,322904,15838
1618.51,1.320415,315116,15068
1621.49,1.317096,307217,14803
1624.47,1.314881,299481,14504
1627.44,1.312925,292112,14211
1630.41,1.318847,284245,13641
1634.36,1.303093,274079,13639
1637.32,1.305834,266916,13199
1640.27,1.309292,259612,12736
1643.22,1.308272,251804,12382
1646.16,1.294377,244348,12406
1649.1,1.312827,236703,11518
1652.04,1.295002,228171,11568
1655.95,1.288800,215408,11078
1658.88,1.282561,204937,10692
1661.8,1.273018,193395,10314
1664.72,1.253098,179728,10035
1667.63,1.229638,163642,9644
1670.54,1.200832,146312,9214
1673.44,1.205648,128451,8000
1677.31,1.175678,105080,7012
1680.21,1.150280,88906,6290
1683.1,1.118312,75033,5714
1685.99,1.155136,63520,4444
1688.87,1.117410,53714,4099
1691.75,1.046474,45653,4102
1694.62,1.100386,39137,3106
1697.49,1.106840,33776,2641
1701.31,1.241691,28175,1615