File: ML/samples/unknown/Column 1_078411_20241121_170121.csv
Method:,Column 1,,
Host Date-Time:,21/11/24 @ 17:1:21,,
Header Version:,1,,
System Temp (C):,34.77,,
Detector Temp (C):,33.73,,
Humidity (%):,2.16,,
Lamp PD:,3801,,
Shift Vector Coefficients:,-10.5391,0.0761263,-0.000134223,,
Pixel to Wavelength Coefficients:,1775.68,-0.916766,-0.000235065,,
Serial Number:,5510004,,
Scan Config Name:,Column 1,,
Scan Config Type:,Slew,,
Section 1,,
Start wavelength (nm):,900,,
End wavelength (nm):,1700,,
Pattern Pixel Width (nm):,   7.03,,,,
Exposure (ms):,  0.635,,,,
Digital Resolution:,228,,
Num Repeats:,6,,
PGA Gain:,64,,
Total Measurement Time in sec:,  2.726,,
Wavelength (nm),Absorbance (AU),Reference Signal (unitless),Sample Signal (unitless)
901.51,1.305395,108485,5370
905.376,1.315836,121306,5862
909.237,1.318665,131909,6333
913.095,1.305597,143299,7090
916.948,1.320673,156982,7502
922.079,1.316551,179937,8681
925.923,1.313609,200504,9739
929.762,1.312934,222660,10832
933.597,1.326167,244426,11534
937.427,1.316661,263972,12732
941.254,1.321482,281845,13444
945.076,1.319033,297271,14260
950.165,1.324299,315605,14957
953.978,1.306907,328029,16181
957.786,1.316309,340470,16435
961.59,1.310069,352317,17253
965.389,1.307363,363056,17890
969.185,1.317494,373162,17964
972.976,1.309989,382632,18741
976.763,1.324479,391202,18532
981.806,1.301323,400190,19996
985.583,1.307438,406088,20007
989.355,1.304647,410162,20338
993.124,1.309665,412868,20237
996.888,1.308029,414263,20382
1000.65,1.309150,415476,20389
1004.4,1.307813,415479,20452
1009.41,1.304627,414358,20547
1013.15,1.312435,412923,20111
1016.89,1.314759,411526,19936
1020.63,1.297357,409066,20627
1024.36,1.301689,406777,20308
1028.09,1.304314,404427,20069
1031.82,1.307158,401911,19814
1036.78,1.312551,398410,19399
1040.49,1.309379,396204,19433
1044.2,1.311461,394236,19244
1047.91,1.317607,392042,18868
1051.61,1.302104,389823,19443
1055.31,1.313598,388234,18858
1059,1.313094,387599,18849
1063.92,1.303698,386688,19216
1067.61,1.317723,386598,18601
1071.29,1.313076,387377,18839
1074.96,1.315574,388536,18787
1078.63,1.310325,389855,19080
1082.3,1.311473,391215,19096
1085.96,1.307119,393215,19387
1090.84,1.321162,396270,18916
1094.49,1.316936,398760,19221
1098.14,1.303601,400987,19931
1101.79,1.308146,403477,19846
1105.43,1.316660,406116,19588
1109.06,1.313984,407701,19786
1112.7,1.321088,409859,19568
1117.53,1.319521,412494,19765
1121.15,1.317031,414909,19995
1124.77,1.321632,416559,19863
1128.38,1.313549,418532,20332
1131.99,1.316564,419956,20260
1135.6,1.323814,421946,20019
1139.2,1.317507,423881,20405
1143.99,1.324193,426786,20231
1147.58,1.320994,428617,20468
1151.17,1.319454,431169,20663
1154.75,1.319276,433579,20787
1158.33,1.316559,436264,21047
1161.91,1.322303,439132,20907
1165.48,1.316895,442389,21326
1169.04,1.314156,446101,21641
1173.79,1.313359,451929,21964
1177.34,1.319777,456026,21838
1180.9,1.314653,461306,22353
1184.44,1.316204,467657,22580
1187.99,1.317016,473969,22842
1191.52,1.323252,479856,22796
1195.06,1.320151,487372,23319
1199.76,1.321307,497347,23733
1203.29,1.321619,504311,24048
1206.81,1.317123,511507,24645
1210.33,1.326723,519078,24463
1213.84,1.320648,527163,25194
1217.35,1.327743,534208,25117
1220.85,1.319272,540472,25912
1225.51,1.318505,549929,26412
1229.01,1.324049,556888,26407
1232.5,1.329788,562180,26308
1235.98,1.328257,567975,26673
1239.46,1.327393,574815,27048
1242.94,1.327835,582782,27395
1246.41,1.318496,591476,28408
1251.03,1.318845,604016,28987
1254.5,1.323975,612289,29039
1257.96,1.325000,619125,29294
1261.41,1.326055,624551,29479
1264.86,1.328729,629900,29549
1268.31,1.327658,634345,29831
1271.75,1.327251,638574,30058
1276.33,1.322066,642499,30606
1279.76,1.331761,645905,30089
1283.19,1.325804,648307,30618
1286.61,1.329553,650446,30455
1290.03,1.331376,652132,30406
1293.44,1.329086,653907,30650
1296.85,1.334549,655963,30362
1301.39,1.328006,657349,30888
1304.8,1.335761,657558,30351
1308.19,1.333242,658515,30572
1311.58,1.325982,658804,31101
1314.97,1.330638,659011,30779
1318.36,1.333935,658272,30512
1321.73,1.333187,658022,30553
1326.23,1.332177,657870,30617
1329.6,1.331246,656482,30618
1332.97,1.332092,654926,30486
1336.33,1.332052,653727,30433
1339.69,1.338936,652497,29898
1343.04,1.335314,649913,30029
1346.39,1.326613,647671,30531
1349.73,1.328631,645338,30280
1354.18,1.329465,641175,30027
1357.52,1.328564,638376,29958
1360.85,1.327246,635805,29928
1364.17,1.326903,633413,29839
1367.49,1.325190,631026,29844
1370.81,1.328540,628050,29475
1374.12,1.327542,625034,29401
1378.54,1.329511,620272,29045
1381.84,1.332751,616892,28672
1385.14,1.326516,613613,28932
1388.43,1.326826,611526,28813
1391.72,1.328829,610663,28640
1395.01,1.327324,610634,28738
1398.29,1.327463,611700,28779
1402.66,1.327773,614051,28869
1405.93,1.330091,616268,28819
1409.2,1.326221,617795,29149
1412.46,1.332374,618872,28789
1415.72,1.331666,619795,28879
1418.98,1.323874,620495,29435
1422.23,1.328961,621087,29120
1426.56,1.331630,621375,28955
1429.8,1.332534,621616,28906
1433.04,1.333945,622129,28836
1436.27,1.335214,621526,28724
1439.5,1.329561,621113,29081
1442.72,1.328830,620921,29121
1445.94,1.335199,620270,28667
1450.23,1.336428,618860,28521
1453.44,1.336632,617697,28454
1456.64,1.328313,616264,28937
1459.85,1.335111,614413,28402
1463.04,1.334033,612307,28375
1466.24,1.335951,610032,28145
1469.43,1.335998,607345,28018
1473.67,1.330836,603789,28187
1476.85,1.337447,601175,27641
1480.02,1.331545,597737,27859
1483.19,1.338770,594479,27250
1486.36,1.343737,591232,26793
1489.52,1.344894,587853,26569
1492.68,1.336503,583875,26904
1496.89,1.333759,578062,26805
1500.03,1.334445,574159,26582
1503.18,1.338703,570285,26145
1506.32,1.342220,565444,25714
1509.45,1.334577,560571,25945
1512.58,1.331971,555821,25880
1515.71,1.336519,550344,25358
1519.87,1.342203,543983,24739
1522.99,1.338825,538764,24693
1526.1,1.337328,533692,24545
1529.21,1.335431,527902,24385
1532.32,1.341072,521886,23796
1535.42,1.329171,515888,24176
1538.51,1.353105,509987,22618
1541.6,1.332863,503936,23416
1545.72,1.333327,494694,22962
1548.8,1.336111,488378,22524
1551.88,1.335507,481832,22253
1554.95,1.343498,474989,21537
1558.02,1.328603,467818,21952
1561.08,1.338568,460730,21129
1564.15,1.328941,454170,21295
1568.22,1.335446,444181,20517
1571.27,1.327765,436947,20543
1574.32,1.331468,429598,20026
1577.36,1.329258,422039,19774
1580.4,1.328988,414375,19427
1583.43,1.343214,406354,18437
1586.46,1.339019,398475,18255
1590.49,1.333356,388982,18054
1593.51,1.329392,380708,17832
1596.53,1.329645,372727,17448
1599.54,1.331583,365060,17013
1602.55,1.326625,357543,16854
1605.55,1.317202,349495,16836
1608.55,1.326691,341154,16079
1612.54,1.326988,330877,15584
1615.53,1.312207,322904,15735
1618.51,1.329384,315116,14760
1621.49,1.321726,307217,14646
1624.47,1.321307,299481,14291
1627.44,1.312283,292112,14232
1630.41,1.329482,284245,13311
1634.36,1.324133,274079,12994
1637.32,1.315280,266916,12915
1640.27,1.305455,259612,12849
1643.22,1.317668,251804,12117
1646.16,1.307671,244348,12032
1649.1,1.312450,236703,11528
1652.04,1.318490,228171,10959
1655.95,1.304040,215408,10696
1658.88,1.289605,204937,10520
1661.8,1.266499,193395,10470
1664.72,1.268158,179728,9693
1667.63,1.260812,163642,8976
1670.54,1.239452,146312,8430
1673.44,1.227581,128451,7606
1677.31,1.187990,105080,6816
1680.21,1.198577,88906,5628
1683.1,1.192295,75033,4819
1685.99,1.146525,63520,4533
1688.87,1.184039,53714,3516
1691.75,1.194384,45653,2918
1694.62,1.202006,39137,2458
1697.49,1.263554,33776,1841
1701.31,1.192425,28175,1809