File: ML/samples/unknown/Column 1_078747_20241121_172014.csv
Method:,Column 1,,
Host Date-Time:,21/11/24 @ 17:20:14,,
Header Version:,1,,
System Temp (C):,36.37,,
Detector Temp (C):,34.73,,
Humidity (%):,1.17,,
Lamp PD:,3799,,
Shift Vector Coefficients:,-10.5391,0.0761263,-0.000134223,,
Pixel to Wavelength Coefficients:,1775.68,-0.916766,-0.000235065,,
Serial Number:,5510004,,
Scan Config Name:,Column 1,,
Scan Config Type:,Slew,,
Section 1,,
Start wavelength (nm):,900,,
End wavelength (nm):,1700,,
Pattern Pixel Width (nm):,   7.03,,,,
Exposure (ms):,  0.635,,,,
Digital Resolution:,228,,
Num Repeats:,6,,
PGA Gain:,64,,
Total Measurement Time in sec:,  2.727,,
Wavelength (nm),Absorbance (AU),Reference Signal (unitless),Sample Signal (unitless)
901.51,1.284707,108485,5632
905.376,1.292964,121306,6179
909.237,1.300994,131909,6596
913.095,1.289897,143299,7351
916.948,1.305094,156982,7776
922.079,1.320673,179937,8599
925.923,1.305218,200504,9929
929.762,1.310894,222660,10883
933.597,1.317592,244426,11764
937.427,1.315911,263972,12754
941.254,1.310698,281845,13782
945.076,1.303008,297271,14796
950.165,1.306493,315605,15583
953.978,1.320013,328029,15700
957.786,1.308661,340470,16727
961.59,1.306534,352317,17394
965.389,1.299664,363056,18210
969.185,1.303975,373162,18532
972.976,1.309317,382632,18770
976.763,1.301899,391202,19521
981.806,1.299113,400190,20098
985.583,1.302474,406088,20237
989.355,1.304455,410162,20347
993.124,1.305352,412868,20439
996.888,1.302819,414263,20628
1000.65,1.310601,415476,20321
1004.4,1.302096,415479,20723
1009.41,1.302687,414358,20639
1013.15,1.303628,412923,20523
1016.89,1.306880,411526,20301
1020.63,1.296537,409066,20666
1024.36,1.304521,406777,20176
1028.09,1.297977,404427,20364
1031.82,1.307136,401911,19815
1036.78,1.304697,398410,19753
1040.49,1.296845,396204,20002
1044.2,1.306881,394236,19448
1047.91,1.303766,392042,19479
1051.61,1.307317,389823,19211
1055.31,1.305453,388234,19215
1059,1.303952,387599,19250
1063.92,1.306600,386688,19088
1067.61,1.301050,386598,19329
1071.29,1.306147,387377,19142
1074.96,1.309901,388536,19034
1078.63,1.309143,389855,19132
1082.3,1.317681,391215,18825
1085.96,1.308353,393215,19332
1090.84,1.309228,396270,19443
1094.49,1.306951,398760,19668
1098.14,1.309679,400987,19654
1101.79,1.304116,403477,20031
1105.43,1.306969,406116,20030
1109.06,1.311641,407701,19893
1112.7,1.313934,409859,19893
1117.53,1.314866,412494,19978
1121.15,1.306538,414909,20484
1124.77,1.312202,416559,20299
1128.38,1.311715,418532,20418
1131.99,1.314618,419956,20351
1135.6,1.314394,421946,20458
1139.2,1.319876,423881,20294
1143.99,1.311542,426786,20829
1147.58,1.307047,428617,21136
1151.17,1.303484,431169,21437
1154.75,1.314642,433579,21010
1158.33,1.310209,436264,21357
1161.91,1.307539,439132,21630
1165.48,1.311672,442389,21584
1169.04,1.306715,446101,22015
1173.79,1.316972,451929,21782
1177.34,1.310841,456026,22292
1180.9,1.315314,461306,22319
1184.44,1.312488,467657,22774
1187.99,1.315877,473969,22902
1191.52,1.309102,479856,23551
1195.06,1.319406,487372,23359
1199.76,1.316865,497347,23977
1203.29,1.311869,504311,24594
1206.81,1.311068,511507,24991
1210.33,1.311563,519078,25332
1213.84,1.322895,527163,25064
1217.35,1.314209,534208,25912
1220.85,1.316682,540472,26067
1225.51,1.325818,549929,25971
1229.01,1.316581,556888,26865
1232.5,1.311586,562180,27434
1235.98,1.317245,567975,27358
1239.46,1.318855,574815,27585
1242.94,1.317945,582782,28026
1246.41,1.321811,591476,28192
1251.03,1.321716,604016,28796
1254.5,1.324753,612289,28987
1257.96,1.323889,619125,29369
1261.41,1.317088,624551,30094
1264.86,1.321442,629900,30049
1268.31,1.321471,634345,30259
1271.75,1.325737,638574,30163
1276.33,1.322364,642499,30585
1279.76,1.323356,645905,30677
1283.19,1.326045,648307,30601
1286.61,1.322719,650446,30938
1290.03,1.322568,652132,31029
1293.44,1.323426,653907,31052
1296.85,1.321238,655963,31307
1301.39,1.321434,657349,31359
1304.8,1.320410,657558,31443
1308.19,1.322287,658515,31353
1311.58,1.326471,658804,31066
1314.97,1.322946,659011,31329
1318.36,1.330137,658272,30780
1321.73,1.328310,658022,30898
1326.23,1.326344,657870,31031
1329.6,1.323584,656482,31163
1332.97,1.320370,654926,31320
1336.33,1.328484,653727,30684
1339.69,1.322098,652497,31080
1343.04,1.324714,649913,30771
1346.39,1.320077,647671,30994
1349.73,1.318005,645338,31030
1354.18,1.319103,641175,30752
1357.52,1.323004,638376,30344
1360.85,1.316879,635805,30651
1364.17,1.322673,633413,30131
1367.49,1.325132,631026,29848
1370.81,1.324274,628050,29766
1374.12,1.321192,625034,29834
1378.54,1.316998,620272,29894
1381.84,1.323875,616892,29264
1385.14,1.321680,613613,29256
1388.43,1.316961,611526,29475
1391.72,1.324138,610663,28951
1395.01,1.329704,610634,28581
1398.29,1.323318,611700,29055
1402.66,1.324371,614051,29096
1405.93,1.328541,616268,28922
1409.2,1.325387,617795,29205
1412.46,1.324511,618872,29315
1415.72,1.322853,619795,29471
1418.98,1.319879,620495,29707
1422.23,1.330395,621087,29024
1426.56,1.326783,621375,29280
1429.8,1.330137,621616,29066
1433.04,1.329033,622129,29164
1436.27,1.330119,621526,29063
1439.5,1.325208,621113,29374
1442.72,1.325813,620921,29324
1445.94,1.328360,620270,29122
1450.23,1.329734,618860,28964
1453.44,1.325482,617697,29194
1456.64,1.332612,616264,28652
1459.85,1.334729,614413,28427
1463.04,1.333299,612307,28423
1466.24,1.335720,610032,28160
1469.43,1.329582,607345,28435
1473.67,1.324261,603789,28617
1476.85,1.332526,601175,27956
1480.02,1.324969,597737,28284
1483.19,1.336719,594479,27379
1486.36,1.330456,591232,27625
1489.52,1.333679,587853,27264
1492.68,1.328189,583875,27424
1496.89,1.332400,578062,26889
1500.03,1.333971,574159,26611
1503.18,1.326437,570285,26894
1506.32,1.333360,565444,26244
1509.45,1.336994,560571,25801
1512.58,1.327679,555821,26137
1515.71,1.332343,550344,25603
1519.87,1.332929,543983,25273
1522.99,1.332574,538764,25051
1526.1,1.324548,533692,25278
1529.21,1.328207,527902,24794
1532.32,1.330524,521886,24381
1535.42,1.330665,515888,24093
1538.51,1.330946,509987,23802
1541.6,1.329942,503936,23574
1545.72,1.329955,494694,23141
1548.8,1.326858,488378,23009
1551.88,1.324371,481832,22831
1554.95,1.329158,474989,22260
1558.02,1.342841,467818,21244
1561.08,1.333398,460730,21382
1564.15,1.330657,454170,21211
1568.22,1.329559,444181,20797
1571.27,1.328484,436947,20509
1574.32,1.331663,429598,20017
1577.36,1.328096,422039,19827
1580.4,1.321409,414375,19769
1583.43,1.328577,406354,19069
1586.46,1.320506,398475,19050
1590.49,1.323298,388982,18477
1593.51,1.317524,380708,18326
1596.53,1.319485,372727,17861
1599.54,1.319128,365060,17508
1602.55,1.320713,357543,17085
1605.55,1.321896,349495,16655
1608.55,1.316626,341154,16456
1612.54,1.333700,330877,15345
1615.53,1.331248,322904,15060
1618.51,1.313921,315116,15295
1621.49,1.314959,307217,14876
1624.47,1.316712,299481,14443
1627.44,1.318832,292112,14019
1630.41,1.319484,284245,13621
1634.36,1.303699,274079,13620
1637.32,1.306624,266916,13175
1640.27,1.311445,259612,12673
1643.22,1.302904,251804,12536
1646.16,1.301578,244348,12202
1649.1,1.301256,236703,11829
1652.04,1.296883,228171,11518
1655.95,1.286962,215408,11125
1658.88,1.286724,204937,10590
1661.8,1.283416,193395,10070
1664.72,1.267039,179728,9718
1667.63,1.246300,163642,9281
1670.54,1.233263,146312,8551
1673.44,1.201326,128451,8080
1677.31,1.192281,105080,6749
1680.21,1.166387,88906,6061
1683.1,1.151961,75033,5288
1685.99,1.176160,63520,4234
1688.87,1.102005,53714,4247
1691.75,1.168248,45653,3099
1694.62,1.193433,39137,2507
1697.49,1.164433,33776,2313
1701.31,1.146884,28175,2009