File: ML/samples/unknown/Column 1_078080_20241121_164429.csv
Method:,Column 1,,
Host Date-Time:,21/11/24 @ 16:44:29,,
Header Version:,1,,
System Temp (C):,31.75,,
Detector Temp (C):,26.63,,
Humidity (%):,4.88,,
Lamp PD:,3808,,
Shift Vector Coefficients:,-10.5391,0.0761263,-0.000134223,,
Pixel to Wavelength Coefficients:,1775.68,-0.916766,-0.000235065,,
Serial Number:,5510004,,
Scan Config Name:,Column 1,,
Scan Config Type:,Slew,,
Section 1,,
Start wavelength (nm):,900,,
End wavelength (nm):,1700,,
Pattern Pixel Width (nm):,   7.03,,,,
Exposure (ms):,  0.635,,,,
Digital Resolution:,228,,
Num Repeats:,6,,
PGA Gain:,64,,
Total Measurement Time in sec:,  2.726,,
Wavelength (nm),Absorbance (AU),Reference Signal (unitless),Sample Signal (unitless)
901.51,1.307097,108485,5349
905.376,1.307690,121306,5973
909.237,1.344518,131909,5967
913.095,1.316639,143299,6912
916.948,1.298883,156982,7888
922.079,1.301941,179937,8978
925.923,1.312673,200504,9760
929.762,1.306210,222660,11001
933.597,1.317334,244426,11771
937.427,1.311271,263972,12891
941.254,1.317623,281845,13564
945.076,1.313465,297271,14444
950.165,1.307721,315605,15539
953.978,1.311358,328029,16016
957.786,1.303473,340470,16928
961.59,1.319870,352317,16868
965.389,1.313524,363056,17638
969.185,1.321990,373162,17779
972.976,1.308185,382632,18819
976.763,1.306102,391202,19333
981.806,1.307888,400190,19696
985.583,1.317229,406088,19561
989.355,1.313644,410162,19921
993.124,1.314673,412868,20005
996.888,1.308861,414263,20343
1000.65,1.318625,415476,19949
1004.4,1.304134,415479,20626
1009.41,1.316954,414358,19972
1013.15,1.303819,412923,20514
1016.89,1.315304,411526,19911
1020.63,1.310590,409066,20008
1024.36,1.304478,406777,20178
1028.09,1.319755,404427,19368
1031.82,1.307794,401911,19785
1036.78,1.310518,398410,19490
1040.49,1.312924,396204,19275
1044.2,1.306837,394236,19450
1047.91,1.316917,392042,18898
1051.61,1.312137,389823,18999
1055.31,1.307310,388234,19133
1059,1.313117,387599,18848
1063.92,1.311520,386688,18873
1067.61,1.314699,386598,18731
1071.29,1.318504,387377,18605
1074.96,1.321134,388536,18548
1078.63,1.313156,389855,18956
1082.3,1.320040,391215,18723
1085.96,1.320057,393215,18818
1090.84,1.316526,396270,19119
1094.49,1.324089,398760,18907
1098.14,1.323167,400987,19053
1101.79,1.321817,403477,19231
1105.43,1.321453,406116,19373
1109.06,1.317466,407701,19628
1112.7,1.326807,409859,19312
1117.53,1.310884,412494,20162
1121.15,1.316164,414909,20035
1124.77,1.324021,416559,19754
1128.38,1.319398,418532,20060
1131.99,1.323435,419956,19942
1135.6,1.320896,421946,20154
1139.2,1.322753,423881,20160
1143.99,1.313339,426786,20743
1147.58,1.323121,428617,20368
1151.17,1.322280,431169,20529
1154.75,1.320553,433579,20726
1158.33,1.324157,436264,20682
1161.91,1.321390,439132,20951
1165.48,1.321110,442389,21120
1169.04,1.315080,446101,21595
1173.79,1.322450,451929,21509
1177.34,1.307986,456026,22439
1180.9,1.319793,461306,22090
1184.44,1.321253,467657,22319
1187.99,1.324302,473969,22462
1191.52,1.316147,479856,23172
1195.06,1.323854,487372,23121
1199.76,1.330068,497347,23259
1203.29,1.320826,504311,24092
1206.81,1.329764,511507,23938
1210.33,1.331274,519078,24208
1213.84,1.323831,527163,25010
1217.35,1.327881,534208,25109
1220.85,1.321541,540472,25777
1225.51,1.330086,549929,25717
1229.01,1.320952,556888,26596
1232.5,1.322633,562180,26745
1235.98,1.324690,567975,26893
1239.46,1.328148,574815,27001
1242.94,1.330905,582782,27202
1246.41,1.329693,591476,27685
1251.03,1.325868,604016,28522
1254.5,1.327730,612289,28789
1257.96,1.330715,619125,28911
1261.41,1.329442,624551,29250
1264.86,1.331989,629900,29328
1268.31,1.330960,634345,29605
1271.75,1.330427,638574,29839
1276.33,1.325471,642499,30367
1279.76,1.328239,645905,30334
1283.19,1.329694,648307,30345
1286.61,1.332515,650446,30248
1290.03,1.329979,652132,30504
1293.44,1.329894,653907,30593
1296.85,1.339454,655963,30021
1301.39,1.336554,657349,30286
1304.8,1.332042,657558,30612
1308.19,1.331144,658515,30720
1311.58,1.332397,658804,30645
1314.97,1.331754,659011,30700
1318.36,1.336447,658272,30336
1321.73,1.336125,658022,30347
1326.23,1.331228,657870,30684
1329.6,1.328602,656482,30805
1332.97,1.337582,654926,30103
1336.33,1.329931,653727,30582
1339.69,1.334342,652497,30216
1343.04,1.331212,649913,30314
1346.39,1.331678,647671,30177
1349.73,1.331495,645338,30081
1354.18,1.334527,641175,29679
1357.52,1.330875,638376,29799
1360.85,1.333428,635805,29505
1364.17,1.328010,633413,29763
1367.49,1.331670,631026,29402
1370.81,1.336346,628050,28950
1374.12,1.334856,625034,28910
1378.54,1.326961,620272,29216
1381.84,1.328636,616892,28945
1385.14,1.335081,613613,28367
1388.43,1.328972,611526,28671
1391.72,1.324438,610663,28931
1395.01,1.328869,610634,28636
1398.29,1.329550,611700,28641
1402.66,1.329763,614051,28737
1405.93,1.330106,616268,28818
1409.2,1.335360,617795,28542
1412.46,1.336421,618872,28522
1415.72,1.336733,619795,28544
1418.98,1.333165,620495,28812
1422.23,1.333911,621087,28790
1426.56,1.337003,621375,28599
1429.8,1.325737,621616,29362
1433.04,1.333825,622129,28844
1436.27,1.335275,621526,28720
1439.5,1.339562,621113,28419
1442.72,1.335518,620921,28676
1445.94,1.338117,620270,28475
1450.23,1.337922,618860,28423
1453.44,1.332621,617697,28718
1456.64,1.336770,616264,28379
1459.85,1.338150,614413,28204
1463.04,1.335597,612307,28273
1466.24,1.339297,610032,27929
1469.43,1.336433,607345,27990
1473.67,1.335717,603789,27872
1476.85,1.337935,601175,27610
1480.02,1.336483,597737,27544
1483.19,1.335990,594479,27425
1486.36,1.340314,591232,27005
1489.52,1.336364,587853,27096
1492.68,1.338396,583875,26787
1496.89,1.338630,578062,26506
1500.03,1.340980,574159,26185
1503.18,1.339019,570285,26126
1506.32,1.336432,565444,26059
1509.45,1.339442,560571,25656
1512.58,1.340683,555821,25366
1515.71,1.340909,550344,25103
1519.87,1.341379,543983,24786
1522.99,1.339124,538764,24676
1526.1,1.346067,533692,24056
1529.21,1.338523,527902,24212
1532.32,1.340725,521886,23815
1535.42,1.344362,515888,23345
1538.51,1.357718,509987,22379
1541.6,1.339780,503936,23046
1545.72,1.342251,494694,22495
1548.8,1.340919,488378,22276
1551.88,1.336054,481832,22225
1554.95,1.336974,474989,21863
1558.02,1.333217,467818,21720
1561.08,1.343633,460730,20884
1564.15,1.349530,454170,20309
1568.22,1.335594,444181,20510
1571.27,1.340421,436947,19953
1574.32,1.336178,429598,19810
1577.36,1.350502,422039,18830
1580.4,1.333076,414375,19245
1583.43,1.340350,406354,18559
1586.46,1.335229,398475,18415
1590.49,1.330742,388982,18163
1593.51,1.336463,380708,17544
1596.53,1.325631,372727,17610
1599.54,1.329597,365060,17091
1602.55,1.332332,357543,16634
1605.55,1.327354,349495,16447
1608.55,1.332346,341154,15871
1612.54,1.341525,330877,15071
1615.53,1.325462,322904,15262
1618.51,1.325868,315116,14880
1621.49,1.320246,307217,14696
1624.47,1.325214,299481,14163
1627.44,1.329940,292112,13665
1630.41,1.327659,284245,13367
1634.36,1.321534,274079,13072
1637.32,1.329604,266916,12496
1640.27,1.321429,259612,12385
1643.22,1.314774,251804,12198
1646.16,1.323738,244348,11595
1649.1,1.322781,236703,11257
1652.04,1.328674,228171,10705
1655.95,1.326582,215408,10155
1658.88,1.308375,204937,10075
1661.8,1.332686,193395,8990
1664.72,1.320067,179728,8601
1667.63,1.323530,163642,7769
1670.54,1.304224,146312,7262
1673.44,1.315856,128451,6207
1677.31,1.302852,105080,5232
1680.21,1.330883,88906,4150
1683.1,1.292621,75033,3825
1685.99,1.298440,63520,3195
1688.87,1.276616,53714,2841
1691.75,1.304977,45653,2262
1694.62,1.381467,39137,1626
1697.49,1.237906,33776,1953
1701.31,1.287897,28175,1452