File: ML/samples/unknown/Column 1_078015_20241121_164119.csv
Method:,Column 1,,
Host Date-Time:,21/11/24 @ 16:41:19,,
Header Version:,1,,
System Temp (C):,29.51,,
Detector Temp (C):,24.81,,
Humidity (%):,7.11,,
Lamp PD:,3814,,
Shift Vector Coefficients:,-10.5391,0.0761263,-0.000134223,,
Pixel to Wavelength Coefficients:,1775.68,-0.916766,-0.000235065,,
Serial Number:,5510004,,
Scan Config Name:,Column 1,,
Scan Config Type:,Slew,,
Section 1,,
Start wavelength (nm):,900,,
End wavelength (nm):,1700,,
Pattern Pixel Width (nm):,   7.03,,,,
Exposure (ms):,  0.635,,,,
Digital Resolution:,228,,
Num Repeats:,6,,
PGA Gain:,64,,
Total Measurement Time in sec:,  2.704,,
Wavelength (nm),Absorbance (AU),Reference Signal (unitless),Sample Signal (unitless)
901.51,1.282707,108485,5658
905.376,1.321129,121306,5791
909.237,1.305228,131909,6532
913.095,1.307008,143299,7067
916.948,1.327911,156982,7378
922.079,1.322342,179937,8566
925.923,1.294802,200504,10170
929.762,1.312413,222660,10845
933.597,1.305685,244426,12091
937.427,1.305981,263972,13049
941.254,1.321643,281845,13439
945.076,1.304626,297271,14741
950.165,1.311369,315605,15409
953.978,1.312879,328029,15960
957.786,1.308661,340470,16727
961.59,1.309767,352317,17265
965.389,1.314609,363056,17594
969.185,1.311564,373162,18211
972.976,1.315070,382632,18523
976.763,1.306979,391202,19294
981.806,1.310054,400190,19598
985.583,1.308568,406088,19955
989.355,1.299383,410162,20586
993.124,1.305755,412868,20420
996.888,1.305141,414263,20518
1000.65,1.314724,415476,20129
1004.4,1.305695,415479,20552
1009.41,1.311702,414358,20215
1013.15,1.306069,412923,20408
1016.89,1.304320,411526,20421
1020.63,1.308986,409066,20082
1024.36,1.311202,406777,19868
1028.09,1.317541,404427,19467
1031.82,1.315858,401911,19421
1036.78,1.316351,398410,19230
1040.49,1.316000,396204,19139
1044.2,1.310424,394236,19290
1047.91,1.323330,392042,18621
1051.61,1.318399,389823,18727
1055.31,1.306290,388234,19178
1059,1.303704,387599,19261
1063.92,1.311819,386688,18860
1067.61,1.308277,386598,19010
1071.29,1.310433,387377,18954
1074.96,1.315551,388536,18788
1078.63,1.317069,389855,18786
1082.3,1.320899,391215,18686
1085.96,1.322649,393215,18706
1090.84,1.318872,396270,19016
1094.49,1.323515,398760,18932
1098.14,1.321756,400987,19115
1101.79,1.319160,403477,19349
1105.43,1.318482,406116,19506
1109.06,1.312669,407701,19846
1112.7,1.312300,409859,19968
1117.53,1.310884,412494,20162
1121.15,1.320389,414909,19841
1124.77,1.317887,416559,20035
1128.38,1.312802,418532,20367
1131.99,1.320786,419956,20064
1135.6,1.318189,421946,20280
1139.2,1.312198,423881,20656
1143.99,1.314576,426786,20684
1147.58,1.311051,428617,20942
1151.17,1.320022,431169,20636
1154.75,1.315242,433579,20981
1158.33,1.312943,436264,21223
1161.91,1.321909,439132,20926
1165.48,1.316305,442389,21355
1169.04,1.315986,446101,21550
1173.79,1.324230,451929,21421
1177.34,1.314224,456026,22119
1180.9,1.320915,461306,22033
1184.44,1.322500,467657,22255
1187.99,1.322989,473969,22530
1191.52,1.317255,479856,23113
1195.06,1.338719,487372,22343
1199.76,1.322039,497347,23693
1203.29,1.324410,504311,23894
1206.81,1.324086,511507,24253
1210.33,1.329626,519078,24300
1213.84,1.325379,527163,24921
1217.35,1.324332,534208,25315
1220.85,1.324482,540472,25603
1225.51,1.320384,549929,26298
1229.01,1.325185,556888,26338
1232.5,1.323397,562180,26698
1235.98,1.327558,567975,26716
1239.46,1.331247,574815,26809
1242.94,1.327993,582782,27385
1246.41,1.327330,591476,27836
1251.03,1.320376,604016,28885
1254.5,1.322139,612289,29162
1257.96,1.325875,619125,29235
1261.41,1.327265,624551,29397
1264.86,1.331382,629900,29369
1268.31,1.326567,634345,29906
1271.75,1.329642,638574,29893
1276.33,1.329595,642499,30080
1279.76,1.334236,645905,29918
1283.19,1.332940,648307,30119
1286.61,1.329909,650446,30430
1290.03,1.330064,652132,30498
1293.44,1.331045,653907,30512
1296.85,1.328019,655963,30822
1301.39,1.331777,657349,30621
1304.8,1.336348,657558,30310
1308.19,1.330198,658515,30787
1311.58,1.330629,658804,30770
1314.97,1.337278,659011,30312
1318.36,1.333238,658272,30561
1321.73,1.333841,658022,30507
1326.23,1.332206,657870,30615
1329.6,1.335967,656482,30287
1332.97,1.330542,654926,30595
1336.33,1.336008,653727,30157
1339.69,1.332406,652497,30351
1343.04,1.330210,649913,30384
1346.39,1.332067,647671,30150
1349.73,1.328273,645338,30305
1354.18,1.334718,641175,29666
1357.52,1.333535,638376,29617
1360.85,1.326811,635805,29958
1364.17,1.328025,633413,29762
1367.49,1.332943,631026,29316
1370.81,1.330608,628050,29335
1374.12,1.327128,625034,29429
1378.54,1.327616,620272,29172
1381.84,1.330395,616892,28828
1385.14,1.324270,613613,29082
1388.43,1.327143,611526,28792
1391.72,1.326243,610663,28811
1395.01,1.326856,610634,28769
1398.29,1.330856,611700,28555
1402.66,1.334489,614051,28426
1405.93,1.324684,616268,29180
1409.2,1.331542,617795,28794
1412.46,1.329967,618872,28949
1415.72,1.336277,619795,28574
1418.98,1.330745,620495,28973
1422.23,1.330021,621087,29049
1426.56,1.331001,621375,28997
1429.8,1.334326,621616,28787
1433.04,1.325400,622129,29409
1436.27,1.334504,621526,28771
1439.5,1.331837,621113,28929
1442.72,1.330159,620921,29032
1445.94,1.336534,620270,28579
1450.23,1.334362,618860,28657
1453.44,1.338774,617697,28314
1456.64,1.333872,616264,28569
1459.85,1.332778,614413,28555
1463.04,1.337460,612307,28152
1466.24,1.334150,610032,28262
1469.43,1.338018,607345,27888
1473.67,1.335032,603789,27916
1476.85,1.334456,601175,27832
1480.02,1.361487,597737,26003
1483.19,1.338770,594479,27250
1486.36,1.338004,591232,27149
1489.52,1.333217,587853,27293
1492.68,1.341683,583875,26585
1496.89,1.335398,578062,26704
1500.03,1.334396,574159,26585
1503.18,1.339884,570285,26074
1506.32,1.330375,565444,26425
1509.45,1.341393,560571,25541
1512.58,1.337085,555821,25577
1515.71,1.341445,550344,25072
1519.87,1.335427,543983,25128
1522.99,1.342303,538764,24496
1526.1,1.341131,533692,24331
1529.21,1.341402,527902,24052
1532.32,1.333491,521886,24215
1535.42,1.340897,515888,23532
1538.51,1.334868,509987,23588
1541.6,1.344898,503936,22776
1545.72,1.333440,494694,22956
1548.8,1.336805,488378,22488
1551.88,1.337424,481832,22155
1554.95,1.337610,474989,21831
1558.02,1.334278,467818,21667
1561.08,1.330988,460730,21501
1564.15,1.333801,454170,21058
1568.22,1.333166,444181,20625
1571.27,1.336995,436947,20111
1574.32,1.329823,429598,20102
1577.36,1.339795,422039,19300
1580.4,1.332737,414375,19260
1583.43,1.334123,406354,18827
1586.46,1.327516,398475,18745
1590.49,1.331963,388982,18112
1593.51,1.333552,380708,17662
1596.53,1.333069,372727,17311
1599.54,1.334221,365060,16910
1602.55,1.330898,357543,16689
1605.55,1.334946,349495,16162
1608.55,1.327097,341154,16064
1612.54,1.325847,330877,15625
1615.53,1.337435,322904,14847
1618.51,1.326043,315116,14874
1621.49,1.324791,307217,14543
1624.47,1.321276,299481,14292
1627.44,1.329209,292112,13688
1630.41,1.337185,284245,13077
1634.36,1.321567,274079,13071
1637.32,1.321137,266916,12742
1640.27,1.321569,259612,12381
1643.22,1.315380,251804,12181
1646.16,1.324713,244348,11569
1649.1,1.312337,236703,11531
1652.04,1.320754,228171,10902
1655.95,1.328468,215408,10111
1658.88,1.327814,204937,9634
1661.8,1.321008,193395,9235
1664.72,1.346614,179728,8091
1667.63,1.342030,163642,7445
1670.54,1.331814,146312,6815
1673.44,1.347712,128451,5768
1677.31,1.336226,105080,4845
1680.21,1.389983,88906,3622
1683.1,1.359246,75033,3281
1685.99,1.432768,63520,2345
1688.87,1.351508,53714,2391
1691.75,1.389490,45653,1862
1694.62,1.380400,39137,1630
1697.49,1.278432,33776,1779
1701.31,1.380566,28175,1173