File: ML/samples/unknown/Column 1_078168_20241121_164848.csv
Method:,Column 1,,
Host Date-Time:,21/11/24 @ 16:48:48,,
Header Version:,1,,
System Temp (C):,33.49,,
Detector Temp (C):,29.81,,
Humidity (%):,3.33,,
Lamp PD:,3805,,
Shift Vector Coefficients:,-10.5391,0.0761263,-0.000134223,,
Pixel to Wavelength Coefficients:,1775.68,-0.916766,-0.000235065,,
Serial Number:,5510004,,
Scan Config Name:,Column 1,,
Scan Config Type:,Slew,,
Section 1,,
Start wavelength (nm):,900,,
End wavelength (nm):,1700,,
Pattern Pixel Width (nm):,   7.03,,,,
Exposure (ms):,  0.635,,,,
Digital Resolution:,228,,
Num Repeats:,6,,
PGA Gain:,64,,
Total Measurement Time in sec:,  2.727,,
Wavelength (nm),Absorbance (AU),Reference Signal (unitless),Sample Signal (unitless)
901.51,1.291077,108485,5550
905.376,1.289115,121306,6234
909.237,1.310849,131909,6448
913.095,1.326811,143299,6752
916.948,1.297893,156982,7906
922.079,1.307687,179937,8860
925.923,1.301863,200504,10006
929.762,1.301459,222660,11122
933.597,1.312710,244426,11897
937.427,1.308350,263972,12978
941.254,1.315323,281845,13636
945.076,1.315786,297271,14367
950.165,1.307972,315605,15530
953.978,1.305995,328029,16215
957.786,1.304115,340470,16903
961.59,1.316766,352317,16989
965.389,1.305546,363056,17965
969.185,1.303109,373162,18569
972.976,1.297742,382632,19277
976.763,1.305541,391202,19358
981.806,1.299784,400190,20067
985.583,1.302646,406088,20229
989.355,1.306252,410162,20263
993.124,1.300996,412868,20645
996.888,1.303472,414263,20597
1000.65,1.305903,415476,20542
1004.4,1.295297,415479,21050
1009.41,1.303487,414358,20601
1013.15,1.304518,412923,20481
1016.89,1.310316,411526,20141
1020.63,1.306227,409066,20210
1024.36,1.312056,406777,19829
1028.09,1.310570,404427,19782
1031.82,1.305059,401911,19910
1036.78,1.312596,398410,19397
1040.49,1.310767,396204,19371
1044.2,1.310694,394236,19278
1047.91,1.316572,392042,18913
1051.61,1.310881,389823,19054
1055.31,1.301897,388234,19373
1059,1.302038,387599,19335
1063.92,1.306327,386688,19100
1067.61,1.304909,386598,19158
1071.29,1.309700,387377,18986
1074.96,1.303806,388536,19303
1078.63,1.306337,389855,19256
1082.3,1.314463,391215,18965
1085.96,1.309523,393215,19280
1090.84,1.312007,396270,19319
1094.49,1.315132,398760,19301
1098.14,1.313742,400987,19471
1101.79,1.314050,403477,19578
1105.43,1.309426,406116,19917
1109.06,1.310290,407701,19955
1112.7,1.307391,409859,20195
1117.53,1.308500,412494,20273
1121.15,1.311914,414909,20232
1124.77,1.313702,416559,20229
1128.38,1.320460,418532,20011
1131.99,1.320743,419956,20066
1135.6,1.311516,421946,20594
1139.2,1.311358,423881,20696
1143.99,1.309399,426786,20932
1147.58,1.315177,428617,20744
1151.17,1.323997,431169,20448
1154.75,1.317359,433579,20879
1158.33,1.312350,436264,21252
1161.91,1.321784,439132,20932
1165.48,1.318507,442389,21247
1169.04,1.308612,446101,21919
1173.79,1.306512,451929,22313
1177.34,1.317318,456026,21962
1180.9,1.318321,461306,22165
1184.44,1.311897,467657,22805
1187.99,1.314324,473969,22984
1191.52,1.317273,479856,23112
1195.06,1.320374,487372,23307
1199.76,1.319226,497347,23847
1203.29,1.319925,504311,24142
1206.81,1.324498,511507,24230
1210.33,1.318597,519078,24925
1213.84,1.322912,527163,25063
1217.35,1.319403,534208,25604
1220.85,1.323347,540472,25670
1225.51,1.320417,549929,26296
1229.01,1.317115,556888,26832
1232.5,1.324863,562180,26608
1235.98,1.324157,567975,26926
1239.46,1.317660,574815,27661
1242.94,1.325463,582782,27545
1246.41,1.327081,591476,27852
1251.03,1.322562,604016,28740
1254.5,1.325128,612289,28962
1257.96,1.325252,619125,29277
1261.41,1.320464,624551,29861
1264.86,1.326194,629900,29722
1268.31,1.326814,634345,29889
1271.75,1.324285,638574,30264
1276.33,1.328254,642499,30173
1279.76,1.328798,645905,30295
1283.19,1.326798,648307,30548
1286.61,1.322004,650446,30989
1290.03,1.330036,652132,30500
1293.44,1.324350,653907,30986
1296.85,1.326513,655963,30929
1301.39,1.328034,657349,30886
1304.8,1.330881,657558,30694
1308.19,1.327779,658515,30959
1311.58,1.331321,658804,30721
1314.97,1.330906,659011,30760
1318.36,1.329925,658272,30795
1321.73,1.330579,658022,30737
1326.23,1.323805,657870,31213
1329.6,1.323821,656482,31146
1332.97,1.332420,654926,30463
1336.33,1.333180,653727,30354
1339.69,1.328843,652497,30601
1343.04,1.329168,649913,30457
1346.39,1.329668,647671,30317
1349.73,1.331019,645338,30114
1354.18,1.325979,641175,30269
1357.52,1.325717,638376,30155
1360.85,1.327595,635805,29904
1364.17,1.331394,633413,29532
1367.49,1.328653,631026,29607
1370.81,1.316781,628050,30284
1374.12,1.328754,625034,29319
1378.54,1.325107,620272,29341
1381.84,1.322527,616892,29355
1385.14,1.324151,613613,29090
1388.43,1.326857,611526,28811
1391.72,1.327572,610663,28723
1395.01,1.329385,610634,28602
1398.29,1.324995,611700,28943
1402.66,1.328029,614051,28852
1405.93,1.329985,616268,28826
1409.2,1.329121,617795,28955
1412.46,1.332480,618872,28782
1415.72,1.335836,619795,28603
1418.98,1.324140,620495,29417
1422.23,1.332691,621087,28871
1426.56,1.331180,621375,28985
1429.8,1.329003,621616,29142
1433.04,1.328795,622129,29180
1436.27,1.336335,621526,28650
1439.5,1.329770,621113,29067
1442.72,1.332921,620921,28848
1445.94,1.334911,620270,28686
1450.23,1.335728,618860,28567
1453.44,1.336297,617697,28476
1456.64,1.329215,616264,28877
1459.85,1.330276,614413,28720
1463.04,1.329133,612307,28697
1466.24,1.331988,610032,28403
1469.43,1.335890,607345,28025
1473.67,1.335468,603789,27888
1476.85,1.334597,601175,27823
1480.02,1.333106,597737,27759
1483.19,1.333700,594479,27570
1486.36,1.329184,591232,27706
1489.52,1.330347,587853,27474
1492.68,1.334345,583875,27038
1496.89,1.339352,578062,26462
1500.03,1.339853,574159,26253
1503.18,1.333995,570285,26430
1506.32,1.340148,565444,25837
1509.45,1.339831,560571,25633
1512.58,1.342192,555821,25278
1515.71,1.337291,550344,25313
1519.87,1.340714,543983,24824
1522.99,1.343955,538764,24403
1526.1,1.335298,533692,24660
1529.21,1.339528,527902,24156
1532.32,1.336569,521886,24044
1535.42,1.331097,515888,24069
1538.51,1.326661,509987,24038
1541.6,1.330790,503936,23528
1545.72,1.336478,494694,22796
1548.8,1.340042,488378,22321
1551.88,1.332725,481832,22396
1554.95,1.329685,474989,22233
1558.02,1.334920,467818,21635
1561.08,1.332120,460730,21445
1564.15,1.330555,454170,21216
1568.22,1.329538,444181,20798
1571.27,1.332933,436947,20300
1574.32,1.327453,429598,20212
1577.36,1.326630,422039,19894
1580.4,1.326714,414375,19529
1583.43,1.335973,406354,18747
1586.46,1.330561,398475,18614
1590.49,1.325064,388982,18402
1593.51,1.329392,380708,17832
1596.53,1.327708,372727,17526
1599.54,1.326836,365060,17200
1602.55,1.322496,357543,17015
1605.55,1.325457,349495,16519
1608.55,1.321109,341154,16287
1612.54,1.329896,330877,15480
1615.53,1.322965,322904,15350
1618.51,1.311655,315116,15375
1621.49,1.313618,307217,14922
1624.47,1.322859,299481,14240
1627.44,1.307911,292112,14376
1630.41,1.309929,284245,13924
1634.36,1.307960,274079,13487
1637.32,1.321512,266916,12731
1640.27,1.306979,259612,12804
1643.22,1.301693,251804,12571
1646.16,1.316863,244348,11780
1649.1,1.318711,236703,11363
1652.04,1.305913,228171,11281
1655.95,1.291751,215408,11003
1658.88,1.291342,204937,10478
1661.8,1.287358,193395,9979
1664.72,1.278220,179728,9471
1667.63,1.269215,163642,8804
1670.54,1.276371,146312,7743
1673.44,1.265442,128451,6971
1677.31,1.250521,105080,5902
1680.21,1.184904,88906,5808
1683.1,1.198102,75033,4755
1685.99,1.264966,63520,3451
1688.87,1.256309,53714,2977
1691.75,1.239679,45653,2629
1694.62,1.179791,39137,2587
1697.49,1.293080,33776,1720
1701.31,1.158939,28175,1954