File: ML/samples/unknown/Column 1_078050_20241121_164302.csv
Method:,Column 1,,
Host Date-Time:,21/11/24 @ 16:43:2,,
Header Version:,1,,
System Temp (C):,30.86,,
Detector Temp (C):,25.64,,
Humidity (%):,5.37,,
Lamp PD:,3810,,
Shift Vector Coefficients:,-10.5391,0.0761263,-0.000134223,,
Pixel to Wavelength Coefficients:,1775.68,-0.916766,-0.000235065,,
Serial Number:,5510004,,
Scan Config Name:,Column 1,,
Scan Config Type:,Slew,,
Section 1,,
Start wavelength (nm):,900,,
End wavelength (nm):,1700,,
Pattern Pixel Width (nm):,   7.03,,,,
Exposure (ms):,  0.635,,,,
Digital Resolution:,228,,
Num Repeats:,6,,
PGA Gain:,64,,
Total Measurement Time in sec:,  2.707,,
Wavelength (nm),Absorbance (AU),Reference Signal (unitless),Sample Signal (unitless)
901.51,1.308805,108485,5328
905.376,1.332680,121306,5639
909.237,1.304431,131909,6544
913.095,1.308979,143299,7035
916.948,1.301645,156982,7838
922.079,1.318858,179937,8635
925.923,1.323577,200504,9518
929.762,1.308228,222660,10950
933.597,1.307160,244426,12050
937.427,1.317994,263972,12693
941.254,1.311708,281845,13750
945.076,1.317604,297271,14307
950.165,1.318244,315605,15167
953.978,1.303352,328029,16314
957.786,1.303242,340470,16937
961.59,1.312999,352317,17137
965.389,1.306951,363056,17907
969.185,1.307646,373162,18376
972.976,1.311800,382632,18663
976.763,1.306057,391202,19335
981.806,1.300846,400190,20018
985.583,1.310969,406088,19845
989.355,1.308810,410162,20144
993.124,1.314065,412868,20033
996.888,1.304930,414263,20528
1000.65,1.306559,415476,20511
1004.4,1.309388,415479,20378
1009.41,1.312519,414358,20177
1013.15,1.306281,412923,20398
1016.89,1.315784,411526,19889
1020.63,1.317129,409066,19709
1024.36,1.312384,406777,19814
1028.09,1.302716,404427,20143
1031.82,1.309421,401911,19711
1036.78,1.303227,398410,19820
1040.49,1.305995,396204,19585
1044.2,1.314155,394236,19125
1047.91,1.318136,392042,18845
1051.61,1.314107,389823,18913
1055.31,1.306245,388234,19180
1059,1.304810,387599,19212
1063.92,1.310623,386688,18912
1067.61,1.319595,386598,18521
1071.29,1.322444,387377,18437
1074.96,1.314742,388536,18823
1078.63,1.312859,389855,18969
1082.3,1.314531,391215,18962
1085.96,1.320195,393215,18812
1090.84,1.321300,396270,18910
1094.49,1.314480,398760,19330
1098.14,1.312695,400987,19518
1101.79,1.311198,403477,19707
1105.43,1.323746,406116,19271
1109.06,1.313172,407701,19823
1112.7,1.323469,409859,19461
1117.53,1.329658,412494,19309
1121.15,1.325697,414909,19600
1124.77,1.322726,416559,19813
1128.38,1.321351,418532,19970
1131.99,1.329488,419956,19666
1135.6,1.316650,421946,20352
1139.2,1.322710,423881,20162
1143.99,1.316828,426786,20577
1147.58,1.311196,428617,20935
1151.17,1.321730,431169,20555
1154.75,1.318567,433579,20821
1158.33,1.321895,436264,20790
1161.91,1.320376,439132,21000
1165.48,1.314418,442389,21448
1169.04,1.324205,446101,21146
1173.79,1.311130,451929,22077
1177.34,1.315975,456026,22030
1180.9,1.315684,461306,22300
1184.44,1.321447,467657,22309
1187.99,1.327640,473969,22290
1191.52,1.327907,479856,22553
1195.06,1.316460,487372,23518
1199.76,1.314102,497347,24130
1203.29,1.322994,504311,23972
1206.81,1.317511,511507,24623
1210.33,1.329126,519078,24328
1213.84,1.323397,527163,25035
1217.35,1.332506,534208,24843
1220.85,1.330305,540472,25262
1225.51,1.320880,549929,26268
1229.01,1.326242,556888,26274
1232.5,1.323738,562180,26677
1235.98,1.323175,567975,26987
1239.46,1.326879,574815,27080
1242.94,1.321774,582782,27780
1246.41,1.330006,591476,27665
1251.03,1.325960,604016,28516
1254.5,1.326796,612289,28851
1257.96,1.324911,619125,29300
1261.41,1.330557,624551,29175
1264.86,1.332152,629900,29317
1268.31,1.332342,634345,29511
1271.75,1.325017,638574,30213
1276.33,1.326975,642499,30262
1279.76,1.327781,645905,30366
1283.19,1.328193,648307,30450
1286.61,1.325380,650446,30749
1290.03,1.328713,652132,30593
1293.44,1.331473,653907,30482
1296.85,1.333492,655963,30436
1301.39,1.334280,657349,30445
1304.8,1.334675,657558,30427
1308.19,1.333825,658515,30531
1311.58,1.335354,658804,30437
1314.97,1.337249,659011,30314
1318.36,1.333195,658272,30564
1321.73,1.329211,658022,30834
1326.23,1.334539,657870,30451
1329.6,1.331885,656482,30573
1332.97,1.329125,654926,30695
1336.33,1.335994,653727,30158
1339.69,1.330108,652497,30512
1343.04,1.333309,649913,30168
1346.39,1.333944,647671,30020
1349.73,1.332709,645338,29997
1354.18,1.329147,641175,30049
1357.52,1.328433,638376,29967
1360.85,1.327217,635805,29930
1364.17,1.333103,633413,29416
1367.49,1.328873,631026,29592
1370.81,1.326380,628050,29622
1374.12,1.326067,625034,29501
1378.54,1.337280,620272,28530
1381.84,1.328531,616892,28952
1385.14,1.324225,613613,29085
1388.43,1.327279,611526,28783
1391.72,1.324033,610663,28958
1395.01,1.333029,610634,28363
1398.29,1.326468,611700,28845
1402.66,1.323342,614051,29165
1405.93,1.337937,616268,28303
1409.2,1.330924,617795,28835
1412.46,1.335630,618872,28574
1415.72,1.338120,619795,28453
1418.98,1.332156,620495,28879
1422.23,1.328469,621087,29153
1426.56,1.331645,621375,28954
1429.8,1.331484,621616,28976
1433.04,1.333389,622129,28873
1436.27,1.335698,621526,28692
1439.5,1.332228,621113,28903
1442.72,1.341004,620921,28316
1445.94,1.334291,620270,28727
1450.23,1.339239,618860,28337
1453.44,1.332470,617697,28728
1456.64,1.329681,616264,28846
1459.85,1.335341,614413,28387
1463.04,1.338016,612307,28116
1466.24,1.339780,610032,27898
1469.43,1.338938,607345,27829
1473.67,1.341253,603789,27519
1476.85,1.335847,601175,27743
1480.02,1.334109,597737,27695
1483.19,1.337370,594479,27338
1486.36,1.339398,591232,27062
1489.52,1.347155,587853,26431
1492.68,1.345391,583875,26359
1496.89,1.343176,578062,26230
1500.03,1.336426,574159,26461
1503.18,1.338139,570285,26179
1506.32,1.339610,565444,25869
1509.45,1.333774,560571,25993
1512.58,1.342794,555821,25243
1515.71,1.337188,550344,25319
1519.87,1.335497,543983,25124
1522.99,1.336684,538764,24815
1526.1,1.337841,533692,24516
1529.21,1.338576,527902,24209
1532.32,1.343763,521886,23649
1535.42,1.339294,515888,23619
1538.51,1.346247,509987,22978
1541.6,1.339422,503936,23065
1545.72,1.337432,494694,22746
1548.8,1.342971,488378,22171
1551.88,1.346016,481832,21721
1554.95,1.333275,474989,22050
1558.02,1.336166,467818,21573
1561.08,1.340339,460730,21043
1564.15,1.334152,454170,21041
1568.22,1.338313,444181,20382
1571.27,1.339160,436947,20011
1574.32,1.339899,429598,19641
1577.36,1.336902,422039,19429
1580.4,1.336519,414375,19093
1583.43,1.328987,406354,19051
1586.46,1.337404,398475,18323
1590.49,1.330407,388982,18177
1593.51,1.335203,380708,17595
1596.53,1.331891,372727,17358
1599.54,1.328227,365060,17145
1602.55,1.335871,357543,16499
1605.55,1.334946,349495,16162
1608.55,1.324724,341154,16152
1612.54,1.336824,330877,15235
1615.53,1.339546,322904,14775
1618.51,1.320588,315116,15062
1621.49,1.324224,307217,14562
1624.47,1.314941,299481,14502
1627.44,1.328290,292112,13717
1630.41,1.318147,284245,13663
1634.36,1.315922,274079,13242
1637.32,1.331519,266916,12441
1640.27,1.325233,259612,12277
1643.22,1.326137,251804,11883
1646.16,1.317048,244348,11775
1649.1,1.319208,236703,11350
1652.04,1.316986,228171,10997
1655.95,1.319793,215408,10315
1658.88,1.305368,204937,10145
1661.8,1.306442,193395,9550
1664.72,1.312260,179728,8757
1667.63,1.321689,163642,7802
1670.54,1.309943,146312,7167
1673.44,1.303033,128451,6393
1677.31,1.344187,105080,4757
1680.21,1.320644,88906,4249
1683.1,1.298796,75033,3771
1685.99,1.361372,63520,2764
1688.87,1.330760,53714,2508
1691.75,1.340572,45653,2084
1694.62,1.303222,39137,1947
1697.49,1.295866,33776,1709
1701.31,1.322435,28175,1341