File: ML/samples/unknown/Column 1_078711_20241121_171829.csv
Method:,Column 1,,
Host Date-Time:,21/11/24 @ 17:18:29,,
Header Version:,1,,
System Temp (C):,35.72,,
Detector Temp (C):,34.44,,
Humidity (%):,1.62,,
Lamp PD:,3799,,
Shift Vector Coefficients:,-10.5391,0.0761263,-0.000134223,,
Pixel to Wavelength Coefficients:,1775.68,-0.916766,-0.000235065,,
Serial Number:,5510004,,
Scan Config Name:,Column 1,,
Scan Config Type:,Slew,,
Section 1,,
Start wavelength (nm):,900,,
End wavelength (nm):,1700,,
Pattern Pixel Width (nm):,   7.03,,,,
Exposure (ms):,  0.635,,,,
Digital Resolution:,228,,
Num Repeats:,6,,
PGA Gain:,64,,
Total Measurement Time in sec:,  2.721,,
Wavelength (nm),Absorbance (AU),Reference Signal (unitless),Sample Signal (unitless)
901.51,1.324238,108485,5142
905.376,1.310901,121306,5929
909.237,1.325996,131909,6227
913.095,1.302180,143299,7146
916.948,1.313325,156982,7630
922.079,1.316901,179937,8674
925.923,1.336874,200504,9231
929.762,1.330358,222660,10406
933.597,1.329721,244426,11440
937.427,1.334664,263972,12215
941.254,1.325311,281845,13326
945.076,1.313285,297271,14450
950.165,1.314594,315605,15295
953.978,1.303911,328029,16293
957.786,1.304681,340470,16881
961.59,1.310094,352317,17252
965.389,1.305571,363056,17964
969.185,1.310040,373162,18275
972.976,1.301089,382632,19129
976.763,1.311618,391202,19089
981.806,1.301692,400190,19979
985.583,1.301595,406088,20278
989.355,1.309263,410162,20123
993.124,1.294296,412868,20966
996.888,1.305543,414263,20499
1000.65,1.298815,415476,20880
1004.4,1.312017,415479,20255
1009.41,1.309751,414358,20306
1013.15,1.306686,412923,20379
1016.89,1.314520,411526,19947
1020.63,1.303080,409066,20357
1024.36,1.301753,406777,20305
1028.09,1.311339,404427,19747
1031.82,1.302319,401911,20036
1036.78,1.305930,398410,19697
1040.49,1.312272,396204,19304
1044.2,1.310582,394236,19283
1047.91,1.308428,392042,19271
1051.61,1.313832,389823,18925
1055.31,1.309815,388234,19023
1059,1.311370,387599,18924
1063.92,1.311106,386688,18891
1067.61,1.309627,386598,18951
1071.29,1.314716,387377,18768
1074.96,1.319522,388536,18617
1078.63,1.314947,389855,18878
1082.3,1.307669,391215,19264
1085.96,1.312824,393215,19134
1090.84,1.305846,396270,19595
1094.49,1.314165,398760,19344
1098.14,1.308840,400987,19692
1101.79,1.313496,403477,19603
1105.43,1.314934,406116,19666
1109.06,1.308531,407701,20036
1112.7,1.316957,409859,19755
1117.53,1.317745,412494,19846
1121.15,1.321419,414909,19794
1124.77,1.317324,416559,20061
1128.38,1.312716,418532,20371
1131.99,1.313616,419956,20398
1135.6,1.323337,421946,20041
1139.2,1.322194,423881,20186
1143.99,1.319899,426786,20432
1147.58,1.321227,428617,20457
1151.17,1.312035,431169,21019
1154.75,1.314704,433579,21007
1158.33,1.306080,436264,21561
1161.91,1.309894,439132,21513
1165.48,1.323833,442389,20988
1169.04,1.319852,446101,21359
1173.79,1.313517,451929,21956
1177.34,1.316508,456026,22003
1180.9,1.314576,461306,22357
1184.44,1.312145,467657,22792
1187.99,1.314324,473969,22984
1191.52,1.322624,479856,22829
1195.06,1.312416,487372,23738
1199.76,1.313670,497347,24154
1203.29,1.315558,504311,24386
1206.81,1.317987,511507,24596
1210.33,1.320466,519078,24818
1213.84,1.315899,527163,25471
1217.35,1.312720,534208,26001
1220.85,1.313297,540472,26271
1225.51,1.317192,549929,26492
1229.01,1.317487,556888,26809
1232.5,1.317949,562180,27035
1235.98,1.318119,567975,27303
1239.46,1.318635,574815,27599
1242.94,1.319420,582782,27931
1246.41,1.323865,591476,28059
1251.03,1.318052,604016,29040
1254.5,1.319245,612289,29357
1257.96,1.324985,619125,29295
1261.41,1.321993,624551,29756
1264.86,1.324910,629900,29810
1268.31,1.321988,634345,30223
1271.75,1.321182,638574,30481
1276.33,1.323900,642499,30477
1279.76,1.324532,645905,30594
1283.19,1.325067,648307,30670
1286.61,1.329538,650446,30456
1290.03,1.325728,652132,30804
1293.44,1.318642,653907,31396
1296.85,1.325504,655963,31001
1301.39,1.326827,657349,30972
1304.8,1.318027,657558,31616
1308.19,1.323855,658515,31240
1311.58,1.328376,658804,30930
1314.97,1.326328,659011,31086
1318.36,1.323458,658272,31257
1321.73,1.324058,658022,31202
1326.23,1.326792,657870,30999
1329.6,1.330552,656482,30667
1332.97,1.328474,654926,30741
1336.33,1.322175,653727,31133
1339.69,1.325549,652497,30834
1343.04,1.325406,649913,30722
1346.39,1.325250,647671,30627
1349.73,1.326585,645338,30423
1354.18,1.329884,641175,29998
1357.52,1.322460,638376,30382
1360.85,1.322857,635805,30232
1364.17,1.321838,633413,30189
1367.49,1.321567,631026,30094
1370.81,1.327349,628050,29556
1374.12,1.327423,625034,29409
1378.54,1.320235,620272,29672
1381.84,1.317482,616892,29698
1385.14,1.318632,613613,29462
1388.43,1.320571,611526,29231
1391.72,1.323508,610663,28993
1395.01,1.322620,610634,29051
1398.29,1.324740,611700,28960
1402.66,1.323953,614051,29124
1405.93,1.327312,616268,29004
1409.2,1.327863,617795,29039
1412.46,1.322722,618872,29436
1415.72,1.323251,619795,29444
1418.98,1.327698,620495,29177
1422.23,1.329648,621087,29074
1426.56,1.331091,621375,28991
1429.8,1.329599,621616,29102
1433.04,1.330734,622129,29050
1436.27,1.330209,621526,29057
1439.5,1.329218,621113,29104
1442.72,1.328681,620921,29131
1445.94,1.335062,620270,28676
1450.23,1.325333,618860,29259
1453.44,1.330840,617697,28836
1456.64,1.330902,616264,28765
1459.85,1.333220,614413,28526
1463.04,1.327637,612307,28796
1466.24,1.329853,610032,28543
1469.43,1.328179,607345,28527
1473.67,1.328133,603789,28363
1476.85,1.329847,601175,28129
1480.02,1.337841,597737,27458
1483.19,1.329561,594479,27834
1486.36,1.334515,591232,27368
1489.52,1.330995,587853,27433
1492.68,1.334908,583875,27003
1496.89,1.331174,578062,26965
1500.03,1.337132,574159,26418
1503.18,1.337459,570285,26220
1506.32,1.330440,565444,26421
1509.45,1.332306,560571,26081
1512.58,1.335526,555821,25669
1515.71,1.332564,550344,25590
1519.87,1.328790,543983,25515
1522.99,1.331656,538764,25104
1526.1,1.327496,533692,25107
1529.21,1.337842,527902,24250
1532.32,1.332703,521886,24259
1535.42,1.331585,515888,24042
1538.51,1.334647,509987,23600
1541.6,1.339027,503936,23086
1545.72,1.323750,494694,23474
1548.8,1.331260,488378,22777
1551.88,1.330250,481832,22524
1554.95,1.332940,474989,22067
1558.02,1.333777,467818,21692
1561.08,1.337869,460730,21163
1564.15,1.325083,454170,21485
1568.22,1.330940,444181,20731
1571.27,1.334519,436947,20226
1574.32,1.333119,429598,19950
1577.36,1.325998,422039,19923
1580.4,1.325825,414375,19569
1583.43,1.328076,406354,19091
1586.46,1.323342,398475,18926
1590.49,1.331029,388982,18151
1593.51,1.328346,380708,17875
1596.53,1.330243,372727,17424
1599.54,1.321366,365060,17418
1602.55,1.336160,357543,16488
1605.55,1.333631,349495,16211
1608.55,1.311015,341154,16670
1612.54,1.324459,330877,15675
1615.53,1.325718,322904,15253
1618.51,1.329826,315116,14745
1621.49,1.322082,307217,14634
1624.47,1.332699,299481,13921
1627.44,1.318832,292112,14019
1630.41,1.319771,284245,13612
1634.36,1.307767,274079,13493
1637.32,1.322879,266916,12691
1640.27,1.307760,259612,12781
1643.22,1.318493,251804,12094
1646.16,1.320417,244348,11684
1649.1,1.318711,236703,11363
1652.04,1.303226,228171,11351
1655.95,1.310669,215408,10534
1658.88,1.281547,204937,10717
1661.8,1.306442,193395,9550
1664.72,1.256793,179728,9950
1667.63,1.238877,163642,9441
1670.54,1.243074,146312,8360
1673.44,1.231193,128451,7543
1677.31,1.186337,105080,6842
1680.21,1.193285,88906,5697
1683.1,1.172649,75033,5042
1685.99,1.157292,63520,4422
1688.87,1.148935,53714,3812
1691.75,1.105586,45653,3580
1694.62,1.154520,39137,2742
1697.49,1.096923,33776,2702
1701.31,1.160052,28175,1949