File: ML/samples/unknown/Column 1_078188_20241121_164948.csv
Method:,Column 1,,
Host Date-Time:,21/11/24 @ 16:49:48,,
Header Version:,1,,
System Temp (C):,33.73,,
Detector Temp (C):,30.33,,
Humidity (%):,3.13,,
Lamp PD:,3804,,
Shift Vector Coefficients:,-10.5391,0.0761263,-0.000134223,,
Pixel to Wavelength Coefficients:,1775.68,-0.916766,-0.000235065,,
Serial Number:,5510004,,
Scan Config Name:,Column 1,,
Scan Config Type:,Slew,,
Section 1,,
Start wavelength (nm):,900,,
End wavelength (nm):,1700,,
Pattern Pixel Width (nm):,   7.03,,,,
Exposure (ms):,  0.635,,,,
Digital Resolution:,228,,
Num Repeats:,6,,
PGA Gain:,64,,
Total Measurement Time in sec:,  2.707,,
Wavelength (nm),Absorbance (AU),Reference Signal (unitless),Sample Signal (unitless)
901.51,1.311012,108485,5301
905.376,1.305731,121306,6000
909.237,1.325090,131909,6240
913.095,1.320489,143299,6851
916.948,1.339121,156982,7190
922.079,1.335624,179937,8308
925.923,1.310188,200504,9816
929.762,1.307673,222660,10964
933.597,1.313258,244426,11882
937.427,1.323468,263972,12534
941.254,1.317911,281845,13555
945.076,1.311515,297271,14509
950.165,1.316530,315605,15227
953.978,1.325777,328029,15493
957.786,1.309206,340470,16706
961.59,1.310926,352317,17219
965.389,1.307509,363056,17884
969.185,1.303600,373162,18548
972.976,1.311172,382632,18690
976.763,1.307700,391202,19262
981.806,1.306985,400190,19737
985.583,1.307351,406088,20011
989.355,1.316444,410162,19793
993.124,1.312853,412868,20089
996.888,1.317464,414263,19944
1000.65,1.311093,415476,20298
1004.4,1.304281,415479,20619
1009.41,1.312993,414358,20155
1013.15,1.305048,412923,20456
1016.89,1.306709,411526,20309
1020.63,1.311698,409066,19957
1024.36,1.312494,406777,19809
1028.09,1.327538,404427,19024
1031.82,1.307574,401911,19795
1036.78,1.316306,398410,19232
1040.49,1.315251,396204,19172
1044.2,1.313610,394236,19149
1047.91,1.317952,392042,18853
1051.61,1.311474,389823,19028
1055.31,1.314612,388234,18814
1059,1.311117,387599,18935
1063.92,1.306896,386688,19075
1067.61,1.318401,386598,18572
1071.29,1.312454,387377,18866
1074.96,1.325039,388536,18382
1078.63,1.315569,389855,18851
1082.3,1.322436,391215,18620
1085.96,1.316815,393215,18959
1090.84,1.318507,396270,19032
1094.49,1.311792,398760,19450
1098.14,1.317213,400987,19316
1101.79,1.312390,403477,19653
1105.43,1.319999,406116,19438
1109.06,1.313348,407701,19815
1112.7,1.320534,409859,19593
1117.53,1.325517,412494,19494
1121.15,1.318315,414909,19936
1124.77,1.323384,416559,19783
1128.38,1.324844,418532,19810
1131.99,1.326385,419956,19807
1135.6,1.327803,421946,19836
1139.2,1.313061,423881,20615
1143.99,1.326582,426786,20120
1147.58,1.322908,428617,20378
1151.17,1.326168,431169,20346
1154.75,1.317775,433579,20859
1158.33,1.328229,436264,20489
1161.91,1.322220,439132,20911
1165.48,1.324351,442389,20963
1169.04,1.316288,446101,21535
1173.79,1.322450,451929,21509
1177.34,1.319141,456026,21870
1180.9,1.320955,461306,22031
1184.44,1.316146,467657,22583
1187.99,1.321814,473969,22591
1191.52,1.326868,479856,22607
1195.06,1.314893,487372,23603
1199.76,1.324005,497347,23586
1203.29,1.330026,504311,23587
1206.81,1.325395,511507,24180
1210.33,1.320326,519078,24826
1213.84,1.325118,527163,24936
1217.35,1.326517,534208,25188
1220.85,1.334330,540472,25029
1225.51,1.327309,549929,25882
1229.01,1.329460,556888,26080
1232.5,1.324341,562180,26640
1235.98,1.328127,567975,26681
1239.46,1.323111,574815,27316
1242.94,1.330379,582782,27235
1246.41,1.325804,591476,27934
1251.03,1.328434,604016,28354
1254.5,1.326750,612289,28854
1257.96,1.332461,619125,28795
1261.41,1.329501,624551,29246
1264.86,1.332671,629900,29282
1268.31,1.333491,634345,29433
1271.75,1.331943,638574,29735
1276.33,1.330693,642499,30004
1279.76,1.330133,645905,30202
1283.19,1.327509,648307,30498
1286.61,1.330195,650446,30410
1290.03,1.330634,652132,30458
1293.44,1.333515,653907,30339
1296.85,1.330279,655963,30662
1301.39,1.329527,657349,30780
1304.8,1.332085,657558,30609
1308.19,1.337324,658515,30286
1311.58,1.337428,658804,30292
1314.97,1.332136,659011,30673
1318.36,1.333380,658272,30551
1321.73,1.334781,658022,30441
1326.23,1.336712,657870,30299
1329.6,1.331289,656482,30615
1332.97,1.331551,654926,30524
1336.33,1.333295,653727,30346
1339.69,1.334298,652497,30219
1343.04,1.333597,649913,30148
1346.39,1.335770,647671,29894
1349.73,1.329450,645338,30223
1354.18,1.329971,641175,29992
1357.52,1.332028,638376,29720
1360.85,1.328191,635805,29863
1364.17,1.333428,633413,29394
1367.49,1.330903,631026,29454
1370.81,1.333147,628050,29164
1374.12,1.329436,625034,29273
1378.54,1.331955,620272,28882
1381.84,1.327272,616892,29036
1385.14,1.322274,613613,29216
1388.43,1.332745,611526,28423
1391.72,1.325084,610663,28888
1395.01,1.328308,610634,28673
1398.29,1.328021,611700,28742
1402.66,1.329340,614051,28765
1405.93,1.330483,616268,28793
1409.2,1.331935,617795,28768
1412.46,1.331982,618872,28815
1415.72,1.336383,619795,28567
1418.98,1.334116,620495,28749
1422.23,1.335846,621087,28662
1426.56,1.337915,621375,28539
1429.8,1.335126,621616,28734
1433.04,1.333765,622129,28848
1436.27,1.338036,621526,28538
1439.5,1.334170,621113,28774
1442.72,1.330923,620921,28981
1445.94,1.336184,620270,28602
1450.23,1.334028,618860,28679
1453.44,1.333590,617697,28654
1456.64,1.335486,616264,28463
1459.85,1.333159,614413,28530
1463.04,1.336982,612307,28183
1466.24,1.335227,610032,28192
1469.43,1.340846,607345,27707
1473.67,1.340574,603789,27562
1476.85,1.336709,601175,27688
1480.02,1.343829,597737,27082
1483.19,1.341263,594479,27094
1486.36,1.337317,591232,27192
1489.52,1.345106,587853,26556
1492.68,1.333912,583875,27065
1496.89,1.338106,578062,26538
1500.03,1.340830,574159,26194
1503.18,1.344573,570285,25794
1506.32,1.338319,565444,25946
1509.45,1.344002,560571,25388
1512.58,1.342966,555821,25233
1515.71,1.342434,550344,25015
1519.87,1.342344,543983,24731
1522.99,1.344632,538764,24365
1526.1,1.346989,533692,24005
1529.21,1.342849,527902,23972
1532.32,1.339450,521886,23885
1535.42,1.333722,515888,23924
1538.51,1.345812,509987,23001
1541.6,1.338669,503936,23105
1545.72,1.341768,494694,22520
1548.8,1.331012,488378,22790
1551.88,1.333288,481832,22367
1554.95,1.339524,474989,21735
1558.02,1.339562,467818,21405
1561.08,1.333398,460730,21382
1564.15,1.335351,454170,20983
1568.22,1.337334,444181,20428
1571.27,1.322825,436947,20778
1574.32,1.338177,429598,19719
1577.36,1.331019,422039,19694
1580.4,1.334319,414375,19190
1583.43,1.335394,406354,18772
1586.46,1.330142,398475,18632
1590.49,1.340976,388982,17740
1593.51,1.330099,380708,17803
1596.53,1.338115,372727,17111
1599.54,1.331864,365060,17002
1602.55,1.333299,357543,16597
1605.55,1.314989,349495,16922
1608.55,1.335091,341154,15771
1612.54,1.311279,330877,16158
1615.53,1.322400,322904,15370
1618.51,1.327857,315116,14812
1621.49,1.314142,307217,14904
1624.47,1.311957,299481,14602
1627.44,1.320508,292112,13965
1630.41,1.327139,284245,13383
1634.36,1.317302,274079,13200
1637.32,1.313502,266916,12968
1640.27,1.326366,259612,12245
1643.22,1.312077,251804,12274
1646.16,1.314767,244348,11837
1649.1,1.321279,236703,11296
1652.04,1.319601,228171,10931
1655.95,1.316521,215408,10393
1658.88,1.315897,204937,9902
1661.8,1.292392,193395,9864
1664.72,1.284222,179728,9341
1667.63,1.286781,163642,8455
1670.54,1.255884,146312,8117
1673.44,1.264198,128451,6991
1677.31,1.236475,105080,6096
1680.21,1.215172,88906,5417
1683.1,1.276462,75033,3970
1685.99,1.226109,63520,3774
1688.87,1.291387,53714,2746
1691.75,1.207836,45653,2829
1694.62,1.321676,39137,1866
1697.49,1.265683,33776,1832
1701.31,1.309670,28175,1381