File: ML/samples/unknown/Column 1_078924_20241121_172845.csv
Method:,Column 1,,
Host Date-Time:,21/11/24 @ 17:28:45,,
Header Version:,1,,
System Temp (C):,37.38,,
Detector Temp (C):,36.41,,
Humidity (%):,0.58,,
Lamp PD:,3796,,
Shift Vector Coefficients:,-10.5391,0.0761263,-0.000134223,,
Pixel to Wavelength Coefficients:,1775.68,-0.916766,-0.000235065,,
Serial Number:,5510004,,
Scan Config Name:,Column 1,,
Scan Config Type:,Slew,,
Section 1,,
Start wavelength (nm):,900,,
End wavelength (nm):,1700,,
Pattern Pixel Width (nm):,   7.03,,,,
Exposure (ms):,  0.635,,,,
Digital Resolution:,228,,
Num Repeats:,6,,
PGA Gain:,64,,
Total Measurement Time in sec:,  2.704,,
Wavelength (nm),Absorbance (AU),Reference Signal (unitless),Sample Signal (unitless)
901.51,1.343758,108485,4916
905.376,1.318959,121306,5820
909.237,1.315522,131909,6379
913.095,1.317961,143299,6891
916.948,1.324160,156982,7442
922.079,1.332810,179937,8362
925.923,1.344085,200504,9079
929.762,1.319804,222660,10662
933.597,1.329304,244426,11451
937.427,1.337160,263972,12145
941.254,1.315132,281845,13642
945.076,1.327708,297271,13978
950.165,1.317100,315605,15207
953.978,1.326703,328029,15460
957.786,1.309414,340470,16698
961.59,1.313100,352317,17133
965.389,1.310824,363056,17748
969.185,1.309945,373162,18279
972.976,1.315516,382632,18504
976.763,1.308535,391202,19225
981.806,1.307690,400190,19705
985.583,1.302732,406088,20225
989.355,1.306123,410162,20269
993.124,1.303782,412868,20513
996.888,1.312829,414263,20158
1000.65,1.304890,415476,20590
1004.4,1.306351,415479,20521
1009.41,1.308811,414358,20350
1013.15,1.306537,412923,20386
1016.89,1.308079,411526,20245
1020.63,1.302674,409066,20376
1024.36,1.311071,406777,19874
1028.09,1.316004,404427,19536
1031.82,1.301042,401911,20095
1036.78,1.306018,398410,19693
1040.49,1.311889,396204,19321
1044.2,1.306435,394236,19468
1047.91,1.312914,392042,19073
1051.61,1.310312,389823,19079
1055.31,1.305476,388234,19214
1059,1.305421,387599,19185
1063.92,1.318362,386688,18578
1067.61,1.310683,386598,18905
1071.29,1.309883,387377,18978
1074.96,1.316662,388536,18740
1078.63,1.304110,389855,19355
1082.3,1.313776,391215,18995
1085.96,1.312212,393215,19161
1090.84,1.316912,396270,19102
1094.49,1.306312,398760,19697
1098.14,1.310453,400987,19619
1101.79,1.308496,403477,19830
1105.43,1.313215,406116,19744
1109.06,1.307816,407701,20069
1112.7,1.310563,409859,20048
1117.53,1.320114,412494,19738
1121.15,1.309858,414909,20328
1124.77,1.306527,416559,20566
1128.38,1.312290,418532,20391
1131.99,1.322261,419956,19996
1135.6,1.318725,421946,20255
1139.2,1.321098,423881,20237
1143.99,1.321688,426786,20348
1147.58,1.310989,428617,20945
1151.17,1.320928,431169,20593
1154.75,1.316361,433579,20927
1158.33,1.315982,436264,21075
1161.91,1.322761,439132,20885
1165.48,1.311391,442389,21598
1169.04,1.321523,446101,21277
1173.79,1.316733,451929,21794
1177.34,1.317397,456026,21958
1180.9,1.315139,461306,22328
1184.44,1.316473,467657,22566
1187.99,1.313475,473969,23029
1191.52,1.320366,479856,22948
1195.06,1.310245,487372,23857
1199.76,1.320429,497347,23781
1203.29,1.313852,504311,24482
1206.81,1.320342,511507,24463
1210.33,1.324474,519078,24590
1213.84,1.331010,527163,24600
1217.35,1.324058,534208,25331
1220.85,1.326335,540472,25494
1225.51,1.321641,549929,26222
1229.01,1.318184,556888,26766
1232.5,1.323104,562180,26716
1235.98,1.321136,567975,27114
1239.46,1.324736,574815,27214
1242.94,1.320058,582782,27890
1246.41,1.321349,591476,28222
1251.03,1.323909,604016,28651
1254.5,1.319437,612289,29344
1257.96,1.325385,619125,29268
1261.41,1.326320,624551,29461
1264.86,1.325493,629900,29770
1268.31,1.323413,634345,30124
1271.75,1.329729,638574,29887
1276.33,1.321584,642499,30640
1279.76,1.325627,645905,30517
1283.19,1.327395,648307,30506
1286.61,1.328584,650446,30523
1290.03,1.322820,652132,31011
1293.44,1.329766,653907,30602
1296.85,1.322530,655963,31214
1301.39,1.326546,657349,30992
1304.8,1.328862,657558,30837
1308.19,1.327947,658515,30947
1311.58,1.336111,658804,30384
1314.97,1.330836,659011,30765
1318.36,1.326176,658272,31062
1321.73,1.327832,658022,30932
1326.23,1.332177,657870,30617
1329.6,1.325021,656482,31060
1332.97,1.334248,654926,30335
1336.33,1.327071,653727,30784
1339.69,1.332091,652497,30373
1343.04,1.327602,649913,30567
1346.39,1.325080,647671,30639
1349.73,1.334988,645338,29840
1354.18,1.328930,641175,30064
1357.52,1.325717,638376,30155
1360.85,1.326246,635805,29997
1364.17,1.320990,633413,30248
1367.49,1.323462,631026,29963
1370.81,1.321684,628050,29944
1374.12,1.321032,625034,29845
1378.54,1.328689,620272,29100
1381.84,1.324484,616892,29223
1385.14,1.320449,613613,29339
1388.43,1.321389,611526,29176
1391.72,1.324738,610663,28911
1395.01,1.322575,610634,29054
1398.29,1.330355,611700,28588
1402.66,1.331565,614051,28618
1405.93,1.328181,616268,28946
1409.2,1.331105,617795,28823
1412.46,1.331184,618872,28868
1415.72,1.324167,619795,29382
1418.98,1.330385,620495,28997
1422.23,1.334273,621087,28766
1426.56,1.329924,621375,29069
1429.8,1.330122,621616,29067
1433.04,1.334156,622129,28822
1436.27,1.329268,621526,29120
1439.5,1.330907,621113,28991
1442.72,1.332514,620921,28875
1445.94,1.336275,620270,28596
1450.23,1.336489,618860,28517
1453.44,1.336541,617697,28460
1456.64,1.325516,616264,29124
1459.85,1.331215,614413,28658
1463.04,1.328150,612307,28762
1466.24,1.334334,610032,28250
1469.43,1.330224,607345,28393
1473.67,1.333805,603789,27995
1476.85,1.325087,601175,28439
1480.02,1.335286,597737,27620
1483.19,1.333117,594479,27607
1486.36,1.333184,591232,27452
1489.52,1.332137,587853,27361
1492.68,1.337424,583875,26847
1496.89,1.335479,578062,26699
1500.03,1.333319,574159,26651
1503.18,1.339235,570285,26113
1506.32,1.336499,565444,26055
1509.45,1.339594,560571,25647
1512.58,1.338071,555821,25519
1515.71,1.334128,550344,25498
1519.87,1.335514,543983,25123
1522.99,1.332192,538764,25073
1526.1,1.340649,533692,24358
1529.21,1.338451,527902,24216
1532.32,1.332077,521886,24294
1535.42,1.336161,515888,23790
1538.51,1.331000,509987,23799
1541.6,1.335001,503936,23301
1545.72,1.335850,494694,22829
1548.8,1.332922,488378,22690
1551.88,1.333055,481832,22379
1554.95,1.331820,474989,22124
1558.02,1.327990,467818,21983
1561.08,1.328089,460730,21645
1564.15,1.328676,454170,21308
1568.22,1.332514,444181,20656
1571.27,1.330650,436947,20407
1574.32,1.334144,429598,19903
1577.36,1.331107,422039,19690
1580.4,1.332399,414375,19275
1583.43,1.337667,406354,18674
1586.46,1.333864,398475,18473
1590.49,1.331604,388982,18127
1593.51,1.328419,380708,17872
1596.53,1.334249,372727,17264
1599.54,1.320320,365060,17460
1602.55,1.328795,357543,16770
1605.55,1.323045,349495,16611
1608.55,1.321243,341154,16282
1612.54,1.324875,330877,15660
1615.53,1.319808,322904,15462
1618.51,1.327915,315116,14810
1621.49,1.321222,307217,14663
1624.47,1.324417,299481,14189
1627.44,1.322910,292112,13888
1630.41,1.318719,284245,13645
1634.36,1.310933,274079,13395
1637.32,1.312064,266916,13011
1640.27,1.318842,259612,12459
1643.22,1.320941,251804,12026
1646.16,1.302076,244348,12188
1649.1,1.305387,236703,11717
1652.04,1.303801,228171,11336
1655.95,1.300442,215408,10785
1658.88,1.294545,204937,10401
1661.8,1.272723,193395,10321
1664.72,1.267173,179728,9715
1667.63,1.241183,163642,9391
1670.54,1.236935,146312,8479
1673.44,1.194500,128451,8208
1677.31,1.174256,105080,7035
1680.21,1.150971,88906,6280
1683.1,1.157998,75033,5215
1685.99,1.109184,63520,4940
1688.87,1.128679,53714,3994
1691.75,1.162955,45653,3137
1694.62,1.161546,39137,2698
1697.49,1.100798,33776,2678
1701.31,1.131383,28175,2082