File: ML/samples/unknown/Column 1_078737_20241121_171945.csv
Method:,Column 1,,
Host Date-Time:,21/11/24 @ 17:19:45,,
Header Version:,1,,
System Temp (C):,35.96,,
Detector Temp (C):,34.57,,
Humidity (%):,1.03,,
Lamp PD:,3799,,
Shift Vector Coefficients:,-10.5391,0.0761263,-0.000134223,,
Pixel to Wavelength Coefficients:,1775.68,-0.916766,-0.000235065,,
Serial Number:,5510004,,
Scan Config Name:,Column 1,,
Scan Config Type:,Slew,,
Section 1,,
Start wavelength (nm):,900,,
End wavelength (nm):,1700,,
Pattern Pixel Width (nm):,   7.03,,,,
Exposure (ms):,  0.635,,,,
Digital Resolution:,228,,
Num Repeats:,6,,
PGA Gain:,64,,
Total Measurement Time in sec:,  2.693,,
Wavelength (nm),Absorbance (AU),Reference Signal (unitless),Sample Signal (unitless)
901.51,1.334061,108485,5027
905.376,1.338964,121306,5558
909.237,1.308297,131909,6486
913.095,1.306885,143299,7069
916.948,1.317386,156982,7559
922.079,1.320218,179937,8608
925.923,1.338005,200504,9207
929.762,1.328235,222660,10457
933.597,1.323240,244426,11612
937.427,1.324648,263972,12500
941.254,1.315706,281845,13624
945.076,1.304802,297271,14735
950.165,1.316016,315605,15245
953.978,1.305781,328029,16223
957.786,1.310221,340470,16667
961.59,1.307634,352317,17350
965.389,1.317457,363056,17479
969.185,1.300893,373162,18664
972.976,1.306986,382632,18871
976.763,1.309552,391202,19180
981.806,1.318897,400190,19203
985.583,1.297651,406088,20463
989.355,1.310084,410162,20085
993.124,1.302366,412868,20580
996.888,1.307114,414263,20425
1000.65,1.302953,415476,20682
1004.4,1.314727,415479,20129
1009.41,1.306810,414358,20444
1013.15,1.310647,412923,20194
1016.89,1.305087,411526,20385
1020.63,1.306550,409066,20195
1024.36,1.308261,406777,20003
1028.09,1.303903,404427,20088
1031.82,1.310679,401911,19654
1036.78,1.314525,398410,19311
1040.49,1.309424,396204,19431
1044.2,1.308425,394236,19379
1047.91,1.315540,392042,18958
1051.61,1.310380,389823,19076
1055.31,1.318857,388234,18631
1059,1.312243,387599,18886
1063.92,1.309110,386688,18978
1067.61,1.308758,386598,18989
1071.29,1.308239,387377,19050
1074.96,1.320129,388536,18591
1078.63,1.313088,389855,18959
1082.3,1.310201,391215,19152
1085.96,1.311668,393215,19185
1090.84,1.319924,396270,18970
1094.49,1.317546,398760,19194
1098.14,1.314635,400987,19431
1101.79,1.314805,403477,19544
1105.43,1.304203,406116,20158
1109.06,1.314819,407701,19748
1112.7,1.317331,409859,19738
1117.53,1.315431,412494,19952
1121.15,1.318010,414909,19950
1124.77,1.311796,416559,20318
1128.38,1.319376,418532,20061
1131.99,1.320375,419956,20083
1135.6,1.318660,421946,20258
1139.2,1.316487,423881,20453
1143.99,1.323442,426786,20266
1147.58,1.322184,428617,20412
1151.17,1.320780,431169,20600
1154.75,1.322274,433579,20644
1158.33,1.328653,436264,20469
1161.91,1.317942,439132,21118
1165.48,1.306969,442389,21819
1169.04,1.310897,446101,21804
1173.79,1.317471,451929,21757
1177.34,1.315620,456026,22048
1180.9,1.319499,461306,22105
1184.44,1.313137,467657,22740
1187.99,1.311424,473969,23138
1191.52,1.321978,479856,22863
1195.06,1.315870,487372,23550
1199.76,1.318989,497347,23860
1203.29,1.318058,504311,24246
1206.81,1.320076,511507,24478
1210.33,1.315576,519078,25099
1213.84,1.322860,527163,25066
1217.35,1.317710,534208,25704
1220.85,1.315069,540472,26164
1225.51,1.326856,549929,25909
1229.01,1.322735,556888,26487
1232.5,1.314381,562180,27258
1235.98,1.324480,567975,26906
1239.46,1.313971,574815,27897
1242.94,1.322760,582782,27717
1246.41,1.320642,591476,28268
1251.03,1.318965,604016,28979
1254.5,1.321931,612289,29176
1257.96,1.324377,619125,29336
1261.41,1.319026,624551,29960
1264.86,1.324997,629900,29804
1268.31,1.323615,634345,30110
1271.75,1.324601,638574,30242
1276.33,1.322108,642499,30603
1279.76,1.327467,645905,30388
1283.19,1.330238,648307,30307
1286.61,1.328442,650446,30533
1290.03,1.323002,652132,30998
1293.44,1.328363,653907,30701
1296.85,1.326808,655963,30908
1301.39,1.325958,657349,31034
1304.8,1.328299,657558,30877
1308.19,1.331767,658515,30676
1311.58,1.328713,658804,30906
1314.97,1.326929,659011,31043
1318.36,1.334405,658272,30479
1321.73,1.327033,658022,30989
1326.23,1.329265,657870,30823
1329.6,1.327208,656482,30904
1332.97,1.321398,654926,31246
1336.33,1.330485,653727,30543
1339.69,1.331091,652497,30443
1343.04,1.317450,649913,31290
1346.39,1.326941,647671,30508
1349.73,1.326757,645338,30411
1354.18,1.329624,641175,30016
1357.52,1.327044,638376,30063
1360.85,1.325783,635805,30029
1364.17,1.331438,633413,29529
1367.49,1.326444,631026,29758
1370.81,1.326233,628050,29632
1374.12,1.327453,625034,29407
1378.54,1.325922,620272,29286
1381.84,1.330515,616892,28820
1385.14,1.327673,613613,28855
1388.43,1.324781,611526,28949
1391.72,1.318727,610663,29314
1395.01,1.324988,610634,28893
1398.29,1.325716,611700,28895
1402.66,1.327156,614051,28910
1405.93,1.328001,616268,28958
1409.2,1.329301,617795,28943
1412.46,1.326769,618872,29163
1415.72,1.331125,619795,28915
1418.98,1.328070,620495,29152
1422.23,1.327145,621087,29242
1426.56,1.327718,621375,29217
1429.8,1.330421,621616,29047
1433.04,1.334790,622129,28780
1436.27,1.329447,621526,29108
1439.5,1.332498,621113,28885
1442.72,1.331418,620921,28948
1445.94,1.323215,620270,29469
1450.23,1.334225,618860,28666
1453.44,1.332410,617697,28732
1456.64,1.329380,616264,28866
1459.85,1.333676,614413,28496
1463.04,1.329769,612307,28655
1466.24,1.332157,610032,28392
1469.43,1.334019,607345,28146
1473.67,1.328347,603789,28349
1476.85,1.331269,601175,28037
1480.02,1.335869,597737,27583
1483.19,1.335357,594479,27465
1486.36,1.334737,591232,27354
1489.52,1.339226,587853,26918
1492.68,1.330523,583875,27277
1496.89,1.335349,578062,26707
1500.03,1.334657,574159,26569
1503.18,1.334636,570285,26391
1506.32,1.340888,565444,25793
1509.45,1.333040,560571,26037
1512.58,1.330028,555821,25996
1515.71,1.336074,550344,25384
1519.87,1.336656,543983,25057
1522.99,1.331051,538764,25139
1526.1,1.338479,533692,24480
1529.21,1.332007,527902,24578
1532.32,1.335090,521886,24126
1535.42,1.337734,515888,23704
1538.51,1.338900,509987,23370
1541.6,1.333531,503936,23380
1545.72,1.339115,494694,22658
1548.8,1.332348,488378,22720
1551.88,1.331699,481832,22449
1554.95,1.341266,474989,21648
1558.02,1.331760,467818,21793
1561.08,1.337439,460730,21184
1564.15,1.334090,454170,21044
1568.22,1.330165,444181,20768
1571.27,1.329353,436947,20468
1574.32,1.332989,429598,19956
1577.36,1.327461,422039,19856
1580.4,1.334998,414375,19160
1583.43,1.327508,406354,19116
1586.46,1.324031,398475,18896
1590.49,1.321867,388982,18538
1593.51,1.320974,380708,18181
1596.53,1.327510,372727,17534
1599.54,1.326331,365060,17220
1602.55,1.318153,357543,17186
1605.55,1.326141,349495,16493
1608.55,1.321830,341154,16260
1612.54,1.322662,330877,15740
1615.53,1.329292,322904,15128
1618.51,1.318173,315116,15146
1621.49,1.327067,307217,14467
1624.47,1.323348,299481,14224
1627.44,1.320322,292112,13971
1630.41,1.321017,284245,13573
1634.36,1.325103,274079,12965
1637.32,1.317167,266916,12859
1640.27,1.316825,259612,12517
1643.22,1.314063,251804,12218
1646.16,1.305798,244348,12084
1649.1,1.318940,236703,11357
1652.04,1.297676,228171,11497
1655.95,1.308489,215408,10587
1658.88,1.284026,204937,10656
1661.8,1.291381,193395,9887
1664.72,1.276801,179728,9502
1667.63,1.235486,163642,9515
1670.54,1.230176,146312,8612
1673.44,1.201111,128451,8084
1677.31,1.201845,105080,6602
1680.21,1.172375,88906,5978
1683.1,1.189959,75033,4845
1685.99,1.152603,63520,4470
1688.87,1.128788,53714,3993
1691.75,1.171060,45653,3079
1694.62,1.117643,39137,2985
1697.49,1.205562,33776,2104
1701.31,1.215853,28175,1714