File: ML/samples/unknown/Column 1_078999_20241121_173222.csv
Method:,Column 1,,
Host Date-Time:,21/11/24 @ 17:32:22,,
Header Version:,1,,
System Temp (C):,37.72,,
Detector Temp (C):,36.99,,
Humidity (%):,0.59,,
Lamp PD:,3795,,
Shift Vector Coefficients:,-10.5391,0.0761263,-0.000134223,,
Pixel to Wavelength Coefficients:,1775.68,-0.916766,-0.000235065,,
Serial Number:,5510004,,
Scan Config Name:,Column 1,,
Scan Config Type:,Slew,,
Section 1,,
Start wavelength (nm):,900,,
End wavelength (nm):,1700,,
Pattern Pixel Width (nm):,   7.03,,,,
Exposure (ms):,  0.635,,,,
Digital Resolution:,228,,
Num Repeats:,6,,
PGA Gain:,64,,
Total Measurement Time in sec:,  2.725,,
Wavelength (nm),Absorbance (AU),Reference Signal (unitless),Sample Signal (unitless)
901.51,1.290061,108485,5563
905.376,1.301983,121306,6052
909.237,1.328514,131909,6191
913.095,1.332117,143299,6670
916.948,1.314180,156982,7615
922.079,1.322444,179937,8564
925.923,1.321347,200504,9567
929.762,1.333416,222660,10333
933.597,1.312236,244426,11910
937.427,1.316661,263972,12732
941.254,1.315961,281845,13616
945.076,1.306604,297271,14674
950.165,1.312075,315605,15384
953.978,1.294759,328029,16640
957.786,1.310612,340470,16652
961.59,1.312290,352317,17165
965.389,1.298616,363056,18254
969.185,1.313548,373162,18128
972.976,1.303913,382632,19005
976.763,1.300966,391202,19563
981.806,1.303239,400190,19908
985.583,1.302667,406088,20228
989.355,1.311578,410162,20016
993.124,1.300723,412868,20658
996.888,1.304507,414263,20548
1000.65,1.304089,415476,20628
1004.4,1.300256,415479,20811
1009.41,1.301657,414358,20688
1013.15,1.300865,412923,20654
1016.89,1.311655,411526,20079
1020.63,1.304148,409066,20307
1024.36,1.309218,406777,19959
1028.09,1.296189,404427,20448
1031.82,1.303317,401911,19990
1036.78,1.303643,398410,19801
1040.49,1.299896,396204,19862
1044.2,1.303567,394236,19597
1047.91,1.296865,392042,19791
1051.61,1.300922,389823,19496
1055.31,1.304460,388234,19259
1059,1.305262,387599,19192
1063.92,1.300972,386688,19337
1067.61,1.308689,386598,18992
1071.29,1.293690,387377,19699
1074.96,1.300355,388536,19457
1078.63,1.299024,389855,19583
1082.3,1.303764,391215,19438
1085.96,1.312053,393215,19168
1090.84,1.318187,396270,19046
1094.49,1.311792,398760,19450
1098.14,1.310409,400987,19621
1101.79,1.308365,403477,19836
1105.43,1.313611,406116,19726
1109.06,1.309725,407701,19981
1112.7,1.310888,409859,20033
1117.53,1.315867,412494,19932
1121.15,1.305945,414909,20512
1124.77,1.315186,416559,20160
1128.38,1.307314,418532,20626
1131.99,1.314426,419956,20360
1135.6,1.317034,421946,20334
1139.2,1.314961,423881,20525
1143.99,1.303833,426786,21202
1147.58,1.320761,428617,20479
1151.17,1.315604,431169,20847
1154.75,1.314560,433579,21014
1158.33,1.317923,436264,20981
1161.91,1.316095,439132,21208
1165.48,1.317669,442389,21288
1169.04,1.310598,446101,21819
1173.79,1.309559,451929,22157
1177.34,1.303232,456026,22686
1180.9,1.317519,461306,22206
1184.44,1.312603,467657,22768
1187.99,1.310749,473969,23174
1191.52,1.317612,479856,23094
1195.06,1.313167,487372,23697
1199.76,1.318734,497347,23874
1203.29,1.314651,504311,24437
1206.81,1.310686,511507,25013
1210.33,1.316564,519078,25042
1213.84,1.321528,527163,25143
1217.35,1.321238,534208,25496
1220.85,1.321591,540472,25774
1225.51,1.314284,549929,26670
1229.01,1.324197,556888,26398
1232.5,1.319865,562180,26916
1235.98,1.315502,567975,27468
1239.46,1.321999,574815,27386
1242.94,1.312800,582782,28360
1246.41,1.318695,591476,28395
1251.03,1.323318,604016,28690
1254.5,1.321737,612289,29189
1257.96,1.327781,619125,29107
1261.41,1.320740,624551,29842
1264.86,1.319322,629900,30196
1268.31,1.323168,634345,30141
1271.75,1.320271,638574,30545
1276.33,1.326645,642499,30285
1279.76,1.325470,645905,30528
1283.19,1.325237,648307,30658
1286.61,1.325197,650446,30762
1290.03,1.324700,652132,30877
1293.44,1.328986,653907,30657
1296.85,1.326794,655963,30909
1301.39,1.327585,657349,30918
1304.8,1.322890,657558,31264
1308.19,1.325359,658515,31132
1311.58,1.322006,658804,31387
1314.97,1.326831,659011,31050
1318.36,1.325059,658272,31142
1321.73,1.332718,658022,30586
1326.23,1.328716,657870,30862
1329.6,1.330183,656482,30693
1332.97,1.322678,654926,31154
1336.33,1.330556,653727,30538
1339.69,1.327879,652497,30669
1343.04,1.325335,649913,30727
1346.39,1.328938,647671,30368
1349.73,1.325673,645338,30487
1354.18,1.324117,641175,30399
1357.52,1.328144,638376,29987
1360.85,1.320579,635805,30391
1364.17,1.323005,633413,30108
1367.49,1.321986,631026,30065
1370.81,1.324609,628050,29743
1374.12,1.330818,625034,29180
1378.54,1.322098,620272,29545
1381.84,1.318331,616892,29640
1385.14,1.320109,613613,29362
1388.43,1.322164,611526,29124
1391.72,1.319527,610663,29260
1395.01,1.322485,610634,29060
1398.29,1.319508,611700,29311
1402.66,1.333177,614051,28512
1405.93,1.323971,616268,29228
1409.2,1.329586,617795,28924
1412.46,1.324348,618872,29326
1415.72,1.323428,619795,29432
1418.98,1.327757,620495,29173
1422.23,1.325293,621087,29367
1426.56,1.325731,621375,29351
1429.8,1.330197,621616,29062
1433.04,1.327280,622129,29282
1436.27,1.326784,621526,29287
1439.5,1.326422,621113,29292
1442.72,1.333433,620921,28814
1445.94,1.335881,620270,28622
1450.23,1.320536,618860,29584
1453.44,1.335946,617697,28499
1456.64,1.333796,616264,28574
1459.85,1.326722,614413,28956
1463.04,1.324826,612307,28983
1466.24,1.330127,610032,28525
1469.43,1.335580,607345,28045
1473.67,1.331361,603789,28153
1476.85,1.331719,601175,28008
1480.02,1.330222,597737,27944
1483.19,1.332708,594479,27633
1486.36,1.332299,591232,27508
1489.52,1.328234,587853,27608
1492.68,1.333238,583875,27107
1496.89,1.333807,578062,26802
1500.03,1.330428,574159,26829
1503.18,1.332387,570285,26528
1506.32,1.332863,565444,26274
1509.45,1.328411,560571,26316
1512.58,1.328228,555821,26104
1515.71,1.331920,550344,25628
1519.87,1.332122,543983,25320
1522.99,1.325438,538764,25466
1526.1,1.327133,533692,25128
1529.21,1.330595,527902,24658
1532.32,1.340324,521886,23837
1535.42,1.334448,515888,23884
1538.51,1.334187,509987,23625
1541.6,1.329611,503936,23592
1545.72,1.330574,494694,23108
1548.8,1.328485,488378,22923
1551.88,1.328192,481832,22631
1554.95,1.328379,474989,22300
1558.02,1.325586,467818,22105
1561.08,1.329878,460730,21556
1564.15,1.333389,454170,21078
1568.22,1.322928,444181,21117
1571.27,1.329120,436947,20479
1574.32,1.331143,429598,20041
1577.36,1.329566,422039,19760
1580.4,1.331072,414375,19334
1583.43,1.326237,406354,19172
1586.46,1.324836,398475,18861
1590.49,1.328905,388982,18240
1593.51,1.321811,380708,18146
1596.53,1.321655,372727,17772
1599.54,1.321940,365060,17395
1602.55,1.317623,357543,17207
1605.55,1.313043,349495,16998
1608.55,1.322097,341154,16250
1612.54,1.316253,330877,15974
1615.53,1.310609,322904,15793
1618.51,1.313580,315116,15307
1621.49,1.319626,307217,14717
1624.47,1.309584,299481,14682
1627.44,1.311643,292112,14253
1630.41,1.314948,284245,13764
1634.36,1.316611,274079,13221
1637.32,1.304060,266916,13253
1640.27,1.306301,259612,12824
1643.22,1.317417,251804,12124
1646.16,1.310241,244348,11961
1649.1,1.310795,236703,11572
1652.04,1.304644,228171,11314
1655.95,1.302258,215408,10740
1658.88,1.268612,204937,11041
1661.8,1.272597,193395,10324
1664.72,1.255268,179728,9985
1667.63,1.246487,163642,9277
1670.54,1.211086,146312,8999
1673.44,1.196834,128451,8164
1677.31,1.170935,105080,7089
1680.21,1.158998,88906,6165
1683.1,1.100006,75033,5960
1685.99,1.143089,63520,4569
1688.87,1.079683,53714,4471
1691.75,1.093504,45653,3681
1694.62,1.151521,39137,2761
1697.49,1.173540,33776,2265
1701.31,1.133894,28175,2070