File: ML/samples/unknown/Column 1_078070_20241121_164400.csv
Method:,Column 1,,
Host Date-Time:,21/11/24 @ 16:44:0,,
Header Version:,1,,
System Temp (C):,31.42,,
Detector Temp (C):,26.3,,
Humidity (%):,5.17,,
Lamp PD:,3808,,
Shift Vector Coefficients:,-10.5391,0.0761263,-0.000134223,,
Pixel to Wavelength Coefficients:,1775.68,-0.916766,-0.000235065,,
Serial Number:,5510004,,
Scan Config Name:,Column 1,,
Scan Config Type:,Slew,,
Section 1,,
Start wavelength (nm):,900,,
End wavelength (nm):,1700,,
Pattern Pixel Width (nm):,   7.03,,,,
Exposure (ms):,  0.635,,,,
Digital Resolution:,228,,
Num Repeats:,6,,
PGA Gain:,64,,
Total Measurement Time in sec:,  2.708,,
Wavelength (nm),Absorbance (AU),Reference Signal (unitless),Sample Signal (unitless)
901.51,1.353857,108485,4803
905.376,1.301696,121306,6056
909.237,1.314434,131909,6395
913.095,1.322013,143299,6827
916.948,1.349389,156982,7022
922.079,1.310095,179937,8811
925.923,1.312184,200504,9771
929.762,1.309022,222660,10930
933.597,1.314026,244426,11861
937.427,1.322637,263972,12558
941.254,1.317527,281845,13567
945.076,1.317240,297271,14319
950.165,1.309906,315605,15461
953.978,1.307874,328029,16145
957.786,1.316283,340470,16436
961.59,1.314776,352317,17067
965.389,1.319000,363056,17417
969.185,1.305289,373162,18476
972.976,1.299367,382632,19205
976.763,1.307001,391202,19293
981.806,1.309103,400190,19641
985.583,1.305597,406088,20092
989.355,1.313100,410162,19946
993.124,1.309322,412868,20253
996.888,1.310787,414263,20253
1000.65,1.312164,415476,20248
1004.4,1.306583,415479,20510
1009.41,1.315478,414358,20040
1013.15,1.312047,412923,20129
1016.89,1.311698,411526,20077
1020.63,1.315984,409066,19761
1024.36,1.306528,406777,20083
1028.09,1.309539,404427,19829
1031.82,1.305320,401911,19898
1036.78,1.309806,398410,19522
1040.49,1.308821,396204,19458
1044.2,1.307619,394236,19415
1047.91,1.308338,392042,19275
1051.61,1.306189,389823,19261
1055.31,1.312264,388234,18916
1059,1.318776,387599,18604
1063.92,1.305714,386688,19127
1067.61,1.309650,386598,18950
1071.29,1.303703,387377,19250
1074.96,1.316592,388536,18743
1078.63,1.314028,389855,18918
1082.3,1.314646,391215,18957
1085.96,1.315671,393215,19009
1090.84,1.316027,396270,19141
1094.49,1.317207,398760,19209
1098.14,1.329250,400987,18788
1101.79,1.322382,403477,19206
1105.43,1.314780,406116,19673
1109.06,1.319395,407701,19541
1112.7,1.318278,409859,19695
1117.53,1.316237,412494,19915
1121.15,1.321639,414909,19784
1124.77,1.320453,416559,19917
1128.38,1.323203,418532,19885
1131.99,1.324525,419956,19892
1135.6,1.321888,421946,20108
1139.2,1.316487,423881,20453
1143.99,1.321454,426786,20359
1147.58,1.329955,428617,20050
1151.17,1.325870,431169,20360
1154.75,1.327502,433579,20397
1158.33,1.313782,436264,21182
1161.91,1.313401,439132,21340
1165.48,1.324765,442389,20943
1169.04,1.316006,446101,21549
1173.79,1.313913,451929,21936
1177.34,1.318486,456026,21903
1180.9,1.309669,461306,22611
1184.44,1.323672,467657,22195
1187.99,1.323741,473969,22491
1191.52,1.329121,479856,22490
1195.06,1.320803,487372,23284
1199.76,1.316177,497347,24015
1203.29,1.319817,504311,24148
1206.81,1.323925,511507,24262
1210.33,1.322167,519078,24721
1213.84,1.322133,527163,25108
1217.35,1.321460,534208,25483
1220.85,1.328812,540472,25349
1225.51,1.325835,549929,25970
1229.01,1.322522,556888,26500
1232.5,1.323055,562180,26719
1235.98,1.323770,567975,26950
1239.46,1.314672,574815,27852
1242.94,1.325132,582782,27566
1246.41,1.325773,591476,27936
1251.03,1.322260,604016,28760
1254.5,1.324484,612289,29005
1257.96,1.324837,619125,29305
1261.41,1.326129,624551,29474
1264.86,1.323746,629900,29890
1268.31,1.326407,634345,29917
1271.75,1.332192,638574,29718
1276.33,1.325170,642499,30388
1279.76,1.330953,645905,30145
1283.19,1.328022,648307,30462
1286.61,1.332773,650446,30230
1290.03,1.330820,652132,30445
1293.44,1.332043,653907,30442
1296.85,1.331925,655963,30546
1301.39,1.331989,657349,30606
1304.8,1.332667,657558,30568
1308.19,1.332348,658515,30635
1311.58,1.332482,658804,30639
1314.97,1.333782,659011,30557
1318.36,1.333636,658272,30533
1321.73,1.329084,658022,30843
1326.23,1.332206,657870,30615
1329.6,1.332382,656482,30538
1332.97,1.339433,654926,29975
1336.33,1.335030,653727,30225
1339.69,1.340595,652497,29784
1343.04,1.330868,649913,30338
1346.39,1.331866,647671,30164
1349.73,1.333637,645338,29933
1354.18,1.328612,641175,30086
1357.52,1.329725,638376,29878
1360.85,1.330538,635805,29702
1364.17,1.332587,633413,29451
1367.49,1.322637,631026,30020
1370.81,1.327628,628050,29537
1374.12,1.336692,625034,28788
1378.54,1.328824,620272,29091
1381.84,1.329221,616892,28906
1385.14,1.327162,613613,28889
1388.43,1.334122,611526,28333
1391.72,1.326319,610663,28806
1395.01,1.327324,610634,28738
1398.29,1.324815,611700,28955
1402.66,1.325372,614051,29029
1405.93,1.334148,616268,28551
1409.2,1.328701,617795,28983
1412.46,1.327037,618872,29145
1415.72,1.329222,619795,29042
1418.98,1.332246,620495,28873
1422.23,1.334364,621087,28760
1426.56,1.332742,621375,28881
1429.8,1.330032,621616,29073
1433.04,1.333358,622129,28875
1436.27,1.335502,621526,28705
1439.5,1.336774,621113,28602
1442.72,1.329786,620921,29057
1445.94,1.330812,620270,28958
1450.23,1.331582,618860,28841
1453.44,1.336724,617697,28448
1456.64,1.337152,616264,28354
1459.85,1.340094,614413,28078
1463.04,1.339966,612307,27990
1466.24,1.335936,610032,28146
1469.43,1.338891,607345,27832
1473.67,1.341142,603789,27526
1476.85,1.337117,601175,27662
1480.02,1.337035,597737,27509
1483.19,1.334488,594479,27520
1486.36,1.344467,591232,26748
1489.52,1.333361,587853,27284
1492.68,1.338882,583875,26757
1496.89,1.338925,578062,26488
1500.03,1.338763,574159,26319
1503.18,1.337161,570285,26238
1506.32,1.338520,565444,25934
1509.45,1.344276,560571,25372
1512.58,1.339725,555821,25422
1515.71,1.341722,550344,25056
1519.87,1.342361,543983,24730
1522.99,1.341666,538764,24532
1526.1,1.342830,533692,24236
1529.21,1.333121,527902,24515
1532.32,1.334982,521886,24132
1535.42,1.341802,515888,23483
1538.51,1.338399,509987,23397
1541.6,1.339347,503936,23069
1545.72,1.338311,494694,22700
1548.8,1.342344,488378,22203
1551.88,1.330694,481832,22501
1554.95,1.338646,474989,21779
1558.02,1.340781,467818,21345
1561.08,1.328069,460730,21646
1564.15,1.337863,454170,20862
1568.22,1.348053,444181,19930
1571.27,1.328611,436947,20503
1574.32,1.336463,429598,19797
1577.36,1.334472,422039,19538
1580.4,1.334681,414375,19174
1583.43,1.330929,406354,18966
1586.46,1.323388,398475,18924
1590.49,1.342251,388982,17688
1593.51,1.334611,380708,17619
1596.53,1.326174,372727,17588
1599.54,1.334837,365060,16886
1602.55,1.329521,357543,16742
1605.55,1.333015,349495,16234
1608.55,1.345345,341154,15403
1612.54,1.335486,330877,15282
1615.53,1.322993,322904,15349
1618.51,1.323162,315116,14973
1621.49,1.327367,307217,14457
1624.47,1.321398,299481,14288
1627.44,1.318523,292112,14029
1630.41,1.325746,284245,13426
1634.36,1.319413,274079,13136
1637.32,1.326107,266916,12597
1640.27,1.317311,259612,12503
1643.22,1.314738,251804,12199
1646.16,1.329052,244348,11454
1649.1,1.317299,236703,11400
1652.04,1.335049,228171,10549
1655.95,1.307587,215408,10609
1658.88,1.311881,204937,9994
1661.8,1.323272,193395,9187
1664.72,1.310627,179728,8790
1667.63,1.314184,163642,7938
1670.54,1.303686,146312,7271
1673.44,1.322270,128451,6116
1677.31,1.294874,105080,5329
1680.21,1.354207,88906,3933
1683.1,1.287990,75033,3866
1685.99,1.280858,63520,3327
1688.87,1.313946,53714,2607
1691.75,1.364783,45653,1971
1694.62,1.342656,39137,1778
1697.49,1.258862,33776,1861
1701.31,1.215853,28175,1714