File: ML/samples/unknown/Column 1_078389_20241121_170017.csv
Method:,Column 1,,
Host Date-Time:,21/11/24 @ 17:0:17,,
Header Version:,1,,
System Temp (C):,34.4,,
Detector Temp (C):,34.14,,
Humidity (%):,2.4,,
Lamp PD:,3802,,
Shift Vector Coefficients:,-10.5391,0.0761263,-0.000134223,,
Pixel to Wavelength Coefficients:,1775.68,-0.916766,-0.000235065,,
Serial Number:,5510004,,
Scan Config Name:,Column 1,,
Scan Config Type:,Slew,,
Section 1,,
Start wavelength (nm):,900,,
End wavelength (nm):,1700,,
Pattern Pixel Width (nm):,   7.03,,,,
Exposure (ms):,  0.635,,,,
Digital Resolution:,228,,
Num Repeats:,6,,
PGA Gain:,64,,
Total Measurement Time in sec:,  2.729,,
Wavelength (nm),Absorbance (AU),Reference Signal (unitless),Sample Signal (unitless)
901.51,1.341731,108485,4939
905.376,1.269901,121306,6516
909.237,1.331823,131909,6144
913.095,1.336239,143299,6607
916.948,1.320847,156982,7499
922.079,1.317904,179937,8654
925.923,1.336968,200504,9229
929.762,1.331361,222660,10382
933.597,1.340289,244426,11165
937.427,1.321532,263972,12590
941.254,1.314750,281845,13654
945.076,1.327863,297271,13973
950.165,1.310272,315605,15448
953.978,1.305032,328029,16251
957.786,1.310612,340470,16652
961.59,1.309993,352317,17256
965.389,1.302943,363056,18073
969.185,1.307410,373162,18386
972.976,1.314040,382632,18567
976.763,1.319817,391202,18732
981.806,1.312722,400190,19478
985.583,1.307568,406088,20001
989.355,1.317740,410162,19734
993.124,1.309365,412868,20251
996.888,1.314210,414263,20094
1000.65,1.310644,415476,20319
1004.4,1.298569,415479,20892
1009.41,1.308897,414358,20346
1013.15,1.308566,412923,20291
1016.89,1.308917,411526,20206
1020.63,1.307626,409066,20145
1024.36,1.312034,406777,19830
1028.09,1.317742,404427,19458
1031.82,1.330342,401911,18784
1036.78,1.301477,398410,19900
1040.49,1.314753,396204,19194
1044.2,1.321344,394236,18811
1047.91,1.305732,392042,19391
1051.61,1.313809,389823,18926
1055.31,1.315930,388234,18757
1059,1.311186,387599,18932
1063.92,1.309545,386688,18959
1067.61,1.320887,386598,18466
1071.29,1.321244,387377,18488
1074.96,1.317892,388536,18687
1078.63,1.318829,389855,18710
1082.3,1.315081,391215,18938
1085.96,1.314188,393215,19074
1090.84,1.309340,396270,19438
1094.49,1.314031,398760,19350
1098.14,1.323806,400987,19025
1101.79,1.316899,403477,19450
1105.43,1.317459,406116,19552
1109.06,1.324874,407701,19296
1112.7,1.328700,409859,19228
1117.53,1.314127,412494,20012
1121.15,1.316966,414909,19998
1124.77,1.313852,416559,20222
1128.38,1.322483,418532,19918
1131.99,1.322521,419956,19984
1135.6,1.321866,421946,20109
1139.2,1.325650,423881,20026
1143.99,1.330420,426786,19943
1147.58,1.315009,428617,20752
1151.17,1.318405,431169,20713
1154.75,1.326035,433579,20466
1158.33,1.321832,436264,20793
1161.91,1.318251,439132,21103
1165.48,1.318221,442389,21261
1169.04,1.320626,446101,21321
1173.79,1.319151,451929,21673
1177.34,1.322050,456026,21724
1180.9,1.318478,461306,22157
1184.44,1.319369,467657,22416
1187.99,1.325793,473969,22385
1191.52,1.323157,479856,22801
1195.06,1.314985,487372,23598
1199.76,1.325056,497347,23529
1203.29,1.320717,504311,24098
1206.81,1.316859,511507,24660
1210.33,1.327256,519078,24433
1213.84,1.322150,527163,25107
1217.35,1.320285,534208,25552
1220.85,1.324482,540472,25603
1225.51,1.320466,549929,26293
1229.01,1.328412,556888,26143
1232.5,1.328403,562180,26392
1235.98,1.326827,567975,26761
1239.46,1.324162,574815,27250
1242.94,1.323513,582782,27669
1246.41,1.326162,591476,27911
1251.03,1.325914,604016,28519
1254.5,1.332584,612289,28469
1257.96,1.327170,619125,29148
1261.41,1.331332,624551,29123
1264.86,1.329508,629900,29496
1268.31,1.329818,634345,29683
1271.75,1.326659,638574,30099
1276.33,1.331055,642499,29979
1279.76,1.323540,645905,30664
1283.19,1.330524,648307,30287
1286.61,1.332658,650446,30238
1290.03,1.329609,652132,30530
1293.44,1.338236,653907,30011
1296.85,1.333335,655963,30447
1301.39,1.328442,657349,30857
1304.8,1.328355,657558,30873
1308.19,1.337611,658515,30266
1311.58,1.334855,658804,30472
1314.97,1.335705,659011,30422
1318.36,1.332712,658272,30598
1321.73,1.333812,658022,30509
1326.23,1.328716,657870,30862
1329.6,1.335823,656482,30297
1332.97,1.339129,654926,29996
1336.33,1.332094,653727,30430
1339.69,1.332320,652497,30357
1343.04,1.339208,649913,29761
1346.39,1.331808,647671,30168
1349.73,1.333564,645338,29938
1354.18,1.330696,641175,29942
1357.52,1.332393,638376,29695
1360.85,1.329618,635805,29765
1364.17,1.334627,633413,29313
1367.49,1.326925,631026,29725
1370.81,1.331334,628050,29286
1374.12,1.329184,625034,29290
1378.54,1.329720,620272,29031
1381.84,1.330847,616892,28798
1385.14,1.333553,613613,28467
1388.43,1.333785,611526,28355
1391.72,1.327632,610663,28719
1395.01,1.327506,610634,28726
1398.29,1.329945,611700,28615
1402.66,1.327622,614051,28879
1405.93,1.331827,616268,28704
1409.2,1.331030,617795,28828
1412.46,1.333356,618872,28724
1415.72,1.330045,619795,28987
1418.98,1.333361,620495,28799
1422.23,1.335498,621087,28685
1426.56,1.341705,621375,28291
1429.8,1.336398,621616,28650
1433.04,1.334443,622129,28803
1436.27,1.334731,621526,28756
1439.5,1.333612,621113,28811
1442.72,1.341050,620921,28313
1445.94,1.337401,620270,28522
1450.23,1.331974,618860,28815
1453.44,1.340372,617697,28210
1456.64,1.333021,616264,28625
1459.85,1.333280,614413,28522
1463.04,1.337213,612307,28168
1466.24,1.335874,610032,28150
1469.43,1.339531,607345,27791
1473.67,1.339536,603789,27628
1476.85,1.344496,601175,27196
1480.02,1.336641,597737,27534
1483.19,1.341472,594479,27081
1486.36,1.335866,591232,27283
1489.52,1.335195,587853,27169
1492.68,1.335439,583875,26970
1496.89,1.345084,578062,26115
1500.03,1.336820,574159,26437
1503.18,1.338404,570285,26163
1506.32,1.339828,565444,25856
1509.45,1.337735,560571,25757
1512.58,1.339982,555821,25407
1515.71,1.341636,550344,25061
1519.87,1.334823,543983,25163
1522.99,1.339934,538764,24630
1526.1,1.341684,533692,24300
1529.21,1.343357,527902,23944
1532.32,1.337545,521886,23990
1535.42,1.337459,515888,23719
1538.51,1.337805,509987,23429
1541.6,1.337374,503936,23174
1545.72,1.343565,494694,22427
1548.8,1.351616,488378,21734
1551.88,1.334085,481832,22326
1554.95,1.337431,474989,21840
1558.02,1.334679,467818,21647
1561.08,1.339123,460730,21102
1564.15,1.340284,454170,20746
1568.22,1.343199,444181,20154
1571.27,1.331736,436947,20356
1574.32,1.347302,429598,19309
1577.36,1.328885,422039,19791
1580.4,1.333188,414375,19240
1583.43,1.336668,406354,18717
1586.46,1.334240,398475,18457
1590.49,1.337149,388982,17897
1593.51,1.332643,380708,17699
1596.53,1.340763,372727,17007
1599.54,1.333630,365060,16933
1602.55,1.330196,357543,16716
1605.55,1.331173,349495,16303
1608.55,1.317815,341154,16411
1612.54,1.335458,330877,15283
1615.53,1.340311,322904,14749
1618.51,1.341165,315116,14365
1621.49,1.330442,307217,14355
1624.47,1.322189,299481,14262
1627.44,1.324006,292112,13853
1630.41,1.320346,284245,13594
1634.36,1.323732,274079,13006
1637.32,1.324765,266916,12636
1640.27,1.325728,259612,12263
1643.22,1.310487,251804,12319
1646.16,1.327386,244348,11498
1649.1,1.316120,236703,11431
1652.04,1.301584,228171,11394
1655.95,1.323811,215408,10220
1658.88,1.311577,204937,10001
1661.8,1.281007,193395,10126
1664.72,1.290120,179728,9215
1667.63,1.270796,163642,8772
1670.54,1.260889,146312,8024
1673.44,1.235882,128451,7462
1677.31,1.198046,105080,6660
1680.21,1.206206,88906,5530
1683.1,1.177152,75033,4990
1685.99,1.250242,63520,3570
1688.87,1.187138,53714,3491
1691.75,1.207990,45653,2828
1694.62,1.234082,39137,2283
1697.49,1.217915,33776,2045
1701.31,1.386155,28175,1158