File: ML/samples/unknown/Column 1_078712_20241121_171832.csv
Method:,Column 1,,
Host Date-Time:,21/11/24 @ 17:18:32,,
Header Version:,1,,
System Temp (C):,35.53,,
Detector Temp (C):,34.44,,
Humidity (%):,1.56,,
Lamp PD:,3800,,
Shift Vector Coefficients:,-10.5391,0.0761263,-0.000134223,,
Pixel to Wavelength Coefficients:,1775.68,-0.916766,-0.000235065,,
Serial Number:,5510004,,
Scan Config Name:,Column 1,,
Scan Config Type:,Slew,,
Section 1,,
Start wavelength (nm):,900,,
End wavelength (nm):,1700,,
Pattern Pixel Width (nm):,   7.03,,,,
Exposure (ms):,  0.635,,,,
Digital Resolution:,228,,
Num Repeats:,6,,
PGA Gain:,64,,
Total Measurement Time in sec:,  2.728,,
Wavelength (nm),Absorbance (AU),Reference Signal (unitless),Sample Signal (unitless)
901.51,1.299771,108485,5440
905.376,1.313546,121306,5893
909.237,1.312401,131909,6425
913.095,1.319350,143299,6869
916.948,1.346001,156982,7077
922.079,1.352356,179937,7994
925.923,1.320033,200504,9596
929.762,1.330108,222660,10412
933.597,1.302393,244426,12183
937.427,1.311440,263972,12886
941.254,1.313734,281845,13686
945.076,1.301397,297271,14851
950.165,1.314765,315605,15289
953.978,1.315144,328029,15877
957.786,1.319093,340470,16330
961.59,1.307159,352317,17369
965.389,1.309773,363056,17791
969.185,1.307434,373162,18385
972.976,1.305768,382632,18924
976.763,1.312483,391202,19051
981.806,1.311564,400190,19530
985.583,1.307243,406088,20016
989.355,1.306638,410162,20245
993.124,1.302535,412868,20572
996.888,1.303599,414263,20591
1000.65,1.298109,415476,20914
1004.4,1.304471,415479,20610
1009.41,1.313122,414358,20149
1013.15,1.314015,412923,20038
1016.89,1.301501,411526,20554
1020.63,1.309917,409066,20039
1024.36,1.298982,406777,20435
1028.09,1.314274,404427,19614
1031.82,1.301734,401911,20063
1036.78,1.308739,398410,19570
1040.49,1.310386,396204,19388
1044.2,1.305833,394236,19495
1047.91,1.309218,392042,19236
1051.61,1.302015,389823,19447
1055.31,1.308015,388234,19102
1059,1.298059,387599,19513
1063.92,1.311589,386688,18870
1067.61,1.312825,386598,18812
1071.29,1.306101,387377,19144
1074.96,1.316476,388536,18748
1078.63,1.316584,389855,18807
1082.3,1.313822,391215,18993
1085.96,1.304061,393215,19524
1090.84,1.312029,396270,19318
1094.49,1.309720,398760,19543
1098.14,1.316651,400987,19341
1101.79,1.313408,403477,19607
1105.43,1.308707,406116,19950
1109.06,1.306994,407701,20107
1112.7,1.320955,409859,19574
1117.53,1.316979,412494,19881
1121.15,1.312881,414909,20187
1124.77,1.315251,416559,20157
1128.38,1.312823,418532,20366
1131.99,1.313574,419956,20400
1135.6,1.313651,421946,20493
1139.2,1.317337,423881,20413
1143.99,1.315964,426786,20618
1147.58,1.320633,428617,20485
1151.17,1.320148,431169,20630
1154.75,1.312950,433579,21092
1158.33,1.313741,436264,21184
1161.91,1.321349,439132,20953
1165.48,1.311230,442389,21606
1169.04,1.311854,446101,21756
1173.79,1.321280,451929,21567
1177.34,1.315857,456026,22036
1180.9,1.314614,461306,22355
1184.44,1.315281,467657,22628
1187.99,1.309047,473969,23265
1191.52,1.317743,479856,23087
1195.06,1.319462,487372,23356
1199.76,1.319864,497347,23812
1203.29,1.321565,504311,24051
1206.81,1.317546,511507,24621
1210.33,1.319470,519078,24875
1213.84,1.315320,527163,25505
1217.35,1.315670,534208,25825
1220.85,1.320245,540472,25854
1225.51,1.326722,549929,25917
1229.01,1.317131,556888,26831
1232.5,1.318576,562180,26996
1235.98,1.318724,567975,27265
1239.46,1.323540,574815,27289
1242.94,1.317852,582782,28032
1246.41,1.320750,591476,28261
1251.03,1.317857,604016,29053
1254.5,1.325638,612289,28928
1257.96,1.324348,619125,29338
1261.41,1.322227,624551,29740
1264.86,1.322614,629900,29968
1268.31,1.324712,634345,30034
1271.75,1.324156,638574,30273
1276.33,1.322591,642499,30569
1279.76,1.320843,645905,30855
1283.19,1.324968,648307,30677
1286.61,1.329282,650446,30474
1290.03,1.327664,652132,30667
1293.44,1.325586,653907,30898
1296.85,1.325098,655963,31030
1301.39,1.327936,657349,30893
1304.8,1.326292,657558,31020
1308.19,1.329437,658515,30841
1311.58,1.330361,658804,30789
1314.97,1.325644,659011,31135
1318.36,1.333977,658272,30509
1321.73,1.330240,658022,30761
1326.23,1.326722,657870,31004
1329.6,1.325623,656482,31017
1332.97,1.333047,654926,30419
1336.33,1.326029,653727,30858
1339.69,1.328843,652497,30601
1343.04,1.329197,649913,30455
1346.39,1.327924,647671,30439
1349.73,1.326385,645338,30437
1354.18,1.326194,641175,30254
1357.52,1.329725,638376,29878
1360.85,1.320479,635805,30398
1364.17,1.325900,633413,29908
1367.49,1.320832,631026,30145
1370.81,1.321858,628050,29932
1374.12,1.322899,625034,29717
1378.54,1.325329,620272,29326
1381.84,1.322305,616892,29370
1385.14,1.323823,613613,29112
1388.43,1.317580,611526,29433
1391.72,1.326485,610663,28795
1395.01,1.325876,610634,28834
1398.29,1.327719,611700,28762
1402.66,1.326766,614051,28936
1405.93,1.331570,616268,28721
1409.2,1.325402,617795,29204
1412.46,1.324185,618872,29337
1415.72,1.326538,619795,29222
1418.98,1.326078,620495,29286
1422.23,1.328454,621087,29154
1426.56,1.327792,621375,29212
1429.8,1.329719,621616,29094
1433.04,1.331093,622129,29026
1436.27,1.331211,621526,28990
1439.5,1.322407,621113,29564
1442.72,1.330728,620921,28994
1445.94,1.330902,620270,28952
1450.23,1.326984,618860,29148
1453.44,1.333893,617697,28634
1456.64,1.324265,616264,29208
1459.85,1.335555,614413,28373
1463.04,1.330861,612307,28583
1466.24,1.334857,610032,28216
1469.43,1.329338,607345,28451
1473.67,1.335935,603789,27858
1476.85,1.327046,601175,28311
1480.02,1.332684,597737,27786
1483.19,1.338627,594479,27259
1486.36,1.331621,591232,27551
1489.52,1.334046,587853,27241
1492.68,1.339597,583875,26713
1496.89,1.338761,578062,26498
1500.03,1.333677,574159,26629
1503.18,1.333683,570285,26449
1506.32,1.332549,565444,26293
1509.45,1.330976,560571,26161
1512.58,1.324583,555821,26324
1515.71,1.330127,550344,25734
1519.87,1.336067,543983,25091
1522.99,1.332608,538764,25049
1526.1,1.332122,533692,24841
1529.21,1.334630,527902,24430
1532.32,1.331701,521886,24315
1535.42,1.342246,515888,23459
1538.51,1.336177,509987,23517
1541.6,1.330993,503936,23517
1545.72,1.339230,494694,22652
1548.8,1.335764,488378,22542
1551.88,1.327904,481832,22646
1554.95,1.331879,474989,22121
1558.02,1.338670,467818,21449
1561.08,1.335679,460730,21270
1564.15,1.325994,454170,21440
1568.22,1.339936,444181,20306
1571.27,1.324416,436947,20702
1574.32,1.328873,429598,20146
1577.36,1.322654,422039,20077
1580.4,1.336497,414375,19094
1583.43,1.335718,406354,18758
1586.46,1.328443,398475,18705
1590.49,1.322805,388982,18498
1593.51,1.333626,380708,17659
1596.53,1.330268,372727,17423
1599.54,1.319326,365060,17500
1602.55,1.324312,357543,16944
1605.55,1.323856,349495,16580
1608.55,1.327475,341154,16050
1612.54,1.309589,330877,16221
1615.53,1.322145,322904,15379
1618.51,1.323916,315116,14947
1621.49,1.323063,307217,14601
1624.47,1.323592,299481,14216
1627.44,1.320664,292112,13960
1630.41,1.314759,284245,13770
1634.36,1.324267,274079,12990
1637.32,1.322605,266916,12699
1640.27,1.324278,259612,12304
1643.22,1.307396,251804,12407
1646.16,1.309479,244348,11982
1649.1,1.306984,236703,11674
1652.04,1.306568,228171,11264
1655.95,1.315811,215408,10410
1658.88,1.305497,204937,10142
1661.8,1.283502,193395,10068
1664.72,1.283433,179728,9358
1667.63,1.263141,163642,8928
1670.54,1.241829,146312,8384
1673.44,1.240211,128451,7388
1677.31,1.192989,105080,6738
1680.21,1.186478,88906,5787
1683.1,1.208360,75033,4644
1685.99,1.174522,63520,4250
1688.87,1.139692,53714,3894
1691.75,1.224581,45653,2722
1694.62,1.160260,39137,2706
1697.49,1.183823,33776,2212
1701.31,1.287897,28175,1452