File: ML/samples/unknown/Column 1_078131_20241121_164700.csv
Method:,Column 1,,
Host Date-Time:,21/11/24 @ 16:47:0,,
Header Version:,1,,
System Temp (C):,32.96,,
Detector Temp (C):,28.62,,
Humidity (%):,3.61,,
Lamp PD:,3806,,
Shift Vector Coefficients:,-10.5391,0.0761263,-0.000134223,,
Pixel to Wavelength Coefficients:,1775.68,-0.916766,-0.000235065,,
Serial Number:,5510004,,
Scan Config Name:,Column 1,,
Scan Config Type:,Slew,,
Section 1,,
Start wavelength (nm):,900,,
End wavelength (nm):,1700,,
Pattern Pixel Width (nm):,   7.03,,,,
Exposure (ms):,  0.635,,,,
Digital Resolution:,228,,
Num Repeats:,6,,
PGA Gain:,64,,
Total Measurement Time in sec:,  2.701,,
Wavelength (nm),Absorbance (AU),Reference Signal (unitless),Sample Signal (unitless)
901.51,1.312818,108485,5279
905.376,1.311267,121306,5924
909.237,1.304697,131909,6540
913.095,1.319413,143299,6868
916.948,1.318824,156982,7534
922.079,1.320016,179937,8612
925.923,1.317731,200504,9647
929.762,1.331236,222660,10385
933.597,1.314136,244426,11858
937.427,1.312452,263972,12856
941.254,1.325441,281845,13322
945.076,1.311126,297271,14522
950.165,1.311313,315605,15411
953.978,1.302023,328029,16364
957.786,1.311709,340470,16610
961.59,1.314344,352317,17084
965.389,1.313746,363056,17629
969.185,1.304632,373162,18504
972.976,1.311149,382632,18691
976.763,1.309530,391202,19181
981.806,1.309523,400190,19622
985.583,1.307873,406088,19987
989.355,1.308680,410162,20150
993.124,1.310288,412868,20208
996.888,1.312699,414263,20164
1000.65,1.308618,415476,20414
1004.4,1.304956,415479,20587
1009.41,1.306767,414358,20446
1013.15,1.313776,412923,20049
1016.89,1.317075,411526,19830
1020.63,1.302099,409066,20403
1024.36,1.311202,406777,19868
1028.09,1.309715,404427,19821
1031.82,1.311918,401911,19598
1036.78,1.320412,398410,19051
1040.49,1.320218,396204,18954
1044.2,1.306368,394236,19471
1047.91,1.318575,392042,18826
1051.61,1.313373,389823,18945
1055.31,1.312172,388234,18920
1059,1.298682,387599,19485
1063.92,1.315496,386688,18701
1067.61,1.310086,386598,18931
1071.29,1.308398,387377,19043
1074.96,1.318683,388536,18653
1078.63,1.313271,389855,18951
1082.3,1.307601,391215,19267
1085.96,1.313415,393215,19108
1090.84,1.314328,396270,19216
1094.49,1.320384,398760,19069
1098.14,1.309216,400987,19675
1101.79,1.315962,403477,19492
1105.43,1.311809,406116,19808
1109.06,1.319884,407701,19519
1112.7,1.317067,409859,19750
1117.53,1.315388,412494,19954
1121.15,1.318969,414909,19906
1124.77,1.317389,416559,20058
1128.38,1.313869,418532,20317
1131.99,1.323413,419956,19943
1135.6,1.321111,421946,20144
1139.2,1.321033,423881,20240
1143.99,1.320282,426786,20414
1147.58,1.309189,428617,21032
1151.17,1.321582,431169,20562
1154.75,1.316922,433579,20900
1158.33,1.323234,436264,20726
1161.91,1.316013,439132,21212
1165.48,1.320227,442389,21163
1169.04,1.307089,446101,21996
1173.79,1.313299,451929,21967
1177.34,1.327765,456026,21440
1180.9,1.320699,461306,22044
1184.44,1.320164,467657,22375
1187.99,1.324843,473969,22434
1191.52,1.322073,479856,22858
1195.06,1.346782,487372,21932
1199.76,1.323490,497347,23614
1203.29,1.323411,504311,23949
1206.81,1.323084,511507,24309
1210.33,1.325588,519078,24527
1213.84,1.320389,527163,25209
1217.35,1.332926,534208,24819
1220.85,1.320918,540472,25814
1225.51,1.327342,549929,25880
1229.01,1.323917,556888,26415
1232.5,1.323104,562180,26716
1235.98,1.325887,567975,26819
1239.46,1.329066,574815,26944
1242.94,1.322995,582782,27702
1246.41,1.329191,591476,27717
1251.03,1.323515,604016,28677
1254.5,1.327293,612289,28818
1257.96,1.328139,619125,29083
1261.41,1.331257,624551,29128
1264.86,1.331057,629900,29391
1268.31,1.328751,634345,29756
1271.75,1.329743,638574,29886
1276.33,1.332158,642499,29903
1279.76,1.330507,645905,30176
1283.19,1.323033,648307,30814
1286.61,1.331095,650446,30347
1290.03,1.330891,652132,30440
1293.44,1.331487,653907,30481
1296.85,1.334907,655963,30337
1301.39,1.332174,657349,30593
1304.8,1.330188,657558,30743
1308.19,1.331215,658515,30715
1311.58,1.334912,658804,30468
1314.97,1.328457,659011,30934
1318.36,1.332429,658272,30618
1321.73,1.333585,658022,30525
1326.23,1.338464,657870,30177
1329.6,1.332155,656482,30554
1332.97,1.335022,654926,30281
1336.33,1.329533,653727,30610
1339.69,1.329596,652497,30548
1343.04,1.330368,649913,30373
1346.39,1.334262,647671,29998
1349.73,1.329651,645338,30209
1354.18,1.332090,641175,29846
1357.52,1.332335,638376,29699
1360.85,1.335139,635805,29389
1364.17,1.330337,633413,29604
1367.49,1.335722,631026,29129
1370.81,1.332165,628050,29230
1374.12,1.336345,625034,28811
1378.54,1.327259,620272,29196
1381.84,1.330063,616892,28850
1385.14,1.334118,613613,28430
1388.43,1.327505,611526,28768
1391.72,1.328313,610663,28674
1395.01,1.328156,610634,28683
1398.29,1.330780,611700,28560
1402.66,1.328631,614051,28812
1405.93,1.334285,616268,28542
1409.2,1.333765,617795,28647
1412.46,1.332012,618872,28813
1415.72,1.332253,619795,28840
1418.98,1.326880,620495,29232
1422.23,1.336893,621087,28593
1426.56,1.334973,621375,28733
1429.8,1.341598,621616,28309
1433.04,1.339097,622129,28496
1436.27,1.337808,621526,28553
1439.5,1.329830,621113,29063
1442.72,1.339061,620921,28443
1445.94,1.328718,620270,29098
1450.23,1.335667,618860,28571
1453.44,1.340326,617697,28213
1456.64,1.337260,616264,28347
1459.85,1.337688,614413,28234
1463.04,1.340044,612307,27985
1466.24,1.335288,610032,28188
1469.43,1.338829,607345,27836
1473.67,1.335686,603789,27874
1476.85,1.335550,601175,27762
1480.02,1.332809,597737,27778
1483.19,1.332331,594479,27657
1486.36,1.339976,591232,27026
1489.52,1.337696,587853,27013
1492.68,1.333447,583875,27094
1496.89,1.334846,578062,26738
1500.03,1.340665,574159,26204
1503.18,1.336169,570285,26298
1506.32,1.337082,565444,26020
1509.45,1.340052,560571,25620
1512.58,1.335644,555821,25662
1515.71,1.339061,550344,25210
1519.87,1.339299,543983,24905
1522.99,1.338948,538764,24686
1526.1,1.344697,533692,24132
1529.21,1.330455,527902,24666
1532.32,1.337745,521886,23979
1535.42,1.339165,515888,23626
1538.51,1.337120,509987,23466
1541.6,1.338688,503936,23104
1545.72,1.332571,494694,23002
1548.8,1.333784,488378,22645
1551.88,1.332745,481832,22395
1554.95,1.335467,474989,21939
1558.02,1.328227,467818,21971
1561.08,1.337685,460730,21172
1564.15,1.334958,454170,21002
1568.22,1.335319,444181,20523
1571.27,1.331630,436947,20361
1574.32,1.342004,429598,19546
1577.36,1.323282,422039,20048
1580.4,1.338823,414375,18992
1583.43,1.339835,406354,18581
1586.46,1.324077,398475,18894
1590.49,1.340707,388982,17751
1593.51,1.324091,380708,18051
1596.53,1.336342,372727,17181
1599.54,1.335532,365060,16859
1602.55,1.331341,357543,16672
1605.55,1.326089,349495,16495
1608.55,1.331608,341154,15898
1612.54,1.328495,330877,15530
1615.53,1.325519,322904,15260
1618.51,1.325955,315116,14877
1621.49,1.330957,307217,14338
1624.47,1.318882,299481,14371
1627.44,1.326710,292112,13767
1630.41,1.319516,284245,13620
1634.36,1.327387,274079,12897
1637.32,1.323735,266916,12666
1640.27,1.324526,259612,12297
1643.22,1.325552,251804,11899
1646.16,1.327235,244348,11502
1649.1,1.329351,236703,11088
1652.04,1.324917,228171,10798
1655.95,1.321903,215408,10265
1658.88,1.308074,204937,10082
1661.8,1.296551,193395,9770
1664.72,1.292625,179728,9162
1667.63,1.291169,163642,8370
1670.54,1.302076,146312,7298
1673.44,1.280593,128451,6732
1677.31,1.253919,105080,5856
1680.21,1.297362,88906,4483
1683.1,1.238063,75033,4337
1685.99,1.228185,63520,3756
1688.87,1.281690,53714,2808
1691.75,1.296045,45653,2309
1694.62,1.368832,39137,1674
1697.49,1.281126,33776,1768
1701.31,1.278723,28175,1483