File: ML/samples/unknown/Column 1_078216_20241121_165110.csv
Method:,Column 1,,
Host Date-Time:,21/11/24 @ 16:51:10,,
Header Version:,1,,
System Temp (C):,34.03,,
Detector Temp (C):,31.02,,
Humidity (%):,3.03,,
Lamp PD:,3803,,
Shift Vector Coefficients:,-10.5391,0.0761263,-0.000134223,,
Pixel to Wavelength Coefficients:,1775.68,-0.916766,-0.000235065,,
Serial Number:,5510004,,
Scan Config Name:,Column 1,,
Scan Config Type:,Slew,,
Section 1,,
Start wavelength (nm):,900,,
End wavelength (nm):,1700,,
Pattern Pixel Width (nm):,   7.03,,,,
Exposure (ms):,  0.635,,,,
Digital Resolution:,228,,
Num Repeats:,6,,
PGA Gain:,64,,
Total Measurement Time in sec:,  2.725,,
Wavelength (nm),Absorbance (AU),Reference Signal (unitless),Sample Signal (unitless)
901.51,1.318699,108485,5208
905.376,1.316133,121306,5858
909.237,1.330835,131909,6158
913.095,1.323543,143299,6803
916.948,1.319979,156982,7514
922.079,1.329447,179937,8427
925.923,1.326737,200504,9449
929.762,1.325750,222660,10517
933.597,1.325829,244426,11543
937.427,1.332183,263972,12285
941.254,1.322161,281845,13423
945.076,1.314850,297271,14398
950.165,1.317843,315605,15181
953.978,1.311141,328029,16024
957.786,1.322108,340470,16217
961.59,1.317303,352317,16968
965.389,1.312786,363056,17668
969.185,1.311874,373162,18198
972.976,1.296999,382632,19310
976.763,1.310822,391202,19124
981.806,1.306238,400190,19771
985.583,1.313383,406088,19735
989.355,1.302623,410162,20433
993.124,1.310288,412868,20208
996.888,1.306243,414263,20466
1000.65,1.311178,415476,20294
1004.4,1.314727,415479,20129
1009.41,1.310994,414358,20248
1013.15,1.305707,412923,20425
1016.89,1.305961,411526,20344
1020.63,1.314099,409066,19847
1024.36,1.300387,406777,20369
1028.09,1.300952,404427,20225
1031.82,1.313672,401911,19519
1036.78,1.322377,398410,18965
1040.49,1.308575,396204,19469
1044.2,1.316888,394236,19005
1047.91,1.308879,392042,19251
1051.61,1.301747,389823,19459
1055.31,1.310889,388234,18976
1059,1.314826,387599,18774
1063.92,1.312649,386688,18824
1067.61,1.314560,386598,18737
1071.29,1.325374,387377,18313
1074.96,1.321626,388536,18527
1078.63,1.313294,389855,18950
1082.3,1.318442,391215,18792
1085.96,1.326544,393215,18539
1090.84,1.315664,396270,19157
1094.49,1.329195,398760,18686
1098.14,1.322643,400987,19076
1101.79,1.319992,403477,19312
1105.43,1.319931,406116,19441
1109.06,1.320196,407701,19505
1112.7,1.317573,409859,19727
1117.53,1.318424,412494,19815
1121.15,1.314670,414909,20104
1124.77,1.310174,416559,20394
1128.38,1.316205,418532,20208
1131.99,1.326144,419956,19818
1135.6,1.318768,421946,20253
1139.2,1.318466,423881,20360
1143.99,1.325095,426786,20189
1147.58,1.320379,428617,20497
1151.17,1.326596,431169,20326
1154.75,1.321938,433579,20660
1158.33,1.319665,436264,20897
1161.91,1.325912,439132,20734
1165.48,1.326323,442389,20868
1169.04,1.324616,446101,21126
1173.79,1.322511,451929,21506
1177.34,1.313028,456026,22180
1180.9,1.316405,461306,22263
1184.44,1.315147,467657,22635
1187.99,1.319380,473969,22718
1191.52,1.324760,479856,22717
1195.06,1.318905,487372,23386
1199.76,1.323398,497347,23619
1203.29,1.328812,504311,23653
1206.81,1.317422,511507,24628
1210.33,1.323398,519078,24651
1213.84,1.328826,527163,24724
1217.35,1.319963,534208,25571
1220.85,1.329550,540472,25306
1225.51,1.328266,549929,25825
1229.01,1.325713,556888,26306
1232.5,1.327745,562180,26432
1235.98,1.325094,567975,26868
1239.46,1.325998,574815,27135
1242.94,1.322134,582782,27757
1246.41,1.327315,591476,27837
1251.03,1.328434,604016,28354
1254.5,1.328742,612289,28722
1257.96,1.332024,619125,28824
1261.41,1.329205,624551,29266
1264.86,1.329420,629900,29502
1268.31,1.327731,634345,29826
1271.75,1.328959,638574,29940
1276.33,1.336845,642499,29582
1279.76,1.328468,645905,30318
1283.19,1.334428,648307,30016
1286.61,1.331568,650446,30314
1290.03,1.332234,652132,30346
1293.44,1.332285,653907,30425
1296.85,1.331200,655963,30597
1301.39,1.331862,657349,30615
1304.8,1.330470,657558,30723
1308.19,1.328804,658515,30886
1311.58,1.330643,658804,30769
1314.97,1.332363,659011,30657
1318.36,1.331918,658272,30654
1321.73,1.333229,658022,30550
1326.23,1.334182,657870,30476
1329.6,1.337950,656482,30149
1332.97,1.334549,654926,30314
1336.33,1.337176,653727,30076
1339.69,1.337255,652497,30014
1343.04,1.329953,649913,30402
1346.39,1.326998,647671,30504
1349.73,1.330082,645338,30179
1354.18,1.332848,641175,29794
1357.52,1.331050,638376,29787
1360.85,1.333855,635805,29476
1364.17,1.330571,633413,29588
1367.49,1.329123,631026,29575
1370.81,1.330209,628050,29362
1374.12,1.327748,625034,29387
1378.54,1.329048,620272,29076
1381.84,1.330244,616892,28838
1385.14,1.333233,613613,28488
1388.43,1.324676,611526,28956
1391.72,1.322297,610663,29074
1395.01,1.334148,610634,28290
1398.29,1.333098,611700,28408
1402.66,1.323834,614051,29132
1405.93,1.331358,616268,28735
1409.2,1.333659,617795,28654
1412.46,1.328350,618872,29057
1415.72,1.330075,619795,28985
1418.98,1.330295,620495,29003
1422.23,1.335588,621087,28679
1426.56,1.332892,621375,28871
1429.8,1.334100,621616,28802
1433.04,1.334367,622129,28808
1436.27,1.334459,621526,28774
1439.5,1.335879,621113,28661
1442.72,1.337933,620921,28517
1445.94,1.330887,620270,28953
1450.23,1.335318,618860,28594
1453.44,1.332924,617697,28698
1456.64,1.336097,616264,28423
1459.85,1.339198,614413,28136
1463.04,1.334999,612307,28312
1466.24,1.341042,610032,27817
1469.43,1.339844,607345,27771
1473.67,1.338641,603789,27685
1476.85,1.339621,601175,27503
1480.02,1.337383,597737,27487
1483.19,1.336640,594479,27384
1486.36,1.339623,591232,27048
1489.52,1.345122,587853,26555
1492.68,1.336535,583875,26902
1496.89,1.338581,578062,26509
1500.03,1.338252,574159,26350
1503.18,1.339884,570285,26074
1506.32,1.341140,565444,25778
1509.45,1.340968,560571,25566
1512.58,1.336627,555821,25604
1515.71,1.334622,550344,25469
1519.87,1.337767,543983,24993
1522.99,1.338139,538764,24732
1526.1,1.343547,533692,24196
1529.21,1.344101,527902,23903
1532.32,1.336316,521886,24058
1535.42,1.344399,515888,23343
1538.51,1.342221,509987,23192
1541.6,1.330421,503936,23548
1545.72,1.333478,494694,22954
1548.8,1.339207,488378,22364
1551.88,1.339133,481832,22068
1554.95,1.335942,474989,21915
1558.02,1.340150,467818,21376
1561.08,1.330503,460730,21525
1564.15,1.334730,454170,21013
1568.22,1.335743,444181,20503
1571.27,1.327744,436947,20544
1574.32,1.329456,429598,20119
1577.36,1.338268,422039,19368
1580.4,1.334613,414375,19177
1583.43,1.335463,406354,18769
1586.46,1.337049,398475,18338
1590.49,1.328096,388982,18274
1593.51,1.328224,380708,17880
1596.53,1.336747,372727,17165
1599.54,1.328049,365060,17152
1602.55,1.332384,357543,16632
1605.55,1.331973,349495,16273
1608.55,1.336443,341154,15722
1612.54,1.317505,330877,15928
1615.53,1.327373,322904,15195
1618.51,1.326452,315116,14860
1621.49,1.336474,307217,14157
1624.47,1.326135,299481,14133
1627.44,1.325859,292112,13794
1630.41,1.319643,284245,13616
1634.36,1.323065,274079,13026
1637.32,1.319029,266916,12804
1640.27,1.321499,259612,12383
1643.22,1.328298,251804,11824
1646.16,1.318822,244348,11727
1649.1,1.316842,236703,11412
1652.04,1.300062,228171,11434
1655.95,1.310627,215408,10535
1658.88,1.293336,204937,10430
1661.8,1.286358,193395,10002
1664.72,1.285713,179728,9309
1667.63,1.267492,163642,8839
1670.54,1.279410,146312,7689
1673.44,1.249239,128451,7236
1677.31,1.259968,105080,5775
1680.21,1.204951,88906,5546
1683.1,1.218101,75033,4541
1685.99,1.242287,63520,3636
1688.87,1.265747,53714,2913
1691.75,1.272079,45653,2440
1694.62,1.254530,39137,2178
1697.49,1.311388,33776,1649
1701.31,1.255072,28175,1566