File: ML/samples/unknown/Column 1_078146_20241121_164743.csv
Method:,Column 1,,
Host Date-Time:,21/11/24 @ 16:47:43,,
Header Version:,1,,
System Temp (C):,33.16,,
Detector Temp (C):,29.15,,
Humidity (%):,3.22,,
Lamp PD:,3805,,
Shift Vector Coefficients:,-10.5391,0.0761263,-0.000134223,,
Pixel to Wavelength Coefficients:,1775.68,-0.916766,-0.000235065,,
Serial Number:,5510004,,
Scan Config Name:,Column 1,,
Scan Config Type:,Slew,,
Section 1,,
Start wavelength (nm):,900,,
End wavelength (nm):,1700,,
Pattern Pixel Width (nm):,   7.03,,,,
Exposure (ms):,  0.635,,,,
Digital Resolution:,228,,
Num Repeats:,6,,
PGA Gain:,64,,
Total Measurement Time in sec:,  2.672,,
Wavelength (nm),Absorbance (AU),Reference Signal (unitless),Sample Signal (unitless)
901.51,1.319784,108485,5195
905.376,1.311781,121306,5917
909.237,1.326763,131909,6216
913.095,1.296985,143299,7232
916.948,1.315379,156982,7594
922.079,1.307442,179937,8865
925.923,1.300562,200504,10036
929.762,1.307040,222660,10980
933.597,1.320779,244426,11678
937.427,1.305748,263972,13056
941.254,1.313734,281845,13686
945.076,1.315092,297271,14390
950.165,1.311849,315605,15392
953.978,1.307229,328029,16169
957.786,1.315755,340470,16456
961.59,1.311986,352317,17177
965.389,1.303232,363056,18061
969.185,1.308214,373162,18352
972.976,1.296864,382632,19316
976.763,1.307880,391202,19254
981.806,1.304922,400190,19831
985.583,1.307286,406088,20014
989.355,1.299700,410162,20571
993.124,1.303147,412868,20543
996.888,1.301789,414263,20677
1000.65,1.309768,415476,20360
1004.4,1.307919,415479,20447
1009.41,1.295363,414358,20990
1013.15,1.300193,412923,20686
1016.89,1.302771,411526,20494
1020.63,1.305283,409066,20254
1024.36,1.311683,406777,19846
1028.09,1.312550,404427,19692
1031.82,1.307904,401911,19780
1036.78,1.315021,398410,19289
1040.49,1.303673,396204,19690
1044.2,1.308716,394236,19366
1047.91,1.303677,392042,19483
1051.61,1.303491,389823,19381
1055.31,1.309974,388234,19016
1059,1.313971,387599,18811
1063.92,1.308379,386688,19010
1067.61,1.314444,386598,18742
1071.29,1.307829,387377,19068
1074.96,1.314904,388536,18816
1078.63,1.313065,389855,18960
1082.3,1.315517,391215,18919
1085.96,1.300539,393215,19683
1090.84,1.310458,396270,19388
1094.49,1.308478,398760,19599
1098.14,1.312584,400987,19523
1101.79,1.315228,403477,19525
1105.43,1.309383,406116,19919
1109.06,1.313896,407701,19790
1112.7,1.312953,409859,19938
1117.53,1.317023,412494,19879
1121.15,1.320630,414909,19830
1124.77,1.319103,416559,19979
1128.38,1.311099,418532,20447
1131.99,1.311619,419956,20492
1135.6,1.321176,421946,20141
1139.2,1.309807,423881,20770
1143.99,1.313548,426786,20733
1147.58,1.315407,428617,20733
1151.17,1.318174,431169,20724
1154.75,1.315014,433579,20992
1158.33,1.318565,436264,20950
1161.91,1.324344,439132,20809
1165.48,1.318527,442389,21246
1169.04,1.316067,446101,21546
1173.79,1.314012,451929,21931
1177.34,1.313773,456026,22142
1180.9,1.324001,461306,21877
1184.44,1.311193,467657,22842
1187.99,1.318368,473969,22771
1191.52,1.328600,479856,22517
1195.06,1.318942,487372,23384
1199.76,1.316665,497347,23988
1203.29,1.319512,504311,24165
1206.81,1.317987,511507,24596
1210.33,1.321236,519078,24774
1213.84,1.320975,527163,25175
1217.35,1.321272,534208,25494
1220.85,1.321659,540472,25770
1225.51,1.318620,549929,26405
1229.01,1.328047,556888,26165
1232.5,1.327926,562180,26421
1235.98,1.323432,567975,26971
1239.46,1.316954,574815,27706
1242.94,1.318100,582782,28016
1246.41,1.326006,591476,27921
1251.03,1.327104,604016,28441
1254.5,1.326419,612289,28876
1257.96,1.329186,619125,29013
1261.41,1.329650,624551,29236
1264.86,1.324225,629900,29857
1268.31,1.329452,634345,29708
1271.75,1.324328,638574,30261
1276.33,1.324870,642499,30409
1279.76,1.326111,645905,30483
1283.19,1.327794,648307,30478
1286.61,1.333910,650446,30151
1290.03,1.328160,652132,30632
1293.44,1.325234,653907,30923
1296.85,1.331130,655963,30602
1301.39,1.331734,657349,30624
1304.8,1.327245,657558,30952
1308.19,1.332830,658515,30601
1311.58,1.330022,658804,30813
1314.97,1.331613,659011,30710
1318.36,1.331748,658272,30666
1321.73,1.330141,658022,30768
1326.23,1.335638,657870,30374
1329.6,1.332041,656482,30562
1332.97,1.331622,654926,30519
1336.33,1.332909,653727,30373
1339.69,1.330877,652497,30458
1343.04,1.334375,649913,30094
1346.39,1.334726,647671,29966
1349.73,1.326029,645338,30462
1354.18,1.324675,641175,30360
1357.52,1.328042,638376,29994
1360.85,1.329385,635805,29781
1364.17,1.327252,633413,29815
1367.49,1.330977,631026,29449
1370.81,1.328570,628050,29473
1374.12,1.315940,625034,30197
1378.54,1.329481,620272,29047
1381.84,1.322054,616892,29387
1385.14,1.329272,613613,28749
1388.43,1.334168,611526,28330
1391.72,1.320003,610663,29228
1395.01,1.329202,610634,28614
1398.29,1.326679,611700,28831
1402.66,1.329703,614051,28741
1405.93,1.333829,616268,28572
1409.2,1.327609,617795,29056
1412.46,1.335827,618872,28561
1415.72,1.330450,619795,28960
1418.98,1.332382,620495,28864
1422.23,1.330769,621087,28999
1426.56,1.333268,621375,28846
1429.8,1.334854,621616,28752
1433.04,1.330824,622129,29044
1436.27,1.335971,621526,28674
1439.5,1.331777,621113,28933
1442.72,1.328294,620921,29157
1445.94,1.332119,620270,28871
1450.23,1.339392,618860,28327
1453.44,1.335504,617697,28528
1456.64,1.335379,616264,28470
1459.85,1.335984,614413,28345
1463.04,1.330922,612307,28579
1466.24,1.336847,610032,28087
1469.43,1.329140,607345,28464
1473.67,1.339017,603789,27661
1476.85,1.339984,601175,27480
1480.02,1.338855,597737,27394
1483.19,1.336227,594479,27410
1486.36,1.336742,591232,27228
1489.52,1.340664,587853,26829
1492.68,1.342419,583875,26540
1496.89,1.330981,578062,26977
1500.03,1.336098,574159,26481
1503.18,1.357232,570285,25053
1506.32,1.336165,565444,26075
1509.45,1.333273,560571,26023
1512.58,1.331769,555821,25892
1515.71,1.334247,550344,25491
1519.87,1.332019,543983,25326
1522.99,1.337613,538764,24762
1526.1,1.338834,533692,24460
1529.21,1.342414,527902,23996
1532.32,1.331880,521886,24305
1535.42,1.334376,515888,23888
1538.51,1.337972,509987,23420
1541.6,1.340742,503936,22995
1545.72,1.340440,494694,22589
1548.8,1.334974,488378,22583
1551.88,1.332338,481832,22416
1554.95,1.335170,474989,21954
1558.02,1.338245,467818,21470
1561.08,1.333886,460730,21358
1564.15,1.335289,454170,20986
1568.22,1.332998,444181,20633
1571.27,1.324521,436947,20697
1574.32,1.332076,429598,19998
1577.36,1.337305,422039,19411
1580.4,1.338183,414375,19020
1583.43,1.336645,406354,18718
1586.46,1.331309,398475,18582
1590.49,1.335623,388982,17960
1593.51,1.331663,380708,17739
1596.53,1.332492,372727,17334
1599.54,1.328505,365060,17134
1602.55,1.338114,357543,16414
1605.55,1.319504,349495,16747
1608.55,1.330571,341154,15936
1612.54,1.325430,330877,15640
1615.53,1.320173,322904,15449
1618.51,1.321280,315116,15038
1621.49,1.319478,307217,14722
1624.47,1.328878,299481,14044
1627.44,1.332554,292112,13583
1630.41,1.323584,284245,13493
1634.36,1.321866,274079,13062
1637.32,1.323187,266916,12682
1640.27,1.324844,259612,12288
1643.22,1.313352,251804,12238
1646.16,1.317195,244348,11771
1649.1,1.313279,236703,11506
1652.04,1.315646,228171,11031
1655.95,1.304528,215408,10684
1658.88,1.292338,204937,10454
1661.8,1.300077,193395,9691
1664.72,1.292104,179728,9173
1667.63,1.288686,163642,8418
1670.54,1.270964,146312,7840
1673.44,1.278791,128451,6760
1677.31,1.250227,105080,5906
1680.21,1.268686,88906,4789
1683.1,1.260988,75033,4114
1685.99,1.221758,63520,3812
1688.87,1.263665,53714,2927
1691.75,1.291927,45653,2331
1694.62,1.282745,39137,2041
1697.49,1.220257,33776,2034
1701.31,1.274352,28175,1498