File: ML/samples/unknown/Column 1_078668_20241121_171625.csv
Method:,Column 1,,
Host Date-Time:,21/11/24 @ 17:16:25,,
Header Version:,1,,
System Temp (C):,34.51,,
Detector Temp (C):,35.52,,
Humidity (%):,1.51,,
Lamp PD:,3803,,
Shift Vector Coefficients:,-10.5391,0.0761263,-0.000134223,,
Pixel to Wavelength Coefficients:,1775.68,-0.916766,-0.000235065,,
Serial Number:,5510004,,
Scan Config Name:,Column 1,,
Scan Config Type:,Slew,,
Section 1,,
Start wavelength (nm):,900,,
End wavelength (nm):,1700,,
Pattern Pixel Width (nm):,   7.03,,,,
Exposure (ms):,  0.635,,,,
Digital Resolution:,228,,
Num Repeats:,6,,
PGA Gain:,64,,
Total Measurement Time in sec:,  2.727,,
Wavelength (nm),Absorbance (AU),Reference Signal (unitless),Sample Signal (unitless)
901.51,1.329250,108485,5083
905.376,1.331143,121306,5659
909.237,1.318939,131909,6329
913.095,1.342062,143299,6519
916.948,1.304703,156982,7783
922.079,1.337510,179937,8272
925.923,1.333173,200504,9310
929.762,1.314420,222660,10795
933.597,1.329266,244426,11452
937.427,1.335804,263972,12183
941.254,1.320965,281845,13460
945.076,1.320711,297271,14205
950.165,1.321809,315605,15043
953.978,1.327969,328029,15415
957.786,1.315280,340470,16474
961.59,1.313176,352317,17130
965.389,1.302847,363056,18077
969.185,1.314291,373162,18097
972.976,1.303342,382632,19030
976.763,1.314151,391202,18978
981.806,1.308396,400190,19673
985.583,1.304971,406088,20121
989.355,1.307239,410162,20217
993.124,1.304715,412868,20469
996.888,1.304105,414263,20567
1000.65,1.299711,415476,20837
1004.4,1.306753,415479,20502
1009.41,1.311101,414358,20243
1013.15,1.308330,412923,20302
1016.89,1.309670,411526,20171
1020.63,1.303357,409066,20344
1024.36,1.315045,406777,19693
1028.09,1.313102,404427,19667
1031.82,1.306741,401911,19833
1036.78,1.308185,398410,19595
1040.49,1.308397,396204,19477
1044.2,1.314996,394236,19088
1047.91,1.316274,392042,18926
1051.61,1.301368,389823,19476
1055.31,1.300889,388234,19418
1059,1.302870,387599,19298
1063.92,1.314614,386688,18739
1067.61,1.314884,386598,18723
1071.29,1.311764,387377,18896
1074.96,1.315620,388536,18785
1078.63,1.312012,389855,19006
1082.3,1.309725,391215,19173
1085.96,1.308039,393215,19346
1090.84,1.315505,396270,19164
1094.49,1.302951,398760,19850
1098.14,1.310896,400987,19599
1101.79,1.316118,403477,19485
1105.43,1.311065,406116,19842
1109.06,1.317134,407701,19643
1112.7,1.311996,409859,19982
1117.53,1.320621,412494,19715
1121.15,1.323487,414909,19700
1124.77,1.313187,416559,20253
1128.38,1.316227,418532,20207
1131.99,1.313829,419956,20388
1135.6,1.317077,421946,20332
1139.2,1.322172,423881,20187
1143.99,1.317441,426786,20548
1147.58,1.322823,428617,20382
1151.17,1.312159,431169,21013
1154.75,1.319381,433579,20782
1158.33,1.326452,436264,20573
1161.91,1.317100,439132,21159
1165.48,1.312619,442389,21537
1169.04,1.318573,446101,21422
1173.79,1.314309,451929,21916
1177.34,1.312402,456026,22212
1180.9,1.313896,461306,22392
1184.44,1.317398,467657,22518
1187.99,1.316047,473969,22893
1191.52,1.312527,479856,23366
1195.06,1.316516,487372,23515
1199.76,1.320137,497347,23797
1203.29,1.316646,504311,24325
1206.81,1.317176,511507,24642
1210.33,1.316130,519078,25067
1213.84,1.310376,527163,25797
1217.35,1.321409,534208,25486
1220.85,1.323483,540472,25662
1225.51,1.323783,549929,26093
1229.01,1.322178,556888,26521
1232.5,1.321611,562180,26808
1235.98,1.319521,567975,27215
1239.46,1.324672,574815,27218
1242.94,1.322838,582782,27712
1246.41,1.317184,591476,28494
1251.03,1.326890,604016,28455
1254.5,1.327609,612289,28797
1257.96,1.321103,619125,29558
1261.41,1.333589,624551,28972
1264.86,1.328273,629900,29580
1268.31,1.325784,634345,29960
1271.75,1.331141,638574,29790
1276.33,1.325771,642499,30346
1279.76,1.324618,645905,30588
1283.19,1.325265,648307,30656
1286.61,1.324224,650446,30831
1290.03,1.323549,652132,30959
1293.44,1.332328,653907,30422
1296.85,1.325378,655963,31010
1301.39,1.328513,657349,30852
1304.8,1.327400,657558,30941
1308.19,1.330805,658515,30744
1311.58,1.325912,658804,31106
1314.97,1.330949,659011,30757
1318.36,1.328292,658272,30911
1321.73,1.327832,658022,30932
1326.23,1.327985,657870,30914
1329.6,1.327292,656482,30898
1332.97,1.327881,654926,30783
1336.33,1.331025,653727,30505
1339.69,1.333896,652497,30247
1343.04,1.324121,649913,30813
1346.39,1.330557,647671,30255
1349.73,1.327042,645338,30391
1354.18,1.325692,641175,30289
1357.52,1.324653,638376,30229
1360.85,1.325263,635805,30065
1364.17,1.326874,633413,29841
1367.49,1.323955,631026,29929
1370.81,1.325018,628050,29715
1374.12,1.328044,625034,29367
1378.54,1.329690,620272,29033
1381.84,1.324722,616892,29207
1385.14,1.331772,613613,28584
1388.43,1.329760,611526,28619
1391.72,1.324648,610663,28917
1395.01,1.324733,610634,28910
1398.29,1.323632,611700,29034
1402.66,1.327337,614051,28898
1405.93,1.328992,616268,28892
1409.2,1.325595,617795,29191
1412.46,1.327559,618872,29110
1415.72,1.327982,619795,29125
1418.98,1.332412,620495,28862
1422.23,1.328395,621087,29158
1426.56,1.332080,621375,28925
1429.8,1.327515,621616,29242
1433.04,1.333945,622129,28836
1436.27,1.333359,621526,28847
1439.5,1.326096,621113,29314
1442.72,1.332906,620921,28849
1445.94,1.327302,620270,29193
1450.23,1.327222,618860,29132
1453.44,1.332364,617697,28735
1456.64,1.334663,616264,28517
1459.85,1.337012,614413,28278
1463.04,1.335306,612307,28292
1466.24,1.332034,610032,28400
1469.43,1.334250,607345,28131
1473.67,1.330313,603789,28221
1476.85,1.332091,601175,27984
1480.02,1.325738,597737,28234
1483.19,1.331453,594479,27713
1486.36,1.328855,591232,27727
1489.52,1.331835,587853,27380
1492.68,1.330523,583875,27277
1496.89,1.337436,578062,26579
1500.03,1.341760,574159,26138
1503.18,1.334422,570285,26404
1506.32,1.336715,565444,26042
1509.45,1.341971,560571,25507
1512.58,1.339111,555821,25458
1515.71,1.329756,550344,25756
1519.87,1.331642,543983,25348
1522.99,1.333441,538764,25001
1526.1,1.337735,533692,24522
1529.21,1.334488,527902,24438
1532.32,1.333904,521886,24192
1535.42,1.332308,515888,24002
1538.51,1.331165,509987,23790
1541.6,1.335057,503936,23298
1545.72,1.336364,494694,22802
1548.8,1.336574,488378,22500
1551.88,1.335898,481832,22233
1554.95,1.336279,474989,21898
1558.02,1.332997,467818,21731
1561.08,1.337459,460730,21183
1564.15,1.336138,454170,20945
1568.22,1.332850,444181,20640
1571.27,1.333789,436947,20260
1574.32,1.332684,429598,19970
1577.36,1.335518,422039,19491
1580.4,1.329973,414375,19383
1583.43,1.330631,406354,18979
1586.46,1.341285,398475,18160
1590.49,1.333260,388982,18058
1593.51,1.335474,380708,17584
1596.53,1.327262,372727,17544
1599.54,1.324444,365060,17295
1602.55,1.324620,357543,16932
1605.55,1.323647,349495,16588
1608.55,1.316283,341154,16469
1612.54,1.318461,330877,15893
1615.53,1.330989,322904,15069
1618.51,1.321338,315116,15036
1621.49,1.319567,307217,14719
1624.47,1.318399,299481,14387
1627.44,1.315592,292112,14124
1630.41,1.314601,284245,13775
1634.36,1.327286,274079,12900
1637.32,1.308143,266916,13129
1640.27,1.314161,259612,12594
1643.22,1.315915,251804,12166
1646.16,1.312754,244348,11892
1649.1,1.314527,236703,11473
1652.04,1.311219,228171,11144
1655.95,1.289939,215408,11049
1658.88,1.298151,204937,10315
1661.8,1.287445,193395,9977
1664.72,1.283943,179728,9347
1667.63,1.260087,163642,8991
1670.54,1.247879,146312,8268
1673.44,1.210946,128451,7903
1677.31,1.195445,105080,6700
1680.21,1.188735,88906,5757
1683.1,1.178721,75033,4972
1685.99,1.139681,63520,4605
1688.87,1.173906,53714,3599
1691.75,1.230202,45653,2687
1694.62,1.195343,39137,2496
1697.49,1.131364,33776,2496
1701.31,1.135154,28175,2064