File: ML/samples/unknown/Column 1_078121_20241121_164629.csv
Method:,Column 1,,
Host Date-Time:,21/11/24 @ 16:46:29,,
Header Version:,1,,
System Temp (C):,32.72,,
Detector Temp (C):,28.21,,
Humidity (%):,3.86,,
Lamp PD:,3806,,
Shift Vector Coefficients:,-10.5391,0.0761263,-0.000134223,,
Pixel to Wavelength Coefficients:,1775.68,-0.916766,-0.000235065,,
Serial Number:,5510004,,
Scan Config Name:,Column 1,,
Scan Config Type:,Slew,,
Section 1,,
Start wavelength (nm):,900,,
End wavelength (nm):,1700,,
Pattern Pixel Width (nm):,   7.03,,,,
Exposure (ms):,  0.635,,,,
Digital Resolution:,228,,
Num Repeats:,6,,
PGA Gain:,64,,
Total Measurement Time in sec:,  2.722,,
Wavelength (nm),Absorbance (AU),Reference Signal (unitless),Sample Signal (unitless)
901.51,1.315873,108485,5242
905.376,1.323761,121306,5756
909.237,1.308231,131909,6487
913.095,1.302727,143299,7137
916.948,1.318018,156982,7548
922.079,1.336356,179937,8294
925.923,1.328257,200504,9416
929.762,1.312533,222660,10842
933.597,1.331204,244426,11401
937.427,1.321843,263972,12581
941.254,1.316727,281845,13592
945.076,1.321905,297271,14166
950.165,1.316615,315605,15224
953.978,1.312771,328029,15964
957.786,1.322859,340470,16189
961.59,1.318174,352317,16934
965.389,1.302007,363056,18112
969.185,1.308569,373162,18337
972.976,1.307585,382632,18845
976.763,1.310573,391202,19135
981.806,1.311386,400190,19538
985.583,1.306874,406088,20033
989.355,1.314124,410162,19899
993.124,1.307652,412868,20331
996.888,1.309181,414263,20328
1000.65,1.313668,415476,20178
1004.4,1.321862,415479,19801
1009.41,1.311809,414358,20210
1013.15,1.314015,412923,20038
1016.89,1.311893,411526,20068
1020.63,1.313311,409066,19883
1024.36,1.321622,406777,19397
1028.09,1.311537,404427,19738
1031.82,1.311697,401911,19608
1036.78,1.318683,398410,19127
1040.49,1.314980,396204,19184
1044.2,1.315497,394236,19066
1047.91,1.314899,392042,18986
1051.61,1.316432,389823,18812
1055.31,1.319394,388234,18608
1059,1.311875,387599,18902
1063.92,1.309477,386688,18962
1067.61,1.318892,386598,18551
1071.29,1.308239,387377,19050
1074.96,1.308375,388536,19101
1078.63,1.316560,389855,18808
1082.3,1.320017,391215,18724
1085.96,1.322974,393215,18692
1090.84,1.325129,396270,18744
1094.49,1.323492,398760,18933
1098.14,1.313742,400987,19471
1101.79,1.314517,403477,19557
1105.43,1.308881,406116,19942
1109.06,1.320887,407701,19474
1112.7,1.315903,409859,19803
1117.53,1.317395,412494,19862
1121.15,1.318315,414909,19936
1124.77,1.332412,416559,19376
1128.38,1.329894,418532,19581
1131.99,1.325947,419956,19827
1135.6,1.321327,421946,20134
1139.2,1.326409,423881,19991
1143.99,1.318139,426786,20515
1147.58,1.332366,428617,19939
1151.17,1.317797,431169,20742
1154.75,1.331910,433579,20191
1158.33,1.323213,436264,20727
1161.91,1.317428,439132,21143
1165.48,1.323668,442389,20996
1169.04,1.320646,446101,21320
1173.79,1.321119,451929,21575
1177.34,1.323131,456026,21670
1180.9,1.320699,461306,22044
1184.44,1.325123,467657,22121
1187.99,1.325754,473969,22387
1191.52,1.321712,479856,22877
1195.06,1.322672,487372,23184
1199.76,1.316376,497347,24004
1203.29,1.330671,504311,23552
1206.81,1.323174,511507,24304
1210.33,1.331238,519078,24210
1213.84,1.326164,527163,24876
1217.35,1.326775,534208,25173
1220.85,1.329069,540472,25334
1225.51,1.325016,549929,26019
1229.01,1.320886,556888,26600
1232.5,1.329953,562180,26298
1235.98,1.325466,567975,26845
1239.46,1.326879,574815,27080
1242.94,1.321493,582782,27798
1246.41,1.328017,591476,27792
1251.03,1.327929,604016,28387
1254.5,1.326029,612289,28902
1257.96,1.331016,619125,28891
1261.41,1.327708,624551,29367
1264.86,1.327027,629900,29665
1268.31,1.326320,634345,29923
1271.75,1.332309,638574,29710
1276.33,1.331258,642499,29965
1279.76,1.332035,645905,30070
1283.19,1.336429,648307,29878
1286.61,1.328029,650446,30562
1290.03,1.332922,652132,30298
1293.44,1.333558,653907,30336
1296.85,1.335007,655963,30330
1301.39,1.331054,657349,30672
1304.8,1.341305,657558,29966
1308.19,1.340057,658515,30096
1311.58,1.334684,658804,30484
1314.97,1.336348,659011,30377
1318.36,1.341009,658272,30019
1321.73,1.336382,658022,30329
1326.23,1.341526,657870,29965
1329.6,1.328080,656482,30842
1332.97,1.335481,654926,30249
1336.33,1.331609,653727,30464
1339.69,1.329184,652497,30577
1343.04,1.331757,649913,30276
1346.39,1.331520,647671,30188
1349.73,1.330615,645338,30142
1354.18,1.332236,641175,29836
1357.52,1.330103,638376,29852
1360.85,1.335361,635805,29374
1364.17,1.333709,633413,29375
1367.49,1.329740,631026,29533
1370.81,1.331557,628050,29271
1374.12,1.335171,625034,28889
1378.54,1.331144,620272,28936
1381.84,1.335197,616892,28511
1385.14,1.326426,613613,28938
1388.43,1.335473,611526,28245
1391.72,1.334261,610663,28284
1395.01,1.329628,610634,28586
1398.29,1.329444,611700,28648
1402.66,1.332553,614051,28553
1405.93,1.337876,616268,28307
1409.2,1.335162,617795,28555
1412.46,1.338084,618872,28413
1415.72,1.334775,619795,28673
1418.98,1.338503,620495,28460
1422.23,1.339972,621087,28391
1426.56,1.336897,621375,28606
1429.8,1.338342,621616,28522
1433.04,1.336589,622129,28661
1436.27,1.334655,621526,28761
1439.5,1.336987,621113,28588
1442.72,1.335639,620921,28668
1445.94,1.335547,620270,28644
1450.23,1.327908,618860,29086
1453.44,1.337182,617697,28418
1456.64,1.342950,616264,27978
1459.85,1.338951,614413,28152
1463.04,1.341614,612307,27884
1466.24,1.347951,610032,27378
1469.43,1.344008,607345,27506
1473.67,1.334037,603789,27980
1476.85,1.337935,601175,27610
1480.02,1.342596,597737,27159
1483.19,1.329811,594479,27818
1486.36,1.338228,591232,27135
1489.52,1.338339,587853,26973
1492.68,1.342566,583875,26531
1496.89,1.340173,578062,26412
1500.03,1.339704,574159,26262
1503.18,1.338770,570285,26141
1506.32,1.342795,565444,25680
1509.45,1.340052,560571,25620
1512.58,1.341986,555821,25290
1515.71,1.338029,550344,25270
1519.87,1.343240,543983,24680
1522.99,1.341382,538764,24548
1526.1,1.341917,533692,24287
1529.21,1.342994,527902,23964
1532.32,1.335649,521886,24095
1535.42,1.342950,515888,23421
1538.51,1.340520,509987,23283
1541.6,1.331437,503936,23493
1545.72,1.330856,494694,23093
1548.8,1.343559,488378,22141
1551.88,1.338366,481832,22107
1554.95,1.333551,474989,22036
1558.02,1.334639,467818,21649
1561.08,1.343030,460730,20913
1564.15,1.340514,454170,20735
1568.22,1.336378,444181,20473
1571.27,1.343303,436947,19821
1574.32,1.333294,429598,19942
1577.36,1.335318,422039,19500
1580.4,1.329793,414375,19391
1583.43,1.332512,406354,18897
1586.46,1.333135,398475,18504
1590.49,1.326270,388982,18351
1593.51,1.334217,380708,17635
1596.53,1.346004,372727,16803
1599.54,1.324871,365060,17278
1602.55,1.340928,357543,16308
1605.55,1.329658,349495,16360
1608.55,1.342255,341154,15513
1612.54,1.329055,330877,15510
1615.53,1.316088,322904,15595
1618.51,1.330651,315116,14717
1621.49,1.324612,307217,14549
1624.47,1.333167,299481,13906
1627.44,1.333066,292112,13567
1630.41,1.334932,284245,13145
1634.36,1.336920,274079,12617
1637.32,1.322297,266916,12708
1640.27,1.335650,259612,11986
1643.22,1.319283,251804,12072
1646.16,1.319600,244348,11706
1649.1,1.338214,236703,10864
1652.04,1.319442,228171,10935
1655.95,1.312197,215408,10497
1658.88,1.337523,204937,9421
1661.8,1.322563,193395,9202
1664.72,1.331527,179728,8377
1667.63,1.310968,163642,7997
1670.54,1.299998,146312,7333
1673.44,1.281239,128451,6722
1677.31,1.273642,105080,5596
1680.21,1.293408,88906,4524
1683.1,1.282742,75033,3913
1685.99,1.303361,63520,3159
1688.87,1.276158,53714,2844
1691.75,1.268887,45653,2458
1694.62,1.254530,39137,2178
1697.49,1.305632,33776,1671
1701.31,1.250932,28175,1581