File: ML/samples/unknown/Column 1_078803_20241121_172256.csv
Method:,Column 1,,
Host Date-Time:,21/11/24 @ 17:22:56,,
Header Version:,1,,
System Temp (C):,36.72,,
Detector Temp (C):,35.29,,
Humidity (%):,0.53,,
Lamp PD:,3797,,
Shift Vector Coefficients:,-10.5391,0.0761263,-0.000134223,,
Pixel to Wavelength Coefficients:,1775.68,-0.916766,-0.000235065,,
Serial Number:,5510004,,
Scan Config Name:,Column 1,,
Scan Config Type:,Slew,,
Section 1,,
Start wavelength (nm):,900,,
End wavelength (nm):,1700,,
Pattern Pixel Width (nm):,   7.03,,,,
Exposure (ms):,  0.635,,,,
Digital Resolution:,228,,
Num Repeats:,6,,
PGA Gain:,64,,
Total Measurement Time in sec:,  2.725,,
Wavelength (nm),Absorbance (AU),Reference Signal (unitless),Sample Signal (unitless)
901.51,1.307585,108485,5343
905.376,1.314136,121306,5885
909.237,1.297845,131909,6644
913.095,1.295606,143299,7255
916.948,1.317328,156982,7560
922.079,1.316751,179937,8677
925.923,1.348557,200504,8986
929.762,1.307832,222660,10960
933.597,1.333841,244426,11332
937.427,1.303723,263972,13117
941.254,1.308310,281845,13858
945.076,1.319551,297271,14243
950.165,1.307274,315605,15555
953.978,1.306880,328029,16182
957.786,1.305247,340470,16859
961.59,1.298764,352317,17708
965.389,1.304918,363056,17991
969.185,1.313380,373162,18135
972.976,1.301498,382632,19111
976.763,1.306192,391202,19329
981.806,1.296635,400190,20213
985.583,1.309723,406088,19902
989.355,1.295289,410162,20781
993.124,1.300492,412868,20669
996.888,1.302461,414263,20645
1000.65,1.299377,415476,20853
1004.4,1.304640,415479,20602
1009.41,1.302077,414358,20668
1013.15,1.299060,412923,20740
1016.89,1.301691,411526,20545
1020.63,1.309246,409066,20070
1024.36,1.307567,406777,20035
1028.09,1.301768,404427,20187
1031.82,1.301669,401911,20066
1036.78,1.294077,398410,20242
1040.49,1.297802,396204,19958
1044.2,1.297952,394236,19852
1047.91,1.288110,392042,20194
1051.61,1.312686,389823,18975
1055.31,1.294275,388234,19716
1059,1.290885,387599,19838
1063.92,1.304920,386688,19162
1067.61,1.302603,386598,19260
1071.29,1.300310,387377,19401
1074.96,1.309833,388536,19037
1078.63,1.308938,389855,19141
1082.3,1.313068,391215,19026
1085.96,1.305666,393215,19452
1090.84,1.305757,396270,19599
1094.49,1.310165,398760,19523
1098.14,1.306531,400987,19797
1101.79,1.316922,403477,19449
1105.43,1.316860,406116,19579
1109.06,1.306239,407701,20142
1112.7,1.309568,409859,20094
1117.53,1.304682,412494,20452
1121.15,1.309602,414909,20340
1124.77,1.305873,416559,20597
1128.38,1.305632,418532,20706
1131.99,1.319144,419956,20140
1135.6,1.312678,421946,20539
1139.2,1.315787,423881,20486
1143.99,1.308881,426786,20957
1147.58,1.319046,428617,20560
1151.17,1.311643,431169,21038
1154.75,1.309607,433579,21255
1158.33,1.308342,436264,21449
1161.91,1.308745,439132,21570
1165.48,1.304746,442389,21931
1169.04,1.312813,446101,21708
1173.79,1.310305,451929,22119
1177.34,1.298074,456026,22957
1180.9,1.317304,461306,22217
1184.44,1.307973,467657,23012
1187.99,1.309832,473969,23223
1191.52,1.313271,479856,23326
1195.06,1.306908,487372,24041
1199.76,1.310357,497347,24339
1203.29,1.311481,504311,24616
1206.81,1.313683,511507,24841
1210.33,1.315645,519078,25095
1213.84,1.315354,527163,25503
1217.35,1.316697,534208,25764
1220.85,1.322198,540472,25738
1225.51,1.318209,549929,26430
1229.01,1.314935,556888,26967
1232.5,1.312299,562180,27389
1235.98,1.321104,567975,27116
1239.46,1.313193,574815,27947
1242.94,1.319202,582782,27945
1246.41,1.315784,591476,28586
1251.03,1.319730,604016,28928
1254.5,1.322631,612289,29129
1257.96,1.322369,619125,29472
1261.41,1.317897,624551,30038
1264.86,1.320056,629900,30145
1268.31,1.323110,634345,30145
1271.75,1.322023,638574,30422
1276.33,1.325042,642499,30397
1279.76,1.323625,645905,30658
1283.19,1.325393,648307,30647
1286.61,1.321555,650446,31021
1290.03,1.320738,652132,31160
1293.44,1.322100,653907,31147
1296.85,1.322433,655963,31221
1301.39,1.325497,657349,31067
1304.8,1.328918,657558,30833
1308.19,1.323105,658515,31294
1311.58,1.327969,658804,30959
1314.97,1.324668,659011,31205
1318.36,1.323667,658272,31242
1321.73,1.324629,658022,31161
1326.23,1.329251,657870,30824
1329.6,1.321346,656482,31324
1332.97,1.325335,654926,30964
1336.33,1.325171,653727,30919
1339.69,1.324508,652497,30908
1343.04,1.325788,649913,30695
1346.39,1.322494,647671,30822
1349.73,1.326228,645338,30448
1354.18,1.323332,641175,30454
1357.52,1.328883,638376,29936
1360.85,1.318085,635805,30566
1364.17,1.321781,633413,30193
1367.49,1.317660,631026,30366
1370.81,1.326013,628050,29647
1374.12,1.321804,625034,29792
1378.54,1.323423,620272,29455
1381.84,1.318477,616892,29630
1385.14,1.320198,613613,29356
1388.43,1.323882,611526,29009
1391.72,1.319512,610663,29261
1395.01,1.320830,610634,29171
1398.29,1.320933,611700,29215
1402.66,1.324028,614051,29119
1405.93,1.324759,616268,29175
1409.2,1.328791,617795,28977
1412.46,1.322427,618872,29456
1415.72,1.324433,619795,29364
1418.98,1.326642,620495,29248
1422.23,1.326656,621087,29275
1426.56,1.329983,621375,29065
1429.8,1.330451,621616,29045
1433.04,1.325666,622129,29391
1436.27,1.322505,621526,29577
1439.5,1.327743,621113,29203
1442.72,1.324807,620921,29392
1445.94,1.324352,620270,29392
1450.23,1.325541,618860,29245
1453.44,1.325809,617697,29172
1456.64,1.331703,616264,28712
1459.85,1.331351,614413,28649
1463.04,1.324511,612307,29004
1466.24,1.331637,610032,28426
1469.43,1.331281,607345,28324
1473.67,1.334146,603789,27973
1476.85,1.331223,601175,28040
1480.02,1.334627,597737,27662
1483.19,1.337513,594479,27329
1486.36,1.324259,591232,28022
1489.52,1.334684,587853,27201
1492.68,1.332822,583875,27133
1496.89,1.329438,578062,27073
1500.03,1.327443,574159,27014
1503.18,1.330069,570285,26670
1506.32,1.325830,565444,26703
1509.45,1.333941,560571,25983
1512.58,1.326335,555821,26218
1515.71,1.346638,550344,24774
1519.87,1.326583,543983,25645
1522.99,1.329981,538764,25201
1526.1,1.328240,533692,25064
1529.21,1.326424,527902,24896
1532.32,1.329066,521886,24463
1535.42,1.328812,515888,24196
1538.51,1.330380,509987,23833
1541.6,1.325798,503936,23800
1545.72,1.332854,494694,22987
1548.8,1.326972,488378,23003
1551.88,1.325247,481832,22785
1554.95,1.337431,474989,21840
1558.02,1.330665,467818,21848
1561.08,1.328611,460730,21619
1564.15,1.330084,454170,21239
1568.22,1.332661,444181,20649
1571.27,1.323704,436947,20736
1574.32,1.332510,429598,19978
1577.36,1.333362,422039,19588
1580.4,1.326580,414375,19535
1583.43,1.317580,406354,19558
1586.46,1.324468,398475,18877
1590.49,1.332347,388982,18096
1593.51,1.327157,380708,17924
1596.53,1.316625,372727,17979
1599.54,1.314931,365060,17678
1602.55,1.314254,357543,17341
1605.55,1.321557,349495,16668
1608.55,1.324670,341154,16154
1612.54,1.315167,330877,16014
1615.53,1.318742,322904,15500
1618.51,1.316798,315116,15194
1621.49,1.313502,307217,14926
1624.47,1.302804,299481,14913
1627.44,1.315069,292112,14141
1630.41,1.303735,284245,14124
1634.36,1.311257,274079,13385
1637.32,1.313167,266916,12978
1640.27,1.315681,259612,12550
1643.22,1.309783,251804,12339
1646.16,1.300121,244348,12243
1649.1,1.295457,236703,11988
1652.04,1.303801,228171,11336
1655.95,1.299356,215408,10812
1658.88,1.280576,204937,10741
1661.8,1.285404,193395,10024
1664.72,1.260651,179728,9862
1667.63,1.259025,163642,9013
1670.54,1.261051,146312,8021
1673.44,1.199235,128451,8119
1677.31,1.182797,105080,6898
1680.21,1.153468,88906,6244
1683.1,1.152372,75033,5283
1685.99,1.133036,63520,4676
1688.87,1.109119,53714,4178
1691.75,1.139248,45653,3313
1694.62,1.131089,39137,2894
1697.49,1.123946,33776,2539
1701.31,1.093647,28175,2271