File: ML/samples/unknown/Column 1_078418_20241121_170142.csv
Method:,Column 1,,
Host Date-Time:,21/11/24 @ 17:1:42,,
Header Version:,1,,
System Temp (C):,34.75,,
Detector Temp (C):,33.73,,
Humidity (%):,2.16,,
Lamp PD:,3801,,
Shift Vector Coefficients:,-10.5391,0.0761263,-0.000134223,,
Pixel to Wavelength Coefficients:,1775.68,-0.916766,-0.000235065,,
Serial Number:,5510004,,
Scan Config Name:,Column 1,,
Scan Config Type:,Slew,,
Section 1,,
Start wavelength (nm):,900,,
End wavelength (nm):,1700,,
Pattern Pixel Width (nm):,   7.03,,,,
Exposure (ms):,  0.635,,,,
Digital Resolution:,228,,
Num Repeats:,6,,
PGA Gain:,64,,
Total Measurement Time in sec:,  2.724,,
Wavelength (nm),Absorbance (AU),Reference Signal (unitless),Sample Signal (unitless)
901.51,1.296748,108485,5478
905.376,1.315170,121306,5871
909.237,1.299942,131909,6612
913.095,1.311518,143299,6994
916.948,1.327029,156982,7393
922.079,1.331203,179937,8393
925.923,1.338760,200504,9191
929.762,1.313817,222660,10810
933.597,1.326544,244426,11524
937.427,1.325587,263972,12473
941.254,1.307590,281845,13881
945.076,1.316059,297271,14358
950.165,1.313602,315605,15330
953.978,1.303964,328029,16291
957.786,1.308869,340470,16719
961.59,1.313176,352317,17130
965.389,1.306466,363056,17927
969.185,1.312184,373162,18185
972.976,1.300250,382632,19166
976.763,1.308399,391202,19231
981.806,1.299394,400190,20085
985.583,1.302281,406088,20246
989.355,1.302262,410162,20450
993.124,1.301502,412868,20621
996.888,1.303683,414263,20587
1000.65,1.303332,415476,20664
1004.4,1.309707,415479,20363
1009.41,1.308939,414358,20344
1013.15,1.304264,412923,20493
1016.89,1.311936,411526,20066
1020.63,1.314493,409066,19829
1024.36,1.306679,406777,20076
1028.09,1.307725,404427,19912
1031.82,1.302319,401911,20036
1036.78,1.294227,398410,20235
1040.49,1.307795,396204,19504
1044.2,1.301312,394236,19699
1047.91,1.303432,392042,19494
1051.61,1.312205,389823,18996
1055.31,1.313000,388234,18884
1059,1.303862,387599,19254
1063.92,1.303856,386688,19209
1067.61,1.315952,386598,18677
1071.29,1.316199,387377,18704
1074.96,1.311822,388536,18950
1078.63,1.317531,389855,18766
1082.3,1.313068,391215,19026
1085.96,1.317732,393215,18919
1090.84,1.317527,396270,19075
1094.49,1.309520,398760,19552
1098.14,1.315418,400987,19396
1101.79,1.315228,403477,19525
1105.43,1.325552,406116,19191
1109.06,1.311554,407701,19897
1112.7,1.316079,409859,19795
1117.53,1.316652,412494,19896
1121.15,1.321397,414909,19795
1124.77,1.318647,416559,20000
1128.38,1.326118,418532,19752
1131.99,1.313574,419956,20400
1135.6,1.322061,421946,20100
1139.2,1.316869,423881,20435
1143.99,1.317652,426786,20538
1147.58,1.314257,428617,20788
1151.17,1.315666,431169,20844
1154.75,1.322843,433579,20617
1158.33,1.320477,436264,20858
1161.91,1.317860,439132,21122
1165.48,1.316508,442389,21345
1169.04,1.315281,446101,21585
1173.79,1.315738,451929,21844
1177.34,1.319538,456026,21850
1180.9,1.317910,461306,22186
1184.44,1.315992,467657,22591
1187.99,1.327952,473969,22274
1191.52,1.302531,479856,23910
1195.06,1.317403,487372,23467
1199.76,1.324097,497347,23581
1203.29,1.318991,504311,24194
1206.81,1.327430,511507,24067
1210.33,1.318929,519078,24906
1213.84,1.325014,527163,24942
1217.35,1.325054,534208,25273
1220.85,1.328282,540472,25380
1225.51,1.322470,549929,26172
1229.01,1.326357,556888,26267
1232.5,1.320026,562180,26906
1235.98,1.325919,567975,26817
1239.46,1.326383,574815,27111
1242.94,1.318162,582782,28012
1246.41,1.324020,591476,28049
1251.03,1.320842,604016,28854
1254.5,1.330302,612289,28619
1257.96,1.323461,619125,29398
1261.41,1.322928,624551,29692
1264.86,1.327144,629900,29657
1268.31,1.321141,634345,30282
1271.75,1.328177,638574,29994
1276.33,1.330462,642499,30020
1279.76,1.327424,645905,30391
1283.19,1.327495,648307,30499
1286.61,1.328385,650446,30537
1290.03,1.326053,652132,30781
1293.44,1.328491,653907,30692
1296.85,1.332281,655963,30521
1301.39,1.330884,657349,30684
1304.8,1.329299,657558,30806
1308.19,1.328270,658515,30924
1311.58,1.330713,658804,30764
1314.97,1.329173,659011,30883
1318.36,1.333992,658272,30508
1321.73,1.333998,658022,30496
1326.23,1.327213,657870,30969
1329.6,1.330750,656482,30653
1332.97,1.341466,654926,29835
1336.33,1.327184,653727,30776
1339.69,1.328786,652497,30605
1343.04,1.334693,649913,30072
1346.39,1.330557,647671,30255
1349.73,1.333869,645338,29917
1354.18,1.334001,641175,29715
1357.52,1.327970,638376,29999
1360.85,1.334770,635805,29414
1364.17,1.320904,633413,30254
1367.49,1.326327,631026,29766
1370.81,1.327525,628050,29544
1374.12,1.327217,625034,29423
1378.54,1.330034,620272,29010
1381.84,1.327706,616892,29007
1385.14,1.328427,613613,28805
1388.43,1.329230,611526,28654
1391.72,1.323688,610663,28981
1395.01,1.329536,610634,28592
1398.29,1.326875,611700,28818
1402.66,1.334504,614051,28425
1405.93,1.328061,616268,28954
1409.2,1.330729,617795,28848
1412.46,1.337656,618872,28441
1415.72,1.334790,619795,28672
1418.98,1.330041,620495,29020
1422.23,1.334560,621087,28747
1426.56,1.334837,621375,28742
1429.8,1.334869,621616,28751
1433.04,1.335757,622129,28716
1436.27,1.339331,621526,28453
1439.5,1.332258,621113,28901
1442.72,1.334142,620921,28767
1445.94,1.336078,620270,28609
1450.23,1.335075,618860,28610
1453.44,1.339342,617697,28277
1456.64,1.342097,616264,28033
1459.85,1.337673,614413,28235
1463.04,1.339501,612307,28020
1466.24,1.336600,610032,28103
1469.43,1.333926,607345,28152
1473.67,1.336044,603789,27851
1476.85,1.338155,601175,27596
1480.02,1.345195,597737,26997
1483.19,1.339376,594479,27212
1486.36,1.336774,591232,27226
1489.52,1.340422,587853,26844
1492.68,1.345177,583875,26372
1496.89,1.345767,578062,26074
1500.03,1.339638,574159,26266
1503.18,1.339086,570285,26122
1506.32,1.344031,565444,25607
1509.45,1.341733,560571,25521
1512.58,1.334951,555821,25703
1515.71,1.339751,550344,25170
1519.87,1.339648,543983,24885
1522.99,1.340534,538764,24596
1526.1,1.335174,533692,24667
1529.21,1.345940,527902,23802
1532.32,1.341145,521886,23792
1535.42,1.337532,515888,23715
1538.51,1.332024,509987,23743
1541.6,1.342483,503936,22903
1545.72,1.340094,494694,22607
1548.8,1.335340,488378,22564
1551.88,1.340137,481832,22017
1554.95,1.332095,474989,22110
1558.02,1.338791,467818,21443
1561.08,1.335352,460730,21286
1564.15,1.333265,454170,21084
1568.22,1.343436,444181,20143
1571.27,1.331886,436947,20349
1574.32,1.341471,429598,19570
1577.36,1.333163,422039,19597
1580.4,1.340014,414375,18940
1583.43,1.333409,406354,18858
1586.46,1.333958,398475,18469
1590.49,1.335502,388982,17965
1593.51,1.337455,380708,17504
1596.53,1.335862,372727,17200
1599.54,1.334452,365060,16901
1602.55,1.331054,357543,16683
1605.55,1.337831,349495,16055
1608.55,1.329211,341154,15986
1612.54,1.330064,330877,15474
1615.53,1.320089,322904,15452
1618.51,1.328767,315116,14781
1621.49,1.315719,307217,14850
1624.47,1.324754,299481,14178
1627.44,1.319080,292112,14011
1630.41,1.321017,284245,13573
1634.36,1.326176,274079,12933
1637.32,1.315045,266916,12922
1640.27,1.323996,259612,12312
1643.22,1.324131,251804,11938
1646.16,1.311878,244348,11916
1649.1,1.312563,236703,11525
1652.04,1.315449,228171,11036
1655.95,1.310298,215408,10543
1658.88,1.285414,204937,10622
1661.8,1.284885,193395,10036
1664.72,1.266369,179728,9733
1667.63,1.274675,163642,8694
1670.54,1.240174,146312,8416
1673.44,1.225815,128451,7637
1677.31,1.216495,105080,6383
1680.21,1.196806,88906,5651
1683.1,1.198376,75033,4752
1685.99,1.208297,63520,3932
1688.87,1.159311,53714,3722
1691.75,1.193641,45653,2923
1694.62,1.210390,39137,2411
1697.49,1.185397,33776,2204
1701.31,1.243848,28175,1607