File: ML/samples/unknown/Column 1_078518_20241121_170636.csv
Method:,Column 1,,
Host Date-Time:,21/11/24 @ 17:6:36,,
Header Version:,1,,
System Temp (C):,34.92,,
Detector Temp (C):,33.95,,
Humidity (%):,1.96,,
Lamp PD:,3800,,
Shift Vector Coefficients:,-10.5391,0.0761263,-0.000134223,,
Pixel to Wavelength Coefficients:,1775.68,-0.916766,-0.000235065,,
Serial Number:,5510004,,
Scan Config Name:,Column 1,,
Scan Config Type:,Slew,,
Section 1,,
Start wavelength (nm):,900,,
End wavelength (nm):,1700,,
Pattern Pixel Width (nm):,   7.03,,,,
Exposure (ms):,  0.635,,,,
Digital Resolution:,228,,
Num Repeats:,6,,
PGA Gain:,64,,
Total Measurement Time in sec:,  2.723,,
Wavelength (nm),Absorbance (AU),Reference Signal (unitless),Sample Signal (unitless)
901.51,1.303620,108485,5392
905.376,1.311121,121306,5926
909.237,1.320934,131909,6300
913.095,1.340201,143299,6547
916.948,1.320962,156982,7497
922.079,1.321026,179937,8592
925.923,1.297931,200504,10097
929.762,1.329316,222660,10431
933.597,1.313477,244426,11876
937.427,1.312858,263972,12844
941.254,1.315865,281845,13619
945.076,1.318272,297271,14285
950.165,1.320109,315605,15102
953.978,1.312417,328029,15977
957.786,1.301834,340470,16992
961.59,1.304318,352317,17483
965.389,1.307922,363056,17867
969.185,1.299545,373162,18722
972.976,1.308231,382632,18817
976.763,1.306934,391202,19296
981.806,1.308153,400190,19684
985.583,1.301402,406088,20287
989.355,1.301880,410162,20468
993.124,1.306522,412868,20384
996.888,1.307327,414263,20415
1000.65,1.301884,415476,20733
1004.4,1.300089,415479,20819
1009.41,1.305050,414358,20527
1013.15,1.305473,412923,20436
1016.89,1.306730,411526,20308
1020.63,1.311502,409066,19966
1024.36,1.301818,406777,20302
1028.09,1.304856,404427,20044
1031.82,1.304122,401911,19953
1036.78,1.312036,398410,19422
1040.49,1.307862,396204,19501
1044.2,1.314268,394236,19120
1047.91,1.310031,392042,19200
1051.61,1.308563,389823,19156
1055.31,1.301650,388234,19384
1059,1.302803,387599,19301
1063.92,1.306509,386688,19092
1067.61,1.299973,386598,19377
1071.29,1.305398,387377,19175
1074.96,1.310472,388536,19009
1078.63,1.315937,389855,18835
1082.3,1.318211,391215,18802
1085.96,1.310673,393215,19229
1090.84,1.312344,396270,19304
1094.49,1.316078,398760,19259
1098.14,1.314971,400987,19416
1101.79,1.314628,403477,19552
1105.43,1.311371,406116,19828
1109.06,1.321221,407701,19459
1112.7,1.304433,409859,20333
1117.53,1.316477,412494,19904
1121.15,1.312000,414909,20228
1124.77,1.318451,416559,20009
1128.38,1.322374,418532,19923
1131.99,1.315815,419956,20295
1135.6,1.313482,421946,20501
1139.2,1.317167,423881,20421
1143.99,1.308012,426786,20999
1147.58,1.310367,428617,20975
1151.17,1.318279,431169,20719
1154.75,1.315491,433579,20969
1158.33,1.318192,436264,20968
1161.91,1.311472,439132,21435
1165.48,1.319612,442389,21193
1169.04,1.312433,446101,21727
1173.79,1.312371,451929,22014
1177.34,1.309343,456026,22369
1180.9,1.317714,461306,22196
1184.44,1.321642,467657,22299
1187.99,1.314532,473969,22973
1191.52,1.319685,479856,22984
1195.06,1.322298,487372,23204
1199.76,1.317626,497347,23935
1203.29,1.317110,504311,24299
1206.81,1.317793,511507,24607
1210.33,1.317988,519078,24960
1213.84,1.311117,527163,25753
1217.35,1.319165,534208,25618
1220.85,1.319960,540472,25871
1225.51,1.323151,549929,26131
1229.01,1.318428,556888,26751
1232.5,1.321417,562180,26820
1235.98,1.320208,567975,27172
1239.46,1.314220,574815,27881
1242.94,1.320806,582782,27842
1246.41,1.318084,591476,28435
1251.03,1.316499,604016,29144
1254.5,1.322348,612289,29148
1257.96,1.319534,619125,29665
1261.41,1.322212,624551,29741
1264.86,1.317987,629900,30289
1268.31,1.317769,634345,30518
1271.75,1.325679,638574,30167
1276.33,1.314275,642499,31160
1279.76,1.315555,645905,31233
1283.19,1.322089,648307,30881
1286.61,1.327561,650446,30595
1290.03,1.322078,652132,31064
1293.44,1.331572,653907,30475
1296.85,1.325154,655963,31026
1301.39,1.327248,657349,30942
1304.8,1.323515,657558,31219
1308.19,1.325540,658515,31119
1311.58,1.323934,658804,31248
1314.97,1.329356,659011,30870
1318.36,1.328475,658272,30898
1321.73,1.325438,658022,31103
1326.23,1.325240,657870,31110
1329.6,1.328686,656482,30799
1332.97,1.324326,654926,31036
1336.33,1.326719,653727,30809
1339.69,1.323497,652497,30980
1343.04,1.326241,649913,30663
1346.39,1.324527,647671,30678
1349.73,1.325459,645338,30502
1354.18,1.322051,641175,30544
1357.52,1.324193,638376,30261
1360.85,1.330919,635805,29676
1364.17,1.321263,633413,30229
1367.49,1.328756,631026,29600
1370.81,1.321510,628050,29956
1374.12,1.320421,625034,29887
1378.54,1.327021,620272,29212
1381.84,1.325839,616892,29132
1385.14,1.325272,613613,29015
1388.43,1.323942,611526,29005
1391.72,1.321580,610663,29122
1395.01,1.321500,610634,29126
1398.29,1.319582,611700,29306
1402.66,1.321708,614051,29275
1405.93,1.330422,616268,28797
1409.2,1.324481,617795,29266
1412.46,1.330583,618872,28908
1415.72,1.330405,619795,28963
1418.98,1.330131,620495,29014
1422.23,1.327561,621087,29214
1426.56,1.329909,621375,29070
1429.8,1.332129,621616,28933
1433.04,1.327042,622129,29298
1436.27,1.333434,621526,28842
1439.5,1.330383,621113,29026
1442.72,1.334474,620921,28745
1445.94,1.330872,620270,28954
1450.23,1.330319,618860,28925
1453.44,1.332727,617697,28711
1456.64,1.330902,616264,28765
1459.85,1.326017,614413,29003
1463.04,1.328482,612307,28740
1466.24,1.333689,610032,28292
1469.43,1.329720,607345,28426
1473.67,1.327597,603789,28398
1476.85,1.324659,601175,28467
1480.02,1.332825,597737,27777
1483.19,1.329436,594479,27842
1486.36,1.331053,591232,27587
1489.52,1.332899,587853,27313
1492.68,1.329363,583875,27350
1496.89,1.334521,578062,26758
1500.03,1.326897,574159,27048
1503.18,1.340618,570285,26030
1506.32,1.337249,565444,26010
1509.45,1.333557,560571,26006
1512.58,1.331484,555821,25909
1515.71,1.329132,550344,25793
1519.87,1.334719,543983,25169
1522.99,1.335758,538764,24868
1526.1,1.336073,533692,24616
1529.21,1.327734,527902,24821
1532.32,1.331202,521886,24343
1535.42,1.331693,515888,24036
1538.51,1.330399,509987,23832
1541.6,1.327664,503936,23698
1545.72,1.326050,494694,23350
1548.8,1.333956,488378,22636
1551.88,1.332551,481832,22405
1554.95,1.329822,474989,22226
1558.02,1.328880,467818,21938
1561.08,1.328852,460730,21607
1564.15,1.325063,454170,21486
1568.22,1.327351,444181,20903
1571.27,1.335185,436947,20195
1574.32,1.325074,429598,20323
1577.36,1.336031,422039,19468
1580.4,1.342174,414375,18846
1583.43,1.330082,406354,19003
1586.46,1.326474,398475,18790
1590.49,1.326767,388982,18330
1593.51,1.317216,380708,18339
1596.53,1.322462,372727,17739
1599.54,1.319624,365060,17488
1602.55,1.322982,357543,16996
1605.55,1.322862,349495,16618
1608.55,1.330271,341154,15947
1612.54,1.313381,330877,16080
1615.53,1.317762,322904,15535
1618.51,1.322988,315116,14979
1621.49,1.329083,307217,14400
1624.47,1.312880,299481,14571
1627.44,1.324539,292112,13836
1630.41,1.320409,284245,13592
1634.36,1.306065,274079,13546
1637.32,1.325040,266916,12628
1640.27,1.315750,259612,12548
1643.22,1.308693,251804,12370
1646.16,1.324113,244348,11585
1649.1,1.318596,236703,11366
1652.04,1.308384,228171,11217
1655.95,1.288879,215408,11076
1658.88,1.306182,204937,10126
1661.8,1.294555,193395,9815
1664.72,1.285293,179728,9318
1667.63,1.255474,163642,9087
1670.54,1.259754,146312,8045
1673.44,1.232635,128451,7518
1677.31,1.177043,105080,6990
1680.21,1.179111,88906,5886
1683.1,1.131899,75033,5538
1685.99,1.192250,63520,4080
1688.87,1.190259,53714,3466
1691.75,1.204168,45653,2853
1694.62,1.169506,39137,2649
1697.49,1.139797,33776,2448
1701.31,1.131801,28175,2080