File: ML/samples/unknown/Column 1_078773_20241121_172129.csv
Method:,Column 1,,
Host Date-Time:,21/11/24 @ 17:21:29,,
Header Version:,1,,
System Temp (C):,36.72,,
Detector Temp (C):,35.11,,
Humidity (%):,1.08,,
Lamp PD:,3797,,
Shift Vector Coefficients:,-10.5391,0.0761263,-0.000134223,,
Pixel to Wavelength Coefficients:,1775.68,-0.916766,-0.000235065,,
Serial Number:,5510004,,
Scan Config Name:,Column 1,,
Scan Config Type:,Slew,,
Section 1,,
Start wavelength (nm):,900,,
End wavelength (nm):,1700,,
Pattern Pixel Width (nm):,   7.03,,,,
Exposure (ms):,  0.635,,,,
Digital Resolution:,228,,
Num Repeats:,6,,
PGA Gain:,64,,
Total Measurement Time in sec:,  2.712,,
Wavelength (nm),Absorbance (AU),Reference Signal (unitless),Sample Signal (unitless)
901.51,1.329250,108485,5083
905.376,1.318885,121306,5821
909.237,1.338160,131909,6055
913.095,1.350131,143299,6399
916.948,1.302865,156982,7816
922.079,1.352954,179937,7983
925.923,1.337345,200504,9221
929.762,1.332031,222660,10366
933.597,1.334570,244426,11313
937.427,1.320946,263972,12607
941.254,1.331283,281845,13144
945.076,1.319978,297271,14229
950.165,1.317786,315605,15183
953.978,1.315965,328029,15847
957.786,1.300941,340470,17027
961.59,1.305611,352317,17431
965.389,1.312565,363056,17677
969.185,1.303881,373162,18536
972.976,1.320473,382632,18294
976.763,1.311663,391202,19087
981.806,1.316686,400190,19301
985.583,1.308503,406088,19958
989.355,1.306702,410162,20242
993.124,1.312961,412868,20084
996.888,1.308989,414263,20337
1000.65,1.312271,415476,20243
1004.4,1.306478,415479,20515
1009.41,1.311981,414358,20202
1013.15,1.311271,412923,20165
1016.89,1.321079,411526,19648
1020.63,1.302760,409066,20372
1024.36,1.309609,406777,19941
1028.09,1.308205,404427,19890
1031.82,1.309223,401911,19720
1036.78,1.314773,398410,19300
1040.49,1.304623,396204,19647
1044.2,1.305900,394236,19492
1047.91,1.305218,392042,19414
1051.61,1.306595,389823,19243
1055.31,1.306426,388234,19172
1059,1.305353,387599,19188
1063.92,1.307580,386688,19045
1067.61,1.314977,386598,18719
1071.29,1.310685,387377,18943
1074.96,1.307807,388536,19126
1078.63,1.306540,389855,19247
1082.3,1.305488,391215,19361
1085.96,1.321467,393215,18757
1090.84,1.318689,396270,19024
1094.49,1.310365,398760,19514
1098.14,1.313987,400987,19460
1101.79,1.321072,403477,19264
1105.43,1.305605,406116,20093
1109.06,1.315347,407701,19724
1112.7,1.332489,409859,19061
1117.53,1.308521,412494,20272
1121.15,1.310200,414909,20312
1124.77,1.319451,416559,19963
1128.38,1.314147,418532,20304
1131.99,1.319252,419956,20135
1135.6,1.324879,421946,19970
1139.2,1.319192,423881,20326
1143.99,1.314450,426786,20690
1147.58,1.330996,428617,20002
1151.17,1.314148,431169,20917
1154.75,1.314870,433579,20999
1158.33,1.310555,436264,21340
1161.91,1.319240,439132,21055
1165.48,1.313770,442389,21480
1169.04,1.314638,446101,21617
1173.79,1.316893,451929,21786
1177.34,1.329185,456026,21370
1180.9,1.315528,461306,22308
1184.44,1.314821,467657,22652
1187.99,1.318082,473969,22786
1191.52,1.320915,479856,22919
1195.06,1.322111,487372,23214
1199.76,1.316484,497347,23998
1203.29,1.315718,504311,24377
1206.81,1.324964,511507,24204
1210.33,1.316442,519078,25049
1213.84,1.320269,527163,25216
1217.35,1.320285,534208,25552
1220.85,1.322384,540472,25727
1225.51,1.320962,549929,26263
1229.01,1.317714,556888,26795
1232.5,1.322763,562180,26737
1235.98,1.325078,567975,26869
1239.46,1.323302,574815,27304
1242.94,1.321258,582782,27813
1246.41,1.322150,591476,28170
1251.03,1.321943,604016,28781
1254.5,1.320252,612289,29289
1257.96,1.324718,619125,29313
1261.41,1.322227,624551,29740
1264.86,1.325537,629900,29767
1268.31,1.324640,634345,30039
1271.75,1.327107,638574,30068
1276.33,1.324699,642499,30421
1279.76,1.322719,645905,30722
1283.19,1.329880,648307,30332
1286.61,1.329310,650446,30472
1290.03,1.326632,652132,30740
1293.44,1.328972,653907,30658
1296.85,1.326177,655963,30953
1301.39,1.327037,657349,30957
1304.8,1.329637,657558,30782
1308.19,1.329987,658515,30802
1311.58,1.328742,658804,30904
1314.97,1.326314,659011,31087
1318.36,1.329333,658272,30837
1321.73,1.325299,658022,31113
1326.23,1.326176,657870,31043
1329.6,1.326492,656482,30955
1332.97,1.335610,654926,30240
1336.33,1.328088,653727,30712
1339.69,1.328772,652497,30606
1343.04,1.328470,649913,30506
1346.39,1.327525,647671,30467
1349.73,1.330327,645338,30162
1354.18,1.324618,641175,30364
1357.52,1.320065,638376,30550
1360.85,1.329560,635805,29769
1364.17,1.324320,633413,30017
1367.49,1.331021,631026,29446
1370.81,1.320786,628050,30006
1374.12,1.325758,625034,29522
1378.54,1.329316,620272,29058
1381.84,1.320932,616892,29463
1385.14,1.328457,613613,28803
1388.43,1.329487,611526,28637
1391.72,1.327844,610663,28705
1395.01,1.326419,610634,28798
1398.29,1.330917,611700,28551
1402.66,1.327938,614051,28858
1405.93,1.326130,616268,29083
1409.2,1.332116,617795,28756
1412.46,1.331274,618872,28862
1415.72,1.321279,619795,29578
1418.98,1.330220,620495,29008
1422.23,1.332134,621087,28908
1426.56,1.333434,621375,28835
1429.8,1.336837,621616,28621
1433.04,1.331527,622129,28997
1436.27,1.330134,621526,29062
1439.5,1.330368,621113,29027
1442.72,1.331568,620921,28938
1445.94,1.330273,620270,28994
1450.23,1.331055,618860,28876
1453.44,1.335230,617697,28546
1456.64,1.337122,616264,28356
1459.85,1.331943,614413,28610
1463.04,1.334861,612307,28321
1466.24,1.333996,610032,28272
1469.43,1.330637,607345,28366
1473.67,1.330975,603789,28178
1476.85,1.332992,601175,27926
1480.02,1.328190,597737,28075
1483.19,1.333464,594479,27585
1486.36,1.336009,591232,27274
1489.52,1.332280,587853,27352
1492.68,1.327888,583875,27443
1496.89,1.331480,578062,26946
1500.03,1.341693,574159,26142
1503.18,1.339601,570285,26091
1506.32,1.333823,565444,26216
1509.45,1.335717,560571,25877
1512.58,1.334461,555821,25732
1515.71,1.330786,550344,25695
1519.87,1.332843,543983,25278
1522.99,1.340358,538764,24606
1526.1,1.335703,533692,24637
1529.21,1.333866,527902,24473
1532.32,1.324334,521886,24731
1535.42,1.334103,515888,23903
1538.51,1.342240,509987,23191
1541.6,1.350966,503936,22460
1545.72,1.337718,494694,22731
1548.8,1.338683,488378,22391
1551.88,1.334124,481832,22324
1554.95,1.329939,474989,22220
1558.02,1.330625,467818,21850
1561.08,1.331716,460730,21465
1564.15,1.334544,454170,21022
1568.22,1.330249,444181,20764
1571.27,1.336995,436947,20111
1574.32,1.334974,429598,19865
1577.36,1.326805,422039,19886
1580.4,1.336087,414375,19112
1583.43,1.334516,406354,18810
1586.46,1.333958,398475,18469
1590.49,1.327763,388982,18288
1593.51,1.329246,380708,17838
1596.53,1.325237,372727,17626
1599.54,1.334092,365060,16915
1602.55,1.316514,357543,17251
1605.55,1.321948,349495,16653
1608.55,1.315177,341154,16511
1612.54,1.326820,330877,15590
1615.53,1.327316,322904,15197
1618.51,1.335846,315116,14542
1621.49,1.329384,307217,14390
1624.47,1.329095,299481,14037
1627.44,1.333835,292112,13543
1630.41,1.332264,284245,13226
1634.36,1.322698,274079,13037
1637.32,1.323290,266916,12679
1640.27,1.327645,259612,12209
1643.22,1.328592,251804,11816
1646.16,1.317601,244348,11760
1649.1,1.317566,236703,11393
1652.04,1.307262,228171,11246
1655.95,1.298313,215408,10838
1658.88,1.292961,204937,10439
1661.8,1.297708,193395,9744
1664.72,1.280380,179728,9424
1667.63,1.260909,163642,8974
1670.54,1.231186,146312,8592
1673.44,1.233271,128451,7507
1677.31,1.188947,105080,6801
1680.21,1.169695,88906,6015
1683.1,1.170930,75033,5062
1685.99,1.123937,63520,4775
1688.87,1.179004,53714,3557
1691.75,1.232146,45653,2675
1694.62,1.180800,39137,2581
1697.49,1.165184,33776,2309
1701.31,1.189316,28175,1822