File: ML/samples/unknown/Column 1_078191_20241121_164956.csv
Method:,Column 1,,
Host Date-Time:,21/11/24 @ 16:49:56,,
Header Version:,1,,
System Temp (C):,33.78,,
Detector Temp (C):,30.43,,
Humidity (%):,3.23,,
Lamp PD:,3803,,
Shift Vector Coefficients:,-10.5391,0.0761263,-0.000134223,,
Pixel to Wavelength Coefficients:,1775.68,-0.916766,-0.000235065,,
Serial Number:,5510004,,
Scan Config Name:,Column 1,,
Scan Config Type:,Slew,,
Section 1,,
Start wavelength (nm):,900,,
End wavelength (nm):,1700,,
Pattern Pixel Width (nm):,   7.03,,,,
Exposure (ms):,  0.635,,,,
Digital Resolution:,228,,
Num Repeats:,6,,
PGA Gain:,64,,
Total Measurement Time in sec:,  2.721,,
Wavelength (nm),Absorbance (AU),Reference Signal (unitless),Sample Signal (unitless)
901.51,1.290217,108485,5561
905.376,1.317841,121306,5835
909.237,1.302841,131909,6568
913.095,1.318465,143299,6883
916.948,1.321832,156982,7482
922.079,1.322038,179937,8572
925.923,1.319897,200504,9599
929.762,1.313535,222660,10817
933.597,1.317297,244426,11772
937.427,1.307514,263972,13003
941.254,1.315929,281845,13617
945.076,1.312294,297271,14483
950.165,1.309766,315605,15466
953.978,1.306826,328029,16184
957.786,1.313885,340470,16527
961.59,1.320385,352317,16848
965.389,1.315177,363056,17571
969.185,1.317494,373162,17964
972.976,1.303023,382632,19044
976.763,1.305990,391202,19338
981.806,1.311075,400190,19552
985.583,1.302517,406088,20235
989.355,1.302156,410162,20455
993.124,1.307652,412868,20331
996.888,1.305438,414263,20504
1000.65,1.313066,415476,20206
1004.4,1.314059,415479,20160
1009.41,1.306109,414358,20477
1013.15,1.307539,412923,20339
1016.89,1.315784,411526,19889
1020.63,1.309268,409066,20069
1024.36,1.308696,406777,19983
1028.09,1.310833,404427,19770
1031.82,1.316328,401911,19400
1036.78,1.309739,398410,19525
1040.49,1.313015,396204,19271
1044.2,1.316317,394236,19030
1047.91,1.317630,392042,18867
1051.61,1.312686,389823,18975
1055.31,1.317391,388234,18694
1059,1.302083,387599,19333
1063.92,1.306055,386688,19112
1067.61,1.306954,386598,19068
1071.29,1.313237,387377,18832
1074.96,1.313844,388536,18862
1078.63,1.315500,389855,18854
1082.3,1.313479,391215,19008
1085.96,1.311261,393215,19203
1090.84,1.313132,396270,19269
1094.49,1.318747,398760,19141
1098.14,1.320553,400987,19168
1101.79,1.323854,403477,19141
1105.43,1.317770,406116,19538
1109.06,1.314907,407701,19744
1112.7,1.319405,409859,19644
1117.53,1.314844,412494,19979
1121.15,1.321836,414909,19775
1124.77,1.307351,416559,20527
1128.38,1.319528,418532,20054
1131.99,1.320916,419956,20058
1135.6,1.325859,421946,19925
1139.2,1.319085,423881,20331
1143.99,1.322116,426786,20328
1147.58,1.309602,428617,21012
1151.17,1.324826,431169,20409
1154.75,1.314684,433579,21008
1158.33,1.315611,436264,21093
1161.91,1.315788,439132,21223
1165.48,1.317058,442389,21318
1169.04,1.319568,446101,21373
1173.79,1.314131,451929,21925
1177.34,1.325361,456026,21559
1180.9,1.318125,461306,22175
1184.44,1.318576,467657,22457
1187.99,1.317968,473969,22792
1191.52,1.324798,479856,22715
1195.06,1.317125,487372,23482
1199.76,1.321966,497347,23697
1203.29,1.320321,504311,24120
1206.81,1.323317,511507,24296
1210.33,1.328074,519078,24387
1213.84,1.324735,527163,24958
1217.35,1.327155,534208,25151
1220.85,1.319842,540472,25878
1225.51,1.326387,549929,25937
1229.01,1.321066,556888,26589
1232.5,1.328848,562180,26365
1235.98,1.326275,567975,26795
1239.46,1.321429,574815,27422
1242.94,1.323685,582782,27658
1246.41,1.321950,591476,28183
1251.03,1.322229,604016,28762
1254.5,1.325158,612289,28960
1257.96,1.330235,619125,28943
1261.41,1.330007,624551,29212
1264.86,1.326047,629900,29732
1268.31,1.324843,634345,30025
1271.75,1.330034,638574,29866
1276.33,1.332521,642499,29878
1279.76,1.328039,645905,30348
1283.19,1.327395,648307,30506
1286.61,1.326271,650446,30686
1290.03,1.330349,652132,30478
1293.44,1.325375,653907,30913
1296.85,1.329600,655963,30710
1301.39,1.330983,657349,30677
1304.8,1.330584,657558,30715
1308.19,1.332064,658515,30655
1311.58,1.328742,658804,30904
1314.97,1.334863,659011,30481
1318.36,1.334020,658272,30506
1321.73,1.336196,658022,30342
1326.23,1.332930,657870,30564
1329.6,1.331076,656482,30630
1332.97,1.336963,654926,30146
1336.33,1.334944,653727,30231
1339.69,1.330521,652497,30483
1343.04,1.334476,649913,30087
1346.39,1.326315,647671,30552
1349.73,1.330759,645338,30132
1354.18,1.329277,641175,30040
1357.52,1.332159,638376,29711
1360.85,1.326420,635805,29985
1364.17,1.327996,633413,29764
1367.49,1.331670,631026,29402
1370.81,1.334236,628050,29091
1374.12,1.331459,625034,29137
1378.54,1.330829,620272,28957
1381.84,1.331420,616892,28760
1385.14,1.328593,613613,28794
1388.43,1.329715,611526,28622
1391.72,1.331979,610663,28433
1395.01,1.326932,610634,28764
1398.29,1.333098,611700,28408
1402.66,1.330928,614051,28660
1405.93,1.329729,616268,28843
1409.2,1.329932,617795,28901
1412.46,1.338451,618872,28389
1415.72,1.331320,619795,28902
1418.98,1.335068,620495,28686
1422.23,1.331324,621087,28962
1426.56,1.332005,621375,28930
1429.8,1.331814,621616,28954
1433.04,1.341205,622129,28358
1436.27,1.335623,621526,28697
1439.5,1.334639,621113,28743
1442.72,1.336761,620921,28594
1445.94,1.335502,620270,28647
1450.23,1.332170,618860,28802
1453.44,1.335322,617697,28540
1456.64,1.335791,616264,28443
1459.85,1.334363,614413,28451
1463.04,1.336612,612307,28207
1466.24,1.341527,610032,27786
1469.43,1.337116,607345,27946
1473.67,1.337466,603789,27760
1476.85,1.334363,601175,27838
1480.02,1.337699,597737,27467
1483.19,1.337163,594479,27351
1486.36,1.341328,591232,26942
1489.52,1.340130,587853,26862
1492.68,1.341357,583875,26605
1496.89,1.339024,578062,26482
1500.03,1.345766,574159,25898
1503.18,1.331423,570285,26587
1506.32,1.341241,565444,25772
1509.45,1.343660,560571,25408
1512.58,1.337986,555821,25524
1515.71,1.334469,550344,25478
1519.87,1.335583,543983,25119
1522.99,1.337981,538764,24741
1526.1,1.337345,533692,24544
1529.21,1.342722,527902,23979
1532.32,1.340798,521886,23811
1535.42,1.341192,515888,23516
1538.51,1.335292,509987,23565
1541.6,1.333642,503936,23374
1545.72,1.332288,494694,23017
1548.8,1.332807,488378,22696
1551.88,1.341996,481832,21923
1554.95,1.336974,474989,21863
1558.02,1.341432,467818,21313
1561.08,1.335536,460730,21277
1564.15,1.337342,454170,20887
1568.22,1.340428,444181,20283
1571.27,1.332249,436947,20332
1574.32,1.335630,429598,19835
1577.36,1.339435,422039,19316
1580.4,1.335497,414375,19138
1583.43,1.337272,406354,18691
1586.46,1.334546,398475,18444
1590.49,1.327716,388982,18290
1593.51,1.333134,380708,17679
1596.53,1.321068,372727,17796
1599.54,1.325424,365060,17256
1602.55,1.344968,357543,16157
1605.55,1.334194,349495,16190
1608.55,1.314415,341154,16540
1612.54,1.330008,330877,15476
1615.53,1.322287,322904,15374
1618.51,1.323858,315116,14949
1621.49,1.329777,307217,14377
1624.47,1.324693,299481,14180
1627.44,1.326048,292112,13788
1630.41,1.317448,284245,13685
1634.36,1.319710,274079,13127
1637.32,1.307878,266916,13137
1640.27,1.314989,259612,12570
1643.22,1.321122,251804,12021
1646.16,1.300121,244348,12243
1649.1,1.308251,236703,11640
1652.04,1.325400,228171,10786
1655.95,1.311205,215408,10521
1658.88,1.310146,204937,10034
1661.8,1.286185,193395,10006
1664.72,1.301920,179728,8968
1667.63,1.288944,163642,8413
1670.54,1.265459,146312,7940
1673.44,1.277508,128451,6780
1677.31,1.209275,105080,6490
1680.21,1.244180,88906,5067
1683.1,1.231504,75033,4403
1685.99,1.230969,63520,3732
1688.87,1.198226,53714,3403
1691.75,1.288032,45653,2352
1694.62,1.193087,39137,2509
1697.49,1.231943,33776,1980
1701.31,1.312193,28175,1373