File: ML/samples/unknown/Column 1_078981_20241121_173130.csv
Method:,Column 1,,
Host Date-Time:,21/11/24 @ 17:31:30,,
Header Version:,1,,
System Temp (C):,37.75,,
Detector Temp (C):,36.89,,
Humidity (%):,0.64,,
Lamp PD:,3795,,
Shift Vector Coefficients:,-10.5391,0.0761263,-0.000134223,,
Pixel to Wavelength Coefficients:,1775.68,-0.916766,-0.000235065,,
Serial Number:,5510004,,
Scan Config Name:,Column 1,,
Scan Config Type:,Slew,,
Section 1,,
Start wavelength (nm):,900,,
End wavelength (nm):,1700,,
Pattern Pixel Width (nm):,   7.03,,,,
Exposure (ms):,  0.635,,,,
Digital Resolution:,228,,
Num Repeats:,6,,
PGA Gain:,64,,
Total Measurement Time in sec:,  2.713,,
Wavelength (nm),Absorbance (AU),Reference Signal (unitless),Sample Signal (unitless)
901.51,1.282553,108485,5660
905.376,1.289185,121306,6233
909.237,1.290521,131909,6757
913.095,1.276230,143299,7586
916.948,1.322529,156982,7470
922.079,1.342526,179937,8177
925.923,1.310498,200504,9809
929.762,1.321109,222660,10630
933.597,1.307629,244426,12037
937.427,1.322776,263972,12554
941.254,1.322387,281845,13416
945.076,1.308443,297271,14612
950.165,1.312329,315605,15375
953.978,1.301811,328029,16372
957.786,1.309701,340470,16687
961.59,1.319150,352317,16896
965.389,1.311927,363056,17703
969.185,1.301382,373162,18643
972.976,1.299322,382632,19207
976.763,1.310913,391202,19120
981.806,1.308131,400190,19685
985.583,1.305575,406088,20093
989.355,1.303773,410162,20379
993.124,1.302260,412868,20585
996.888,1.301852,414263,20674
1000.65,1.310558,415476,20323
1004.4,1.302180,415479,20719
1009.41,1.307086,414358,20431
1013.15,1.304327,412923,20490
1016.89,1.303938,411526,20439
1020.63,1.300612,409066,20473
1024.36,1.310918,406777,19881
1028.09,1.301919,404427,20180
1031.82,1.296313,401911,20315
1036.78,1.304302,398410,19771
1040.49,1.308263,396204,19483
1044.2,1.306323,394236,19473
1047.91,1.312322,392042,19099
1051.61,1.304186,389823,19350
1055.31,1.305385,388234,19218
1059,1.303726,387599,19260
1063.92,1.308630,386688,18999
1067.61,1.305272,386598,19142
1071.29,1.306283,387377,19136
1074.96,1.304685,388536,19264
1078.63,1.290677,389855,19963
1082.3,1.304032,391215,19426
1085.96,1.308623,393215,19320
1090.84,1.309273,396270,19441
1094.49,1.308300,398760,19607
1098.14,1.313207,400987,19495
1101.79,1.318241,403477,19390
1105.43,1.307881,406116,19988
1109.06,1.311096,407701,19918
1112.7,1.307541,409859,20188
1117.53,1.310733,412494,20169
1121.15,1.310393,414909,20303
1124.77,1.310984,416559,20356
1128.38,1.308473,418532,20571
1131.99,1.308789,419956,20626
1135.6,1.312466,421946,20549
1139.2,1.311106,423881,20708
1143.99,1.312022,426786,20806
1147.58,1.318244,428617,20598
1151.17,1.317546,431169,20754
1154.75,1.304832,433579,21490
1158.33,1.319728,436264,20894
1161.91,1.311938,439132,21412
1165.48,1.307647,442389,21785
1169.04,1.313775,446101,21660
1173.79,1.307974,451929,22238
1177.34,1.301474,456026,22778
1180.9,1.313935,461306,22390
1184.44,1.315838,467657,22599
1187.99,1.318826,473969,22747
1191.52,1.315829,479856,23189
1195.06,1.317089,487372,23484
1199.76,1.319590,497347,23827
1203.29,1.315700,504311,24378
1206.81,1.315575,511507,24733
1210.33,1.315888,519078,25081
1213.84,1.320441,527163,25206
1217.35,1.318640,534208,25649
1220.85,1.316249,540472,26093
1225.51,1.322935,549929,26144
1229.01,1.314227,556888,27011
1232.5,1.319542,562180,26936
1235.98,1.318167,567975,27300
1239.46,1.318776,574815,27590
1242.94,1.319264,582782,27941
1246.41,1.317077,591476,28501
1251.03,1.320090,604016,28904
1254.5,1.318919,612289,29379
1257.96,1.322988,619125,29430
1261.41,1.322373,624551,29730
1264.86,1.314758,629900,30515
1268.31,1.327148,634345,29866
1271.75,1.322552,638574,30385
1276.33,1.322492,642499,30576
1279.76,1.327124,645905,30412
1283.19,1.323921,648307,30751
1286.61,1.318792,650446,31219
1290.03,1.320459,652132,31180
1293.44,1.320805,653907,31240
1296.85,1.330832,655963,30623
1301.39,1.323836,657349,31186
1304.8,1.324839,657558,31124
1308.19,1.323591,658515,31259
1311.58,1.325912,658804,31106
1314.97,1.325769,659011,31126
1318.36,1.327548,658272,30964
1321.73,1.326655,658022,31016
1326.23,1.332192,657870,30616
1329.6,1.328432,656482,30817
1332.97,1.325504,654926,30952
1336.33,1.324764,653727,30948
1339.69,1.327454,652497,30699
1343.04,1.328015,649913,30538
1346.39,1.325293,647671,30624
1349.73,1.326571,645338,30424
1354.18,1.326007,641175,30267
1357.52,1.320677,638376,30507
1360.85,1.321824,635805,30304
1364.17,1.325145,633413,29960
1367.49,1.325583,631026,29817
1370.81,1.323778,628050,29800
1374.12,1.323908,625034,29648
1378.54,1.320265,620272,29670
1381.84,1.325124,616892,29180
1385.14,1.324689,613613,29054
1388.43,1.320482,611526,29237
1391.72,1.322118,610663,29086
1395.01,1.322740,610634,29043
1398.29,1.328415,611700,28716
1402.66,1.320744,614051,29340
1405.93,1.326609,616268,29051
1409.2,1.326429,617795,29135
1412.46,1.328544,618872,29044
1415.72,1.331005,619795,28923
1418.98,1.328607,620495,29116
1422.23,1.326893,621087,29259
1426.56,1.322738,621375,29554
1429.8,1.330526,621616,29040
1433.04,1.326524,622129,29333
1436.27,1.326859,621526,29282
1439.5,1.329606,621113,29078
1442.72,1.326198,620921,29298
1445.94,1.329225,620270,29064
1450.23,1.329614,618860,28972
1453.44,1.330871,617697,28834
1456.64,1.329094,616264,28885
1459.85,1.330624,614413,28697
1463.04,1.337367,612307,28158
1466.24,1.335566,610032,28170
1469.43,1.329842,607345,28418
1473.67,1.329667,603789,28263
1476.85,1.332899,601175,27932
1480.02,1.329523,597737,27989
1483.19,1.339153,594479,27226
1486.36,1.334198,591232,27388
1489.52,1.333615,587853,27268
1492.68,1.328268,583875,27419
1496.89,1.328893,578062,27107
1500.03,1.334330,574159,26589
1503.18,1.325533,570285,26950
1506.32,1.336482,565444,26056
1509.45,1.328493,560571,26311
1512.58,1.327098,555821,26172
1515.71,1.329857,550344,25750
1519.87,1.333651,543983,25231
1522.99,1.330688,538764,25160
1526.1,1.329038,533692,25018
1529.21,1.337072,527902,24293
1532.32,1.328871,521886,24474
1535.42,1.338431,515888,23666
1538.51,1.328671,509987,23927
1541.6,1.323487,503936,23927
1545.72,1.327578,494694,23268
1548.8,1.332730,488378,22700
1551.88,1.330250,481832,22524
1554.95,1.327153,474989,22363
1558.02,1.333537,467818,21704
1561.08,1.322586,460730,21921
1564.15,1.327394,454170,21371
1568.22,1.326107,444181,20963
1571.27,1.326583,436947,20599
1574.32,1.323666,429598,20389
1577.36,1.323910,422039,20019
1580.4,1.331881,414375,19298
1583.43,1.327280,406354,19126
1586.46,1.318074,398475,19157
1590.49,1.320440,388982,18599
1593.51,1.320330,380708,18208
1596.53,1.318635,372727,17896
1599.54,1.324996,365060,17273
1602.55,1.326522,357543,16858
1605.55,1.318545,349495,16784
1608.55,1.309403,341154,16732
1612.54,1.318898,330877,15877
1615.53,1.309483,322904,15834
1618.51,1.309317,315116,15458
1621.49,1.320098,307217,14701
1624.47,1.317133,299481,14429
1627.44,1.310487,292112,14291
1630.41,1.299238,284245,14271
1634.36,1.305424,274079,13566
1637.32,1.296814,266916,13476
1640.27,1.314541,259612,12583
1643.22,1.319427,251804,12068
1646.16,1.298210,244348,12297
1649.1,1.304906,236703,11730
1652.04,1.283883,228171,11868
1655.95,1.289703,215408,11055
1658.88,1.270939,204937,10982
1661.8,1.276697,193395,10227
1664.72,1.260079,179728,9875
1667.63,1.238325,163642,9453
1670.54,1.213748,146312,8944
1673.44,1.179370,128451,8499
1677.31,1.175121,105080,7021
1680.21,1.121691,88906,6718
1683.1,1.115887,75033,5746
1685.99,1.111475,63520,4914
1688.87,1.087821,53714,4388
1691.75,1.076838,45653,3825
1694.62,1.065990,39137,3362
1697.49,1.075596,33776,2838
1701.31,1.105079,28175,2212