File: ML/samples/unknown/Column 1_078407_20241121_170110.csv
Method:,Column 1,,
Host Date-Time:,21/11/24 @ 17:1:10,,
Header Version:,1,,
System Temp (C):,34.67,,
Detector Temp (C):,33.75,,
Humidity (%):,2.25,,
Lamp PD:,3802,,
Shift Vector Coefficients:,-10.5391,0.0761263,-0.000134223,,
Pixel to Wavelength Coefficients:,1775.68,-0.916766,-0.000235065,,
Serial Number:,5510004,,
Scan Config Name:,Column 1,,
Scan Config Type:,Slew,,
Section 1,,
Start wavelength (nm):,900,,
End wavelength (nm):,1700,,
Pattern Pixel Width (nm):,   7.03,,,,
Exposure (ms):,  0.635,,,,
Digital Resolution:,228,,
Num Repeats:,6,,
PGA Gain:,64,,
Total Measurement Time in sec:,  2.730,,
Wavelength (nm),Absorbance (AU),Reference Signal (unitless),Sample Signal (unitless)
901.51,1.292095,108485,5537
905.376,1.338964,121306,5558
909.237,1.316340,131909,6367
913.095,1.307685,143299,7056
916.948,1.295537,156982,7949
922.079,1.324528,179937,8523
925.923,1.307806,200504,9870
929.762,1.309817,222660,10910
933.597,1.314612,244426,11845
937.427,1.311946,263972,12871
941.254,1.310793,281845,13779
945.076,1.315484,297271,14377
950.165,1.294671,315605,16013
953.978,1.315938,328029,15848
957.786,1.308272,340470,16742
961.59,1.304591,352317,17472
965.389,1.301145,363056,18148
969.185,1.313404,373162,18134
972.976,1.302636,382632,19061
976.763,1.298288,391202,19684
981.806,1.306985,400190,19737
985.583,1.299501,406088,20376
989.355,1.299763,410162,20568
993.124,1.306351,412868,20392
996.888,1.309502,414263,20313
1000.65,1.308894,415476,20401
1004.4,1.306435,415479,20517
1009.41,1.302687,414358,20639
1013.15,1.304985,412923,20459
1016.89,1.304256,411526,20424
1020.63,1.303442,409066,20340
1024.36,1.303082,406777,20243
1028.09,1.309080,404427,19850
1031.82,1.305211,401911,19903
1036.78,1.297242,398410,20095
1040.49,1.295523,396204,20063
1044.2,1.304165,394236,19570
1047.91,1.305732,392042,19391
1051.61,1.309607,389823,19110
1055.31,1.309632,388234,19031
1059,1.310292,387599,18971
1063.92,1.302028,386688,19290
1067.61,1.312594,386598,18822
1071.29,1.320610,387377,18515
1074.96,1.312212,388536,18933
1078.63,1.312882,389855,18968
1082.3,1.314852,391215,18948
1085.96,1.316952,393215,18953
1090.84,1.306889,396270,19548
1094.49,1.318271,398760,19162
1098.14,1.315105,400987,19410
1101.79,1.312412,403477,19652
1105.43,1.310627,406116,19862
1109.06,1.311467,407701,19901
1112.7,1.310758,409859,20039
1117.53,1.311768,412494,20121
1121.15,1.308429,414909,20395
1124.77,1.319581,416559,19957
1128.38,1.318209,418532,20115
1131.99,1.323696,419956,19930
1135.6,1.326753,421946,19884
1139.2,1.322452,423881,20174
1143.99,1.309524,426786,20926
1147.58,1.311778,428617,20907
1151.17,1.313816,431169,20933
1154.75,1.313074,433579,21086
1158.33,1.311207,436264,21308
1161.91,1.308624,439132,21576
1165.48,1.318895,442389,21228
1169.04,1.321931,446101,21257
1173.79,1.323744,451929,21445
1177.34,1.314028,456026,22129
1180.9,1.315023,461306,22334
1184.44,1.315454,467657,22619
1187.99,1.314532,473969,22973
1191.52,1.317461,479856,23102
1195.06,1.317681,487372,23452
1199.76,1.319426,497347,23836
1203.29,1.320916,504311,24087
1206.81,1.327538,511507,24061
1210.33,1.323028,519078,24672
1213.84,1.325101,527163,24937
1217.35,1.319606,534208,25592
1220.85,1.317332,540472,26028
1225.51,1.316668,549929,26524
1229.01,1.316452,556888,26873
1232.5,1.319413,562180,26944
1235.98,1.316832,567975,27384
1239.46,1.318414,574815,27613
1242.94,1.318333,582782,28001
1246.41,1.327736,591476,27810
1251.03,1.322940,604016,28715
1254.5,1.321410,612289,29211
1257.96,1.317897,619125,29777
1261.41,1.319679,624551,29915
1264.86,1.328920,629900,29536
1268.31,1.325407,634345,29986
1271.75,1.326775,638574,30091
1276.33,1.321130,642499,30672
1279.76,1.324674,645905,30584
1283.19,1.324359,648307,30720
1286.61,1.329040,650446,30491
1290.03,1.329324,652132,30550
1293.44,1.329568,653907,30616
1296.85,1.326120,655963,30957
1301.39,1.329979,657349,30748
1304.8,1.325607,657558,31069
1308.19,1.326770,658515,31031
1311.58,1.327310,658804,31006
1314.97,1.324126,659011,31244
1318.36,1.334020,658272,30506
1321.73,1.332775,658022,30582
1326.23,1.328857,657870,30852
1329.6,1.328686,656482,30799
1332.97,1.322358,654926,31177
1336.33,1.329349,653727,30623
1339.69,1.333810,652497,30253
1343.04,1.330396,649913,30371
1346.39,1.326116,647671,30566
1349.73,1.328072,645338,30319
1354.18,1.322677,641175,30500
1357.52,1.325012,638376,30204
1360.85,1.333796,635805,29480
1364.17,1.323236,633413,30092
1367.49,1.328316,631026,29630
1370.81,1.327143,628050,29570
1374.12,1.328473,625034,29338
1378.54,1.329048,620272,29076
1381.84,1.323119,616892,29315
1385.14,1.326877,613613,28908
1388.43,1.329639,611526,28627
1391.72,1.324183,610663,28948
1395.01,1.321560,610634,29122
1398.29,1.325100,611700,28936
1402.66,1.328149,614051,28844
1405.93,1.321526,616268,29393
1409.2,1.323310,617795,29345
1412.46,1.327514,618872,29113
1415.72,1.330285,619795,28971
1418.98,1.327103,620495,29217
1422.23,1.329707,621087,29070
1426.56,1.331151,621375,28987
1429.8,1.329988,621616,29076
1433.04,1.330495,622129,29066
1436.27,1.329835,621526,29082
1439.5,1.332634,621113,28876
1442.72,1.330055,620921,29039
1445.94,1.331022,620270,28944
1450.23,1.332924,618860,28752
1453.44,1.331609,617697,28785
1456.64,1.336066,616264,28425
1459.85,1.335127,614413,28401
1463.04,1.332734,612307,28460
1466.24,1.337002,610032,28077
1469.43,1.334636,607345,28106
1473.67,1.334519,603789,27949
1476.85,1.327214,601175,28300
1480.02,1.331030,597737,27892
1483.19,1.335278,594479,27470
1486.36,1.336391,591232,27250
1489.52,1.337021,587853,27055
1492.68,1.337877,583875,26819
1496.89,1.335122,578062,26721
1500.03,1.343608,574159,26027
1503.18,1.330574,570285,26639
1506.32,1.330687,565444,26406
1509.45,1.325647,560571,26484
1512.58,1.330781,555821,25951
1515.71,1.347656,550344,24716
1519.87,1.330017,543983,25443
1522.99,1.332764,538764,25040
1526.1,1.328760,533692,25034
1529.21,1.328329,527902,24787
1532.32,1.329866,521886,24418
1535.42,1.333831,515888,23918
1538.51,1.337546,509987,23443
1541.6,1.336700,503936,23210
1545.72,1.337145,494694,22761
1548.8,1.332138,488378,22731
1551.88,1.327578,481832,22663
1554.95,1.329822,474989,22226
1558.02,1.331143,467818,21824
1561.08,1.325568,460730,21771
1564.15,1.330637,454170,21212
1568.22,1.329434,444181,20803
1571.27,1.335314,436947,20189
1574.32,1.327324,429598,20218
1577.36,1.325062,422039,19966
1580.4,1.326091,414375,19557
1583.43,1.329945,406354,19009
1586.46,1.329396,398475,18664
1590.49,1.325962,388982,18364
1593.51,1.324259,380708,18044
1596.53,1.319048,372727,17879
1599.54,1.330131,365060,17070
1602.55,1.328122,357543,16796
1605.55,1.328730,349495,16395
1608.55,1.324724,341154,16152
1612.54,1.316879,330877,15951
1615.53,1.313201,322904,15699
1618.51,1.320242,315116,15074
1621.49,1.315047,307217,14873
1624.47,1.313417,299481,14553
1627.44,1.311430,292112,14260
1630.41,1.307596,284245,13999
1634.36,1.293084,274079,13957
1637.32,1.303766,266916,13262
1640.27,1.313472,259612,12614
1643.22,1.297704,251804,12687
1646.16,1.305690,244348,12087
1649.1,1.317223,236703,11402
1652.04,1.293765,228171,11601
1655.95,1.291751,215408,11003
1658.88,1.275071,204937,10878
1661.8,1.299360,193395,9707
1664.72,1.259859,179728,9880
1667.63,1.257294,163642,9049
1670.54,1.219319,146312,8830
1673.44,1.196090,128451,8178
1677.31,1.201187,105080,6612
1680.21,1.191991,88906,5714
1683.1,1.155590,75033,5244
1685.99,1.159557,63520,4399
1688.87,1.164240,53714,3680
1691.75,1.199474,45653,2884
1694.62,1.212919,39137,2397
1697.49,1.075902,33776,2836
1701.31,1.243038,28175,1610