File: ML/samples/unknown/Column 1_078367_20241121_165834.csv
Method:,Column 1,,
Host Date-Time:,21/11/24 @ 16:58:34,,
Header Version:,1,,
System Temp (C):,34.92,,
Detector Temp (C):,33.41,,
Humidity (%):,2.06,,
Lamp PD:,3801,,
Shift Vector Coefficients:,-10.5391,0.0761263,-0.000134223,,
Pixel to Wavelength Coefficients:,1775.68,-0.916766,-0.000235065,,
Serial Number:,5510004,,
Scan Config Name:,Column 1,,
Scan Config Type:,Slew,,
Section 1,,
Start wavelength (nm):,900,,
End wavelength (nm):,1700,,
Pattern Pixel Width (nm):,   7.03,,,,
Exposure (ms):,  0.635,,,,
Digital Resolution:,228,,
Num Repeats:,6,,
PGA Gain:,64,,
Total Measurement Time in sec:,  2.704,,
Wavelength (nm),Absorbance (AU),Reference Signal (unitless),Sample Signal (unitless)
901.51,1.308724,108485,5329
905.376,1.348523,121306,5437
909.237,1.333027,131909,6127
913.095,1.318907,143299,6876
916.948,1.332765,156982,7296
922.079,1.321380,179937,8585
925.923,1.322666,200504,9538
929.762,1.341519,222660,10142
933.597,1.327412,244426,11501
937.427,1.331512,263972,12304
941.254,1.316216,281845,13608
945.076,1.322580,297271,14144
950.165,1.308644,315605,15506
953.978,1.318356,328029,15760
957.786,1.319066,340470,16331
961.59,1.321237,352317,16815
965.389,1.307218,363056,17896
969.185,1.304890,373162,18493
972.976,1.308993,382632,18784
976.763,1.310913,391202,19120
981.806,1.298789,400190,20113
985.583,1.315457,406088,19641
989.355,1.302900,410162,20420
993.124,1.309451,412868,20247
996.888,1.310401,414263,20271
1000.65,1.309662,415476,20365
1004.4,1.317563,415479,19998
1009.41,1.314915,414358,20066
1013.15,1.312220,412923,20121
1016.89,1.311223,411526,20099
1020.63,1.307152,409066,20167
1024.36,1.308565,406777,19989
1028.09,1.309736,404427,19820
1031.82,1.312539,401911,19570
1036.78,1.307853,398410,19610
1040.49,1.311530,396204,19337
1044.2,1.307955,394236,19400
1047.91,1.309173,392042,19238
1051.61,1.312548,389823,18981
1055.31,1.312310,388234,18914
1059,1.317448,387599,18661
1063.92,1.314637,386688,18738
1067.61,1.314281,386598,18749
1071.29,1.314855,387377,18762
1074.96,1.309058,388536,19071
1078.63,1.311556,389855,19026
1082.3,1.318096,391215,18807
1085.96,1.321791,393215,18743
1090.84,1.322634,396270,18852
1094.49,1.318588,398760,19148
1098.14,1.315060,400987,19412
1101.79,1.318353,403477,19385
1105.43,1.317104,406116,19568
1109.06,1.326204,407701,19237
1112.7,1.319382,409859,19645
1117.53,1.314974,412494,19973
1121.15,1.317749,414909,19962
1124.77,1.315401,416559,20150
1128.38,1.321046,418532,19984
1131.99,1.321458,419956,20033
1135.6,1.315712,421946,20396
1139.2,1.317933,423881,20385
1143.99,1.320793,426786,20390
1147.58,1.315847,428617,20712
1151.17,1.321160,431169,20582
1154.75,1.315636,433579,20962
1158.33,1.318628,436264,20947
1161.91,1.306195,439132,21697
1165.48,1.320679,442389,21141
1169.04,1.317500,446101,21475
1173.79,1.319532,451929,21654
1177.34,1.310510,456026,22309
1180.9,1.321527,461306,22002
1184.44,1.313691,467657,22711
1187.99,1.321430,473969,22611
1191.52,1.319648,479856,22986
1195.06,1.321494,487372,23247
1199.76,1.325703,497347,23494
1203.29,1.313479,504311,24503
1206.81,1.323835,511507,24267
1210.33,1.313574,519078,25215
1213.84,1.326112,527163,24879
1217.35,1.323270,534208,25377
1220.85,1.320078,540472,25864
1225.51,1.326806,549929,25912
1229.01,1.323654,556888,26431
1232.5,1.322958,562180,26725
1235.98,1.330805,567975,26517
1239.46,1.324401,574815,27235
1242.94,1.329694,582782,27278
1246.41,1.326115,591476,27914
1251.03,1.332729,604016,28075
1254.5,1.326224,612289,28889
1257.96,1.324229,619125,29346
1261.41,1.326660,624551,29438
1264.86,1.327731,629900,29617
1268.31,1.327993,634345,29808
1271.75,1.328090,638574,30000
1276.33,1.327549,642499,30222
1279.76,1.329185,645905,30268
1283.19,1.332522,648307,30148
1286.61,1.326823,650446,30647
1290.03,1.328061,652132,30639
1293.44,1.328930,653907,30661
1296.85,1.330194,655963,30668
1301.39,1.326757,657349,30977
1304.8,1.331929,657558,30620
1308.19,1.334579,658515,30478
1311.58,1.337357,658804,30297
1314.97,1.328485,659011,30932
1318.36,1.332954,658272,30581
1321.73,1.333229,658022,30550
1326.23,1.330493,657870,30736
1329.6,1.336253,656482,30267
1332.97,1.338651,654926,30029
1336.33,1.328527,653727,30681
1339.69,1.334902,652497,30177
1343.04,1.327944,649913,30543
1346.39,1.337590,647671,29769
1349.73,1.337484,645338,29669
1354.18,1.330971,641175,29923
1357.52,1.330569,638376,29820
1360.85,1.332032,635805,29600
1364.17,1.326975,633413,29834
1367.49,1.328800,631026,29597
1370.81,1.329558,628050,29406
1374.12,1.324465,625034,29610
1378.54,1.331234,620272,28930
1381.84,1.330214,616892,28840
1385.14,1.327493,613613,28867
1388.43,1.322686,611526,29089
1391.72,1.330089,610663,28557
1395.01,1.329658,610634,28584
1398.29,1.322243,611700,29127
1402.66,1.334351,614051,28435
1405.93,1.333312,616268,28606
1409.2,1.336854,617795,28444
1412.46,1.329158,618872,29003
1415.72,1.330554,619795,28953
1418.98,1.329532,620495,29054
1422.23,1.331084,621087,28978
1426.56,1.333630,621375,28822
1429.8,1.330600,621616,29035
1433.04,1.338320,622129,28547
1436.27,1.334399,621526,28778
1439.5,1.338966,621113,28458
1442.72,1.338634,620921,28471
1445.94,1.332616,620270,28838
1450.23,1.337083,618860,28478
1453.44,1.335154,617697,28551
1456.64,1.341200,616264,28091
1459.85,1.338643,614413,28172
1463.04,1.339827,612307,27999
1466.24,1.339857,610032,27893
1469.43,1.336448,607345,27989
1473.67,1.340842,603789,27545
1476.85,1.340269,601175,27462
1480.02,1.340029,597737,27320
1483.19,1.338133,594479,27290
1486.36,1.343073,591232,26834
1489.52,1.340211,587853,26857
1492.68,1.341096,583875,26621
1496.89,1.339204,578062,26471
1500.03,1.340217,574159,26231
1503.18,1.335278,570285,26352
1506.32,1.337985,565444,25966
1509.45,1.337011,560571,25800
1512.58,1.337289,555821,25565
1515.71,1.337411,550344,25306
1519.87,1.342554,543983,24719
1522.99,1.337858,538764,24748
1526.1,1.338781,533692,24463
1529.21,1.337340,527902,24278
1532.32,1.344241,521886,23623
1535.42,1.336088,515888,23794
1538.51,1.332628,509987,23710
1541.6,1.331918,503936,23467
1545.72,1.337050,494694,22766
1548.8,1.338954,488378,22377
1551.88,1.332745,481832,22395
1554.95,1.334142,474989,22006
1558.02,1.330030,467818,21880
1561.08,1.336537,460730,21228
1564.15,1.338196,454170,20846
1568.22,1.335256,444181,20526
1571.27,1.331033,436947,20389
1574.32,1.334122,429598,19904
1577.36,1.333097,422039,19600
1580.4,1.336724,414375,19084
1583.43,1.333271,406354,18864
1586.46,1.327446,398475,18748
1590.49,1.331005,388982,18152
1593.51,1.340093,380708,17398
1596.53,1.332192,372727,17346
1599.54,1.323967,365060,17314
1602.55,1.348557,357543,16024
1605.55,1.321323,349495,16677
1608.55,1.320497,341154,16310
1612.54,1.334068,330877,15332
1615.53,1.330384,322904,15090
1618.51,1.331804,315116,14678
1621.49,1.312659,307217,14955
1624.47,1.312850,299481,14572
1627.44,1.321006,292112,13949
1630.41,1.329678,284245,13305
1634.36,1.311614,274079,13374
1637.32,1.315247,266916,12916
1640.27,1.319854,259612,12430
1643.22,1.312749,251804,12255
1646.16,1.319341,244348,11713
1649.1,1.314981,236703,11461
1652.04,1.303877,228171,11334
1655.95,1.306198,215408,10643
1658.88,1.316073,204937,9898
1661.8,1.275721,193395,10250
1664.72,1.275067,179728,9540
1667.63,1.247471,163642,9256
1670.54,1.241984,146312,8381
1673.44,1.234198,128451,7491
1677.31,1.167944,105080,7138
1680.21,1.186628,88906,5785
1683.1,1.122129,75033,5664
1685.99,1.153965,63520,4456
1688.87,1.143500,53714,3860
1691.75,1.169230,45653,3092
1694.62,1.168196,39137,2657
1697.49,1.250999,33776,1895
1701.31,1.252859,28175,1574