File: ML/samples/unknown/Column 1_078102_20241121_164534.csv
Method:,Column 1,,
Host Date-Time:,21/11/24 @ 16:45:34,,
Header Version:,1,,
System Temp (C):,32.38,,
Detector Temp (C):,27.54,,
Humidity (%):,4.1,,
Lamp PD:,3807,,
Shift Vector Coefficients:,-10.5391,0.0761263,-0.000134223,,
Pixel to Wavelength Coefficients:,1775.68,-0.916766,-0.000235065,,
Serial Number:,5510004,,
Scan Config Name:,Column 1,,
Scan Config Type:,Slew,,
Section 1,,
Start wavelength (nm):,900,,
End wavelength (nm):,1700,,
Pattern Pixel Width (nm):,   7.03,,,,
Exposure (ms):,  0.635,,,,
Digital Resolution:,228,,
Num Repeats:,6,,
PGA Gain:,64,,
Total Measurement Time in sec:,  2.720,,
Wavelength (nm),Absorbance (AU),Reference Signal (unitless),Sample Signal (unitless)
901.51,1.284091,108485,5640
905.376,1.321804,121306,5782
909.237,1.331046,131909,6155
913.095,1.314696,143299,6943
916.948,1.312529,156982,7644
922.079,1.303006,179937,8956
925.923,1.318046,200504,9640
929.762,1.316355,222660,10747
933.597,1.309002,244426,11999
937.427,1.311743,263972,12877
941.254,1.319677,281845,13500
945.076,1.318333,297271,14283
950.165,1.320483,315605,15089
953.978,1.307256,328029,16168
957.786,1.309258,340470,16704
961.59,1.315082,352317,17055
965.389,1.303376,363056,18055
969.185,1.312973,373162,18152
972.976,1.313969,382632,18570
976.763,1.312757,391202,19039
981.806,1.299914,400190,20061
985.583,1.313163,406088,19745
989.355,1.307239,410162,20217
993.124,1.311213,412868,20165
996.888,1.307731,414263,20396
1000.65,1.308278,415476,20430
1004.4,1.314597,415479,20135
1009.41,1.316433,414358,19996
1013.15,1.315448,412923,19972
1016.89,1.312261,411526,20051
1020.63,1.316798,409066,19724
1024.36,1.300749,406777,20352
1028.09,1.308839,404427,19861
1031.82,1.305561,401911,19887
1036.78,1.312305,398410,19410
1040.49,1.303739,396204,19687
1044.2,1.317620,394236,18973
1047.91,1.314945,392042,18984
1051.61,1.308789,389823,19146
1055.31,1.313967,388234,18842
1059,1.315567,387599,18742
1063.92,1.313758,386688,18776
1067.61,1.313125,386598,18799
1071.29,1.310181,387377,18965
1074.96,1.317009,388536,18725
1078.63,1.308417,389855,19164
1082.3,1.321294,391215,18669
1085.96,1.319872,393215,18826
1090.84,1.318119,396270,19049
1094.49,1.321341,398760,19027
1098.14,1.319874,400987,19198
1101.79,1.316542,403477,19466
1105.43,1.320356,406116,19422
1109.06,1.317156,407701,19642
1112.7,1.319648,409859,19633
1117.53,1.314800,412494,19981
1121.15,1.324657,414909,19647
1124.77,1.315962,416559,20124
1128.38,1.327240,418532,19701
1131.99,1.319727,419956,20113
1135.6,1.317996,421946,20289
1139.2,1.319470,423881,20313
1143.99,1.322843,426786,20294
1147.58,1.322439,428617,20400
1151.17,1.321878,431169,20548
1154.75,1.327694,433579,20388
1158.33,1.319977,436264,20882
1161.91,1.328264,439132,20622
1165.48,1.323068,442389,21025
1169.04,1.318999,446101,21401
1173.79,1.323724,451929,21446
1177.34,1.318367,456026,21909
1180.9,1.316796,461306,22243
1184.44,1.322461,467657,22257
1187.99,1.324050,473969,22475
1191.52,1.321503,479856,22888
1195.06,1.319629,487372,23347
1199.76,1.318334,497347,23896
1203.29,1.318919,504311,24198
1206.81,1.323871,511507,24265
1210.33,1.321061,519078,24784
1213.84,1.328967,527163,24716
1217.35,1.320184,534208,25558
1220.85,1.325450,540472,25546
1225.51,1.325718,549929,25977
1229.01,1.323868,556888,26418
1232.5,1.325402,562180,26575
1235.98,1.323207,567975,26985
1239.46,1.324082,574815,27255
1242.94,1.325432,582782,27547
1246.41,1.331926,591476,27543
1251.03,1.322184,604016,28765
1254.5,1.323975,612289,29039
1257.96,1.327826,619125,29104
1261.41,1.325069,624551,29546
1264.86,1.334454,629900,29162
1268.31,1.327585,634345,29836
1271.75,1.328756,638574,29954
1276.33,1.329551,642499,30083
1279.76,1.330752,645905,30159
1283.19,1.328208,648307,30449
1286.61,1.325197,650446,30762
1290.03,1.335437,652132,30123
1293.44,1.330988,653907,30516
1296.85,1.329543,655963,30714
1301.39,1.337717,657349,30205
1304.8,1.327484,657558,30935
1308.19,1.329959,658515,30804
1311.58,1.332808,658804,30616
1314.97,1.336434,659011,30371
1318.36,1.332358,658272,30623
1321.73,1.337515,658022,30250
1326.23,1.327592,657870,30942
1329.6,1.339219,656482,30061
1332.97,1.333948,654926,30356
1336.33,1.333095,653727,30360
1339.69,1.330635,652497,30475
1343.04,1.330739,649913,30347
1346.39,1.330801,647671,30238
1349.73,1.329967,645338,30187
1354.18,1.335230,641175,29631
1357.52,1.337025,638376,29380
1360.85,1.329414,635805,29779
1364.17,1.331894,633413,29498
1367.49,1.327174,631026,29708
1370.81,1.331364,628050,29284
1374.12,1.333596,625034,28994
1378.54,1.331624,620272,28904
1381.84,1.332645,616892,28679
1385.14,1.329121,613613,28759
1388.43,1.334460,611526,28311
1391.72,1.324408,610663,28933
1395.01,1.326554,610634,28789
1398.29,1.332762,611700,28430
1402.66,1.332385,614051,28564
1405.93,1.333586,616268,28588
1409.2,1.333371,617795,28673
1412.46,1.324274,618872,29331
1415.72,1.334820,619795,28670
1418.98,1.329906,620495,29029
1422.23,1.338887,621087,28462
1426.56,1.342258,621375,28255
1429.8,1.334582,621616,28770
1433.04,1.333043,622129,28896
1436.27,1.337853,621526,28550
1439.5,1.335516,621113,28685
1442.72,1.339550,620921,28411
1445.94,1.336108,620270,28607
1450.23,1.339070,618860,28348
1453.44,1.332954,617697,28696
1456.64,1.336066,616264,28425
1459.85,1.335907,614413,28350
1463.04,1.335797,612307,28260
1466.24,1.342747,610032,27708
1469.43,1.339016,607345,27824
1473.67,1.341726,603789,27489
1476.85,1.337824,601175,27617
1480.02,1.340936,597737,27263
1483.19,1.341552,594479,27076
1486.36,1.333500,591232,27432
1489.52,1.344191,587853,26612
1492.68,1.340053,583875,26685
1496.89,1.332190,578062,26902
1500.03,1.337017,574159,26425
1503.18,1.334751,570285,26384
1506.32,1.340450,565444,25819
1509.45,1.338985,560571,25683
1512.58,1.343569,555821,25198
1515.71,1.335202,550344,25435
1519.87,1.343909,543983,24642
1522.99,1.344365,538764,24380
1526.1,1.342364,533692,24262
1529.21,1.339043,527902,24183
1532.32,1.335414,521886,24108
1535.42,1.337184,515888,23734
1538.51,1.343759,509987,23110
1541.6,1.332585,503936,23431
1545.72,1.342173,494694,22499
1548.8,1.338566,488378,22397
1551.88,1.336523,481832,22201
1554.95,1.336755,474989,21874
1558.02,1.341432,467818,21313
1561.08,1.339617,460730,21078
1564.15,1.346398,454170,20456
1568.22,1.345857,444181,20031
1571.27,1.339942,436947,19975
1574.32,1.331555,429598,20022
1577.36,1.339660,422039,19306
1580.4,1.329390,414375,19409
1583.43,1.333363,406354,18860
1586.46,1.336481,398475,18362
1590.49,1.346395,388982,17520
1593.51,1.334118,380708,17639
1596.53,1.337127,372727,17150
1599.54,1.335867,365060,16846
1602.55,1.334032,357543,16569
1605.55,1.335887,349495,16127
1608.55,1.317630,341154,16418
1612.54,1.327713,330877,15558
1615.53,1.328718,322904,15148
1618.51,1.325547,315116,14891
1621.49,1.320571,307217,14685
1624.47,1.324295,299481,14193
1627.44,1.327247,292112,13750
1630.41,1.331215,284245,13258
1634.36,1.323465,274079,13014
1637.32,1.314776,266916,12930
1640.27,1.338778,259612,11900
1643.22,1.317883,251804,12111
1646.16,1.307815,244348,12028
1649.1,1.315285,236703,11453
1652.04,1.304146,228171,11327
1655.95,1.298513,215408,10833
1658.88,1.310753,204937,10020
1661.8,1.308905,193395,9496
1664.72,1.324839,179728,8507
1667.63,1.302471,163642,8155
1670.54,1.299111,146312,7348
1673.44,1.293824,128451,6530
1677.31,1.289609,105080,5394
1680.21,1.270322,88906,4771
1683.1,1.319553,75033,3595
1685.99,1.269138,63520,3418
1688.87,1.263368,53714,2929
1691.75,1.271546,45653,2443
1694.62,1.251351,39137,2194
1697.49,1.341370,33776,1539
1701.31,1.214588,28175,1719