File: ML/samples/unknown/Column 1_078985_20241121_173141.csv
Method:,Column 1,,
Host Date-Time:,21/11/24 @ 17:31:41,,
Header Version:,1,,
System Temp (C):,37.57,,
Detector Temp (C):,36.96,,
Humidity (%):,0.59,,
Lamp PD:,3795,,
Shift Vector Coefficients:,-10.5391,0.0761263,-0.000134223,,
Pixel to Wavelength Coefficients:,1775.68,-0.916766,-0.000235065,,
Serial Number:,5510004,,
Scan Config Name:,Column 1,,
Scan Config Type:,Slew,,
Section 1,,
Start wavelength (nm):,900,,
End wavelength (nm):,1700,,
Pattern Pixel Width (nm):,   7.03,,,,
Exposure (ms):,  0.635,,,,
Digital Resolution:,228,,
Num Repeats:,6,,
PGA Gain:,64,,
Total Measurement Time in sec:,  2.725,,
Wavelength (nm),Absorbance (AU),Reference Signal (unitless),Sample Signal (unitless)
901.51,1.317450,108485,5223
905.376,1.333065,121306,5634
909.237,1.320245,131909,6310
913.095,1.311828,143299,6989
916.948,1.323111,156982,7460
922.079,1.329138,179937,8433
925.923,1.333687,200504,9299
929.762,1.334679,222660,10303
933.597,1.322941,244426,11620
937.427,1.331688,263972,12299
941.254,1.319451,281845,13507
945.076,1.313946,297271,14428
950.165,1.309794,315605,15465
953.978,1.326899,328029,15453
957.786,1.313806,340470,16530
961.59,1.306659,352317,17389
965.389,1.310702,363056,17753
969.185,1.309233,373162,18309
972.976,1.313595,382632,18586
976.763,1.310800,391202,19125
981.806,1.307690,400190,19705
985.583,1.310597,406088,19862
989.355,1.306638,410162,20245
993.124,1.306032,412868,20407
996.888,1.310251,414263,20278
1000.65,1.310601,415476,20321
1004.4,1.301615,415479,20746
1009.41,1.303593,414358,20596
1013.15,1.305920,412923,20415
1016.89,1.305812,411526,20351
1020.63,1.305862,409066,20227
1024.36,1.308500,406777,19992
1028.09,1.314628,404427,19598
1031.82,1.307004,401911,19821
1036.78,1.310340,398410,19498
1040.49,1.314776,396204,19193
1044.2,1.307440,394236,19423
1047.91,1.309692,392042,19215
1051.61,1.309062,389823,19134
1055.31,1.303829,388234,19287
1059,1.310521,387599,18961
1063.92,1.315194,386688,18714
1067.61,1.321075,386598,18458
1071.29,1.308513,387377,19038
1074.96,1.316476,388536,18748
1078.63,1.317393,389855,18772
1082.3,1.308843,391215,19212
1085.96,1.307299,393215,19379
1090.84,1.314599,396270,19204
1094.49,1.311792,398760,19450
1098.14,1.307959,400987,19732
1101.79,1.313341,403477,19610
1105.43,1.319306,406116,19469
1109.06,1.309529,407701,19990
1112.7,1.312452,409859,19961
1117.53,1.314627,412494,19989
1121.15,1.307855,414909,20422
1124.77,1.317302,416559,20062
1128.38,1.319333,418532,20063
1131.99,1.319619,419956,20118
1135.6,1.305589,421946,20877
1139.2,1.323983,423881,20103
1143.99,1.313171,426786,20751
1147.58,1.318856,428617,20569
1151.17,1.318908,431169,20689
1154.75,1.321917,433579,20661
1158.33,1.322459,436264,20763
1161.91,1.318704,439132,21081
1165.48,1.312760,442389,21530
1169.04,1.316288,446101,21535
1173.79,1.324393,451929,21413
1177.34,1.316113,456026,22023
1180.9,1.316132,461306,22277
1184.44,1.312374,467657,22780
1187.99,1.314816,473969,22958
1191.52,1.315024,479856,23232
1195.06,1.314728,487372,23612
1199.76,1.310000,497347,24359
1203.29,1.313196,504311,24519
1206.81,1.327141,511507,24083
1210.33,1.320974,519078,24789
1213.84,1.320837,527163,25183
1217.35,1.323938,534208,25338
1220.85,1.314439,540472,26202
1225.51,1.309667,549929,26955
1229.01,1.324674,556888,26369
1232.5,1.319946,562180,26911
1235.98,1.320112,567975,27178
1239.46,1.317974,574815,27641
1242.94,1.320322,582782,27873
1246.41,1.321119,591476,28237
1251.03,1.323939,604016,28649
1254.5,1.329256,612289,28688
1257.96,1.322678,619125,29451
1261.41,1.320536,624551,29856
1264.86,1.323920,629900,29878
1268.31,1.323687,634345,30105
1271.75,1.328945,638574,29941
1276.33,1.322563,642499,30571
1279.76,1.328454,645905,30319
1283.19,1.327581,648307,30493
1286.61,1.327930,650446,30569
1290.03,1.328274,652132,30624
1293.44,1.337484,653907,30063
1296.85,1.325994,655963,30966
1301.39,1.329542,657349,30779
1304.8,1.330654,657558,30710
1308.19,1.327933,658515,30948
1311.58,1.325912,658804,31106
1314.97,1.328990,659011,30896
1318.36,1.331394,658272,30691
1321.73,1.323349,658022,31253
1326.23,1.329378,657870,30815
1329.6,1.331942,656482,30569
1332.97,1.331252,654926,30545
1336.33,1.328938,653727,30652
1339.69,1.329596,652497,30548
1343.04,1.324714,649913,30771
1346.39,1.323283,647671,30766
1349.73,1.325004,645338,30534
1354.18,1.329812,641175,30003
1357.52,1.328375,638376,29971
1360.85,1.322455,635805,30260
1364.17,1.320459,633413,30285
1367.49,1.324391,631026,29899
1370.81,1.322686,628050,29875
1374.12,1.324509,625034,29607
1378.54,1.321878,620272,29560
1381.84,1.326331,616892,29099
1385.14,1.323435,613613,29138
1388.43,1.325998,611526,28868
1391.72,1.324784,610663,28908
1395.01,1.318321,610634,29340
1398.29,1.324995,611700,28943
1402.66,1.324610,614051,29080
1405.93,1.328151,616268,28948
1409.2,1.326623,617795,29122
1412.46,1.329398,618872,28987
1415.72,1.326122,619795,29250
1418.98,1.330985,620495,28957
1422.23,1.333248,621087,28834
1426.56,1.331645,621375,28954
1429.8,1.338860,621616,28488
1433.04,1.327992,622129,29234
1436.27,1.335003,621526,28738
1439.5,1.331372,621113,28960
1442.72,1.334640,620921,28734
1445.94,1.338148,620270,28473
1450.23,1.331416,618860,28852
1453.44,1.334941,617697,28565
1456.64,1.329109,616264,28884
1459.85,1.336659,614413,28301
1463.04,1.330801,612307,28587
1466.24,1.333275,610032,28319
1469.43,1.330668,607345,28364
1473.67,1.332009,603789,28111
1476.85,1.336302,601175,27714
1480.02,1.337146,597737,27502
1483.19,1.326885,594479,28006
1486.36,1.334277,591232,27383
1489.52,1.337342,587853,27035
1492.68,1.337683,583875,26831
1496.89,1.331496,578062,26945
1500.03,1.333009,574159,26670
1503.18,1.332469,570285,26523
1506.32,1.339409,565444,25881
1509.45,1.339120,560571,25675
1512.58,1.334850,555821,25709
1515.71,1.330397,550344,25718
1519.87,1.329590,543983,25468
1522.99,1.341347,538764,24550
1526.1,1.331755,533692,24862
1529.21,1.335110,527902,24403
1532.32,1.334012,521886,24186
1535.42,1.332272,515888,24004
1538.51,1.338956,509987,23367
1541.6,1.330901,503936,23522
1545.72,1.335812,494694,22831
1548.8,1.334436,488378,22611
1551.88,1.331331,481832,22468
1554.95,1.326571,474989,22393
1558.02,1.332757,467818,21743
1561.08,1.336169,460730,21246
1564.15,1.333595,454170,21068
1568.22,1.334220,444181,20575
1571.27,1.330756,436947,20402
1574.32,1.336222,429598,19808
1577.36,1.326325,422039,19908
1580.4,1.331634,414375,19309
1583.43,1.331158,406354,18956
1586.46,1.334687,398475,18438
1590.49,1.328881,388982,18241
1593.51,1.325127,380708,18008
1596.53,1.331491,372727,17374
1599.54,1.320743,365060,17443
1602.55,1.318659,357543,17166
1605.55,1.318209,349495,16797
1608.55,1.326962,341154,16069
1612.54,1.312194,330877,16124
1615.53,1.323475,322904,15332
1618.51,1.316484,315116,15205
1621.49,1.329143,307217,14398
1624.47,1.305492,299481,14821
1627.44,1.317904,292112,14049
1630.41,1.311867,284245,13862
1634.36,1.314449,274079,13287
1637.32,1.313937,266916,12955
1640.27,1.328927,259612,12173
1643.22,1.305092,251804,12473
1646.16,1.311733,244348,11920
1649.1,1.319361,236703,11346
1652.04,1.312273,228171,11117
1655.95,1.284354,215408,11192
1658.88,1.298867,204937,10298
1661.8,1.289277,193395,9935
1664.72,1.282876,179728,9370
1667.63,1.241785,163642,9378
1670.54,1.225212,146312,8711
1673.44,1.218932,128451,7759
1677.31,1.165638,105080,7176
1680.21,1.140383,88906,6435
1683.1,1.128696,75033,5579
1685.99,1.109008,63520,4942
1688.87,1.098137,53714,4285
1691.75,1.125062,45653,3423
1694.62,1.127353,39137,2919
1697.49,1.123091,33776,2544
1701.31,1.141300,28175,2035