File: ML/samples/unknown/Column 1_078542_20241121_170748.csv
Method:,Column 1,,
Host Date-Time:,21/11/24 @ 17:7:48,,
Header Version:,1,,
System Temp (C):,36.01,,
Detector Temp (C):,34.29,,
Humidity (%):,1.57,,
Lamp PD:,3800,,
Shift Vector Coefficients:,-10.5391,0.0761263,-0.000134223,,
Pixel to Wavelength Coefficients:,1775.68,-0.916766,-0.000235065,,
Serial Number:,5510004,,
Scan Config Name:,Column 1,,
Scan Config Type:,Slew,,
Section 1,,
Start wavelength (nm):,900,,
End wavelength (nm):,1700,,
Pattern Pixel Width (nm):,   7.03,,,,
Exposure (ms):,  0.635,,,,
Digital Resolution:,228,,
Num Repeats:,6,,
PGA Gain:,64,,
Total Measurement Time in sec:,  2.737,,
Wavelength (nm),Absorbance (AU),Reference Signal (unitless),Sample Signal (unitless)
901.51,1.337095,108485,4992
905.376,1.301195,121306,6063
909.237,1.311591,131909,6437
913.095,1.340201,143299,6547
916.948,1.334196,156982,7272
922.079,1.308423,179937,8845
925.923,1.323486,200504,9520
929.762,1.316517,222660,10743
933.597,1.320407,244426,11688
937.427,1.321670,263972,12586
941.254,1.316663,281845,13594
945.076,1.331045,297271,13871
950.165,1.313857,315605,15321
953.978,1.310789,328029,16037
957.786,1.304758,340470,16878
961.59,1.309415,352317,17279
965.389,1.298520,363056,18258
969.185,1.308261,373162,18350
972.976,1.312708,382632,18624
976.763,1.301032,391202,19560
981.806,1.307359,400190,19720
985.583,1.314816,406088,19670
989.355,1.306273,410162,20262
993.124,1.298500,412868,20764
996.888,1.301831,414263,20675
1000.65,1.298504,415476,20895
1004.4,1.314511,415479,20139
1009.41,1.309153,414358,20334
1013.15,1.308138,412923,20311
1016.89,1.298784,411526,20683
1020.63,1.307561,409066,20148
1024.36,1.310111,406777,19918
1028.09,1.311471,404427,19741
1031.82,1.313517,401911,19526
1036.78,1.294420,398410,20226
1040.49,1.303320,396204,19706
1044.2,1.312908,394236,19180
1047.91,1.311391,392042,19140
1051.61,1.304433,389823,19339
1055.31,1.312058,388234,18925
1059,1.310682,387599,18954
1063.92,1.313873,386688,18771
1067.61,1.311488,386598,18870
1071.29,1.313514,387377,18820
1074.96,1.309354,388536,19058
1078.63,1.308689,389855,19152
1082.3,1.306701,391215,19307
1085.96,1.304685,393215,19496
1090.84,1.306978,396270,19544
1094.49,1.308101,398760,19616
1098.14,1.315799,400987,19379
1101.79,1.312191,403477,19662
1105.43,1.308598,406116,19955
1109.06,1.322786,407701,19389
1112.7,1.315290,409859,19831
1117.53,1.304003,412494,20484
1121.15,1.324789,414909,19641
1124.77,1.326270,416559,19652
1128.38,1.316033,418532,20216
1131.99,1.316264,419956,20274
1135.6,1.321219,421946,20139
1139.2,1.313545,423881,20592
1143.99,1.320048,426786,20425
1147.58,1.322823,428617,20382
1151.17,1.318363,431169,20715
1154.75,1.312230,433579,21127
1158.33,1.317675,436264,20993
1161.91,1.311877,439132,21415
1165.48,1.317649,442389,21289
1169.04,1.315865,446101,21556
1173.79,1.309598,451929,22155
1177.34,1.315739,456026,22042
1180.9,1.316366,461306,22265
1184.44,1.308974,467657,22959
1187.99,1.319284,473969,22723
1191.52,1.315137,479856,23226
1195.06,1.320822,487372,23283
1199.76,1.323214,497347,23629
1203.29,1.321222,504311,24070
1206.81,1.322852,511507,24322
1210.33,1.309306,519078,25464
1213.84,1.311353,527163,25739
1217.35,1.312620,534208,26007
1220.85,1.315883,540472,26115
1225.51,1.320896,549929,26267
1229.01,1.319680,556888,26674
1232.5,1.320931,562180,26850
1235.98,1.312870,567975,27635
1239.46,1.315436,574815,27803
1242.94,1.318007,582782,28022
1246.41,1.325431,591476,27958
1251.03,1.324000,604016,28645
1254.5,1.322229,612289,29156
1257.96,1.325237,619125,29278
1261.41,1.323177,624551,29675
1264.86,1.322136,629900,30001
1268.31,1.320969,634345,30294
1271.75,1.321082,638574,30488
1276.33,1.325757,642499,30347
1279.76,1.326040,645905,30488
1283.19,1.325591,648307,30633
1286.61,1.324646,650446,30801
1290.03,1.322638,652132,31024
1293.44,1.329213,653907,30641
1296.85,1.325336,655963,31013
1301.39,1.330757,657349,30693
1304.8,1.324323,657558,31161
1308.19,1.331569,658515,30690
1311.58,1.326471,658804,31066
1314.97,1.326761,659011,31055
1318.36,1.328306,658272,30910
1321.73,1.324880,658022,31143
1326.23,1.330804,657870,30714
1329.6,1.327025,656482,30917
1332.97,1.329181,654926,30691
1336.33,1.326409,653727,30831
1339.69,1.323679,652497,30967
1343.04,1.324333,649913,30798
1346.39,1.323100,647671,30779
1349.73,1.325388,645338,30507
1354.18,1.325749,641175,30285
1357.52,1.324911,638376,30211
1360.85,1.325913,635805,30020
1364.17,1.326757,633413,29849
1367.49,1.321986,631026,30065
1370.81,1.331230,628050,29293
1374.12,1.327822,625034,29382
1378.54,1.324264,620272,29398
1381.84,1.325779,616892,29136
1385.14,1.325452,613613,29003
1388.43,1.328397,611526,28709
1391.72,1.320211,610663,29214
1395.01,1.323623,610634,28984
1398.29,1.329065,611700,28673
1402.66,1.326916,614051,28926
1405.93,1.327192,616268,29012
1409.2,1.322630,617795,29391
1412.46,1.326873,618872,29156
1415.72,1.328938,619795,29061
1418.98,1.325989,620495,29292
1422.23,1.327012,621087,29251
1426.56,1.327986,621375,29199
1429.8,1.327040,621616,29274
1433.04,1.328066,622129,29229
1436.27,1.331376,621526,28979
1439.5,1.330099,621113,29045
1442.72,1.329995,620921,29043
1445.94,1.335744,620270,28631
1450.23,1.328835,618860,29024
1453.44,1.331368,617697,28801
1456.64,1.332506,616264,28659
1459.85,1.337980,614413,28215
1463.04,1.331485,612307,28542
1466.24,1.325629,610032,28822
1469.43,1.332832,607345,28223
1473.67,1.334457,603789,27953
1476.85,1.328875,601175,28192
1480.02,1.335161,597737,27628
1483.19,1.333385,594479,27590
1486.36,1.335007,591232,27337
1489.52,1.335115,587853,27174
1492.68,1.335826,583875,26946
1496.89,1.334764,578062,26743
1500.03,1.334935,574159,26552
1503.18,1.330819,570285,26624
1506.32,1.333691,565444,26224
1509.45,1.335499,560571,25890
1512.58,1.334850,555821,25709
1515.71,1.332360,550344,25602
1519.87,1.331573,543983,25352
1522.99,1.333945,538764,24972
1526.1,1.333137,533692,24783
1529.21,1.329031,527902,24747
1532.32,1.333115,521886,24236
1535.42,1.331621,515888,24040
1538.51,1.325398,509987,24108
1541.6,1.335560,503936,23271
1545.72,1.339058,494694,22661
1548.8,1.335687,488378,22546
1551.88,1.327253,481832,22680
1554.95,1.336477,474989,21888
1558.02,1.330665,467818,21848
1561.08,1.346910,460730,20727
1564.15,1.333966,454170,21050
1568.22,1.331359,444181,20711
1571.27,1.329162,436947,20477
1574.32,1.329607,429598,20112
1577.36,1.329500,422039,19763
1580.4,1.327248,414375,19505
1583.43,1.336900,406354,18707
1586.46,1.332502,398475,18531
1590.49,1.327550,388982,18297
1593.51,1.336661,380708,17536
1596.53,1.321826,372727,17765
1599.54,1.316038,365060,17633
1602.55,1.327296,357543,16828
1605.55,1.322758,349495,16622
1608.55,1.323596,341154,16194
1612.54,1.313489,330877,16076
1615.53,1.317986,322904,15527
1618.51,1.318804,315116,15124
1621.49,1.316304,307217,14830
1624.47,1.324112,299481,14199
1627.44,1.312619,292112,14221
1630.41,1.323745,284245,13488
1634.36,1.313861,274079,13305
1637.32,1.319436,266916,12792
1640.27,1.315543,259612,12554
1643.22,1.310381,251804,12322
1646.16,1.303468,244348,12149
1649.1,1.310945,236703,11568
1652.04,1.303839,228171,11335
1655.95,1.300321,215408,10788
1658.88,1.284556,204937,10643
1661.8,1.277888,193395,10199
1664.72,1.256356,179728,9960
1667.63,1.262654,163642,8938
1670.54,1.252420,146312,8182
1673.44,1.223603,128451,7676
1677.31,1.192667,105080,6743
1680.21,1.173102,88906,5968
1683.1,1.168705,75033,5088
1685.99,1.165521,63520,4339
1688.87,1.168390,53714,3645
1691.75,1.168809,45653,3095
1694.62,1.265229,39137,2125
1697.49,1.168394,33776,2292
1701.31,1.255350,28175,1565