File: ML/samples/unknown/Column 1_078467_20241121_170406.csv
Method:,Column 1,,
Host Date-Time:,21/11/24 @ 17:4:6,,
Header Version:,1,,
System Temp (C):,34.79,,
Detector Temp (C):,33.75,,
Humidity (%):,1.91,,
Lamp PD:,3801,,
Shift Vector Coefficients:,-10.5391,0.0761263,-0.000134223,,
Pixel to Wavelength Coefficients:,1775.68,-0.916766,-0.000235065,,
Serial Number:,5510004,,
Scan Config Name:,Column 1,,
Scan Config Type:,Slew,,
Section 1,,
Start wavelength (nm):,900,,
End wavelength (nm):,1700,,
Pattern Pixel Width (nm):,   7.03,,,,
Exposure (ms):,  0.635,,,,
Digital Resolution:,228,,
Num Repeats:,6,,
PGA Gain:,64,,
Total Measurement Time in sec:,  2.674,,
Wavelength (nm),Absorbance (AU),Reference Signal (unitless),Sample Signal (unitless)
901.51,1.312736,108485,5280
905.376,1.325879,121306,5728
909.237,1.319832,131909,6316
913.095,1.314196,143299,6951
916.948,1.334734,156982,7263
922.079,1.302473,179937,8967
925.923,1.334248,200504,9287
929.762,1.318177,222660,10702
933.597,1.328243,244426,11479
937.427,1.325796,263972,12467
941.254,1.321546,281845,13442
945.076,1.318637,297271,14273
950.165,1.317157,315605,15205
953.978,1.310086,328029,16063
957.786,1.313281,340470,16550
961.59,1.323412,352317,16731
965.389,1.304171,363056,18022
969.185,1.317084,373162,17981
972.976,1.302864,382632,19051
976.763,1.315090,391202,18937
981.806,1.298595,400190,20122
985.583,1.301445,406088,20285
989.355,1.311817,410162,20005
993.124,1.303274,412868,20537
996.888,1.306286,414263,20464
1000.65,1.296099,415476,21011
1004.4,1.300486,415479,20800
1009.41,1.301426,414358,20699
1013.15,1.315078,412923,19989
1016.89,1.318391,411526,19770
1020.63,1.301568,409066,20428
1024.36,1.306528,406777,20083
1028.09,1.314097,404427,19622
1031.82,1.305582,401911,19886
1036.78,1.314233,398410,19324
1040.49,1.309446,396204,19430
1044.2,1.313134,394236,19170
1047.91,1.314305,392042,19012
1051.61,1.303917,389823,19362
1055.31,1.315444,388234,18778
1059,1.321516,387599,18487
1063.92,1.300052,386688,19378
1067.61,1.309078,386598,18975
1071.29,1.317222,387377,18660
1074.96,1.310152,388536,19023
1078.63,1.322629,389855,18547
1082.3,1.312338,391215,19058
1085.96,1.314849,393215,19045
1090.84,1.311063,396270,19361
1094.49,1.310833,398760,19493
1098.14,1.314032,400987,19458
1101.79,1.316922,403477,19449
1105.43,1.307164,406116,20021
1109.06,1.314467,407701,19764
1112.7,1.314808,409859,19853
1117.53,1.320379,412494,19726
1121.15,1.310051,414909,20319
1124.77,1.316502,416559,20099
1128.38,1.320786,418532,19996
1131.99,1.308389,419956,20645
1135.6,1.308783,421946,20724
1139.2,1.315257,423881,20511
1143.99,1.315922,426786,20620
1147.58,1.319131,428617,20556
1151.17,1.316146,431169,20821
1154.75,1.324574,433579,20535
1158.33,1.316353,436264,21057
1161.91,1.317367,439132,21146
1165.48,1.316854,442389,21328
1169.04,1.318512,446101,21425
1173.79,1.318550,451929,21703
1177.34,1.318942,456026,21880
1180.9,1.310381,461306,22574
1184.44,1.311878,467657,22806
1187.99,1.318635,473969,22757
1191.52,1.316973,479856,23128
1195.06,1.317570,487372,23458
1199.76,1.328503,497347,23343
1203.29,1.315362,504311,24397
1206.81,1.317511,511507,24623
1210.33,1.321114,519078,24781
1213.84,1.320700,527163,25191
1217.35,1.324865,534208,25284
1220.85,1.331976,540472,25165
1225.51,1.319971,549929,26323
1229.01,1.319582,556888,26680
1232.5,1.318190,562180,27020
1235.98,1.323835,567975,26946
1239.46,1.322936,574815,27327
1242.94,1.325069,582782,27570
1246.41,1.324035,591476,28048
1251.03,1.327608,604016,28408
1254.5,1.325443,612289,28941
1257.96,1.321897,619125,29504
1261.41,1.328463,624551,29316
1264.86,1.327013,629900,29666
1268.31,1.326059,634345,29941
1271.75,1.325334,638574,30191
1276.33,1.329753,642499,30069
1279.76,1.327795,645905,30365
1283.19,1.327837,648307,30475
1286.61,1.327731,650446,30583
1290.03,1.332077,652132,30357
1293.44,1.331943,653907,30449
1296.85,1.328780,655963,30768
1301.39,1.335151,657349,30384
1304.8,1.329877,657558,30765
1308.19,1.333185,658515,30576
1311.58,1.328643,658804,30911
1314.97,1.331288,659011,30733
1318.36,1.331465,658272,30686
1321.73,1.329126,658022,30840
1326.23,1.332248,657870,30612
1329.6,1.330212,656482,30691
1332.97,1.333662,654926,30376
1336.33,1.330570,653727,30537
1339.69,1.328843,652497,30601
1343.04,1.329853,649913,30409
1346.39,1.334117,647671,30008
1349.73,1.330514,645338,30149
1354.18,1.325076,641175,30332
1357.52,1.326770,638376,30082
1360.85,1.327000,635805,29945
1364.17,1.326684,633413,29854
1367.49,1.325583,631026,29817
1370.81,1.325896,628050,29655
1374.12,1.332055,625034,29097
1378.54,1.319957,620272,29691
1381.84,1.326555,616892,29084
1385.14,1.325182,613613,29021
1388.43,1.327747,611526,28752
1391.72,1.326364,610663,28803
1395.01,1.327929,610634,28698
1398.29,1.326332,611700,28854
1402.66,1.322703,614051,29208
1405.93,1.326504,616268,29058
1409.2,1.328102,617795,29023
1412.46,1.335387,618872,28590
1415.72,1.328355,619795,29100
1418.98,1.330520,620495,28988
1422.23,1.335573,621087,28680
1426.56,1.331495,621375,28964
1429.8,1.328199,621616,29196
1433.04,1.331752,622129,28982
1436.27,1.335350,621526,28715
1439.5,1.325178,621113,29376
1442.72,1.336594,620921,28605
1445.94,1.336002,620270,28614
1450.23,1.334044,618860,28678
1453.44,1.337136,617697,28421
1456.64,1.329049,616264,28888
1459.85,1.334836,614413,28420
1463.04,1.332551,612307,28472
1466.24,1.331499,610032,28435
1469.43,1.337209,607345,27940
1473.67,1.332333,603789,28090
1476.85,1.337966,601175,27608
1480.02,1.332934,597737,27770
1483.19,1.338929,594479,27240
1486.36,1.332473,591232,27497
1489.52,1.333233,587853,27292
1492.68,1.333896,583875,27066
1496.89,1.341013,578062,26361
1500.03,1.333498,574159,26640
1503.18,1.341787,570285,25960
1506.32,1.336565,565444,26051
1509.45,1.335113,560571,25913
1512.58,1.336848,555821,25591
1515.71,1.339130,550344,25206
1519.87,1.335341,543983,25133
1522.99,1.336894,538764,24803
1526.1,1.341613,533692,24304
1529.21,1.337072,527902,24293
1532.32,1.335072,521886,24127
1535.42,1.334667,515888,23872
1538.51,1.330417,509987,23831
1541.6,1.331659,503936,23481
1545.72,1.333308,494694,22963
1548.8,1.327652,488378,22967
1551.88,1.339349,481832,22057
1554.95,1.330840,474989,22174
1558.02,1.337598,467818,21502
1561.08,1.336333,460730,21238
1564.15,1.328635,454170,21310
1568.22,1.333967,444181,20587
1571.27,1.328082,436947,20528
1574.32,1.342827,429598,19509
1577.36,1.335229,422039,19504
1580.4,1.336701,414375,19085
1583.43,1.330425,406354,18988
1586.46,1.337760,398475,18308
1590.49,1.333958,388982,18029
1593.51,1.327982,380708,17890
1596.53,1.328750,372727,17484
1599.54,1.319649,365060,17487
1602.55,1.332332,357543,16634
1605.55,1.326563,349495,16477
1608.55,1.319778,341154,16337
1612.54,1.327713,330877,15558
1615.53,1.315977,322904,15599
1618.51,1.329590,315116,14753
1621.49,1.312775,307217,14951
1624.47,1.326935,299481,14107
1627.44,1.323755,292112,13861
1630.41,1.326005,284245,13418
1634.36,1.322032,274079,13057
1637.32,1.304126,266916,13251
1640.27,1.317971,259612,12484
1643.22,1.303354,251804,12523
1646.16,1.308032,244348,12022
1649.1,1.316690,236703,11416
1652.04,1.298205,228171,11483
1655.95,1.286962,215408,11125
1658.88,1.297520,204937,10330
1661.8,1.278101,193395,10194
1664.72,1.277670,179728,9483
1667.63,1.259797,163642,8997
1670.54,1.258837,146312,8062
1673.44,1.240269,128451,7387
1677.31,1.206673,105080,6529
1680.21,1.200898,88906,5598
1683.1,1.195461,75033,4784
1685.99,1.173705,63520,4258
1688.87,1.179615,53714,3552
1691.75,1.138724,45653,3317
1694.62,1.172302,39137,2632
1697.49,1.216643,33776,2051
1701.31,1.207322,28175,1748