File: ML/samples/unknown/Column 1_078100_20241121_164528.csv
Method:,Column 1,,
Host Date-Time:,21/11/24 @ 16:45:28,,
Header Version:,1,,
System Temp (C):,32.31,,
Detector Temp (C):,27.46,,
Humidity (%):,4.2,,
Lamp PD:,3807,,
Shift Vector Coefficients:,-10.5391,0.0761263,-0.000134223,,
Pixel to Wavelength Coefficients:,1775.68,-0.916766,-0.000235065,,
Serial Number:,5510004,,
Scan Config Name:,Column 1,,
Scan Config Type:,Slew,,
Section 1,,
Start wavelength (nm):,900,,
End wavelength (nm):,1700,,
Pattern Pixel Width (nm):,   7.03,,,,
Exposure (ms):,  0.635,,,,
Digital Resolution:,228,,
Num Repeats:,6,,
PGA Gain:,64,,
Total Measurement Time in sec:,  2.707,,
Wavelength (nm),Absorbance (AU),Reference Signal (unitless),Sample Signal (unitless)
901.51,1.293824,108485,5515
905.376,1.317172,121306,5844
909.237,1.304033,131909,6550
913.095,1.329327,143299,6713
916.948,1.307783,156982,7728
922.079,1.306610,179937,8882
925.923,1.294503,200504,10177
929.762,1.305027,222660,11031
933.597,1.309836,244426,11976
937.427,1.317037,263972,12721
941.254,1.314051,281845,13676
945.076,1.312384,297271,14480
950.165,1.319219,315605,15133
953.978,1.317503,328029,15791
957.786,1.316759,340470,16418
961.59,1.310648,352317,17230
965.389,1.313549,363056,17637
969.185,1.308451,373162,18342
972.976,1.309919,382632,18744
976.763,1.305832,391202,19345
981.806,1.306963,400190,19738
985.583,1.306918,406088,20031
989.355,1.312230,410162,19986
993.124,1.299568,412868,20713
996.888,1.314426,414263,20084
1000.65,1.303584,415476,20652
1004.4,1.310198,415479,20340
1009.41,1.318501,414358,19901
1013.15,1.308972,412923,20272
1016.89,1.311980,411526,20064
1020.63,1.297652,409066,20613
1024.36,1.305556,406777,20128
1028.09,1.314318,404427,19612
1031.82,1.312362,401911,19578
1036.78,1.313537,398410,19355
1040.49,1.312564,396204,19291
1044.2,1.308290,394236,19385
1047.91,1.318851,392042,18814
1051.61,1.318887,389823,18706
1055.31,1.315028,388234,18796
1059,1.316518,387599,18701
1063.92,1.307625,386688,19043
1067.61,1.318097,386598,18585
1071.29,1.313837,387377,18806
1074.96,1.312143,388536,18936
1078.63,1.310052,389855,19092
1082.3,1.314440,391215,18966
1085.96,1.314302,393215,19069
1090.84,1.311445,396270,19344
1094.49,1.318067,398760,19171
1098.14,1.319535,400987,19213
1101.79,1.315472,403477,19514
1105.43,1.317748,406116,19539
1109.06,1.315325,407701,19725
1112.7,1.324363,409859,19421
1117.53,1.320291,412494,19730
1121.15,1.325187,414909,19623
1124.77,1.320126,416559,19932
1128.38,1.319701,418532,20046
1131.99,1.313914,419956,20384
1135.6,1.316181,421946,20374
1139.2,1.324048,423881,20100
1143.99,1.325612,426786,20165
1147.58,1.320273,428617,20502
1151.17,1.320338,431169,20621
1154.75,1.319256,433579,20788
1158.33,1.315385,436264,21104
1161.91,1.324950,439132,20780
1165.48,1.326948,442389,20838
1169.04,1.318411,446101,21430
1173.79,1.317112,451929,21775
1177.34,1.317634,456026,21946
1180.9,1.314207,461306,22376
1184.44,1.316993,467657,22539
1187.99,1.319820,473969,22695
1191.52,1.321086,479856,22910
1195.06,1.329183,487372,22839
1199.76,1.326443,497347,23454
1203.29,1.322849,504311,23980
1206.81,1.321480,511507,24399
1210.33,1.325588,519078,24527
1213.84,1.326881,527163,24835
1217.35,1.323099,534208,25387
1220.85,1.323821,540472,25642
1225.51,1.324782,549929,26033
1229.01,1.328163,556888,26158
1232.5,1.320575,562180,26872
1235.98,1.325757,567975,26827
1239.46,1.330196,574815,26874
1242.94,1.327771,582782,27399
1246.41,1.324996,591476,27986
1251.03,1.324865,604016,28588
1254.5,1.326495,612289,28871
1257.96,1.328468,619125,29061
1261.41,1.323031,624551,29685
1264.86,1.324138,629900,29863
1268.31,1.320697,634345,30313
1271.75,1.329656,638574,29892
1276.33,1.331273,642499,29964
1279.76,1.327738,645905,30369
1283.19,1.325733,648307,30623
1286.61,1.331081,650446,30348
1290.03,1.328160,652132,30632
1293.44,1.338525,653907,29991
1296.85,1.331314,655963,30589
1301.39,1.336669,657349,30278
1304.8,1.327245,657558,30952
1308.19,1.336521,658515,30342
1311.58,1.332680,658804,30625
1314.97,1.338541,659011,30224
1318.36,1.329685,658272,30812
1321.73,1.326151,658022,31052
1326.23,1.328688,657870,30864
1329.6,1.332695,656482,30516
1332.97,1.334965,654926,30285
1336.33,1.332852,653727,30377
1339.69,1.328403,652497,30632
1343.04,1.334419,649913,30091
1346.39,1.332442,647671,30124
1349.73,1.327371,645338,30368
1354.18,1.331494,641175,29887
1357.52,1.329246,638376,29911
1360.85,1.329720,635805,29758
1364.17,1.327383,633413,29806
1367.49,1.330122,631026,29507
1370.81,1.330830,628050,29320
1374.12,1.332145,625034,29091
1378.54,1.329615,620272,29038
1381.84,1.333175,616892,28644
1385.14,1.329272,613613,28749
1388.43,1.334936,611526,28280
1391.72,1.332514,610663,28398
1395.01,1.328884,610634,28635
1398.29,1.328384,611700,28718
1402.66,1.333588,614051,28485
1405.93,1.325981,616268,29093
1409.2,1.332207,617795,28750
1412.46,1.334294,618872,28662
1415.72,1.335032,619795,28656
1418.98,1.337193,620495,28546
1422.23,1.331444,621087,28954
1426.56,1.331540,621375,28961
1429.8,1.330810,621616,29021
1433.04,1.330450,622129,29069
1436.27,1.333404,621526,28844
1439.5,1.333673,621113,28807
1442.72,1.337020,620921,28577
1445.94,1.332736,620270,28830
1450.23,1.334817,618860,28627
1453.44,1.340850,617697,28179
1456.64,1.342531,616264,28005
1459.85,1.335739,614413,28361
1463.04,1.337784,612307,28131
1466.24,1.335859,610032,28151
1469.43,1.338096,607345,27883
1473.67,1.339316,603789,27642
1476.85,1.337180,601175,27658
1480.02,1.334187,597737,27690
1483.19,1.335309,594479,27468
1486.36,1.340764,591232,26977
1489.52,1.328926,587853,27564
1492.68,1.335069,583875,26993
1496.89,1.335903,578062,26673
1500.03,1.362292,574159,24931
1503.18,1.341470,570285,25979
1506.32,1.338369,565444,25943
1509.45,1.340934,560571,25568
1512.58,1.338173,555821,25513
1515.71,1.336382,550344,25366
1519.87,1.336518,543983,25065
1522.99,1.340463,538764,24600
1526.1,1.345418,533692,24092
1529.21,1.342288,527902,24003
1532.32,1.339960,521886,23857
1535.42,1.341469,515888,23501
1538.51,1.338343,509987,23400
1541.6,1.339328,503936,23070
1545.72,1.338406,494694,22695
1548.8,1.331813,488378,22748
1551.88,1.335351,481832,22261
1554.95,1.340985,474989,21662
1558.02,1.342207,467818,21275
1561.08,1.342823,460730,20923
1564.15,1.337696,454170,20870
1568.22,1.330856,444181,20735
1571.27,1.338055,436947,20062
1574.32,1.335302,429598,19850
1577.36,1.332366,422039,19633
1580.4,1.335883,414375,19121
1583.43,1.334077,406354,18829
1586.46,1.331870,398475,18558
1590.49,1.341049,388982,17737
1593.51,1.334488,380708,17624
1596.53,1.333948,372727,17276
1599.54,1.339544,365060,16704
1602.55,1.326935,357543,16842
1605.55,1.334060,349495,16195
1608.55,1.339130,341154,15625
1612.54,1.329027,330877,15511
1615.53,1.325861,322904,15248
1618.51,1.317113,315116,15183
1621.49,1.331806,307217,14310
1624.47,1.330862,299481,13980
1627.44,1.319608,292112,13994
1630.41,1.312996,284245,13826
1634.36,1.335579,274079,12656
1637.32,1.321512,266916,12731
1640.27,1.328036,259612,12198
1643.22,1.318960,251804,12081
1646.16,1.323813,244348,11593
1649.1,1.305721,236703,11708
1652.04,1.314152,228171,11069
1655.95,1.296992,215408,10871
1658.88,1.313448,204937,9958
1661.8,1.294821,193395,9809
1664.72,1.304982,179728,8905
1667.63,1.312654,163642,7966
1670.54,1.305901,146312,7234
1673.44,1.292297,128451,6553
1677.31,1.309544,105080,5152
1680.21,1.322180,88906,4234
1683.1,1.281081,75033,3928
1685.99,1.293036,63520,3235
1688.87,1.250368,53714,3018
1691.75,1.302106,45653,2277
1694.62,1.354040,39137,1732
1697.49,1.250083,33776,1899
1701.31,1.391818,28175,1143