File: ML/samples/unknown/Column 1_078521_20241121_170645.csv
Method:,Column 1,,
Host Date-Time:,21/11/24 @ 17:6:45,,
Header Version:,1,,
System Temp (C):,35.12,,
Detector Temp (C):,33.96,,
Humidity (%):,2.01,,
Lamp PD:,3800,,
Shift Vector Coefficients:,-10.5391,0.0761263,-0.000134223,,
Pixel to Wavelength Coefficients:,1775.68,-0.916766,-0.000235065,,
Serial Number:,5510004,,
Scan Config Name:,Column 1,,
Scan Config Type:,Slew,,
Section 1,,
Start wavelength (nm):,900,,
End wavelength (nm):,1700,,
Pattern Pixel Width (nm):,   7.03,,,,
Exposure (ms):,  0.635,,,,
Digital Resolution:,228,,
Num Repeats:,6,,
PGA Gain:,64,,
Total Measurement Time in sec:,  2.724,,
Wavelength (nm),Absorbance (AU),Reference Signal (unitless),Sample Signal (unitless)
901.51,1.298894,108485,5451
905.376,1.336470,121306,5590
909.237,1.316544,131909,6364
913.095,1.326232,143299,6761
916.948,1.327029,156982,7393
922.079,1.310391,179937,8805
925.923,1.313966,200504,9731
929.762,1.314983,222660,10781
933.597,1.318479,244426,11740
937.427,1.328031,263972,12403
941.254,1.322517,281845,13412
945.076,1.305038,297271,14727
950.165,1.317729,315605,15185
953.978,1.304818,328029,16259
957.786,1.307209,340470,16783
961.59,1.303176,352317,17529
965.389,1.298758,363056,18248
969.185,1.299360,373162,18730
972.976,1.302727,382632,19057
976.763,1.310618,391202,19133
981.806,1.305448,400190,19807
985.583,1.305727,406088,20086
989.355,1.302390,410162,20444
993.124,1.302851,412868,20557
996.888,1.301033,414263,20713
1000.65,1.308937,415476,20399
1004.4,1.300256,415479,20811
1009.41,1.301363,414358,20702
1013.15,1.299102,412923,20738
1016.89,1.306987,411526,20296
1020.63,1.301525,409066,20430
1024.36,1.306809,406777,20070
1028.09,1.299387,404427,20298
1031.82,1.303187,401911,19996
1036.78,1.304302,398410,19771
1040.49,1.303342,396204,19705
1044.2,1.307015,394236,19442
1047.91,1.304726,392042,19436
1051.61,1.306144,389823,19263
1055.31,1.304979,388234,19236
1059,1.306055,387599,19157
1063.92,1.295282,386688,19592
1067.61,1.306226,386598,19100
1071.29,1.309106,387377,19012
1074.96,1.307376,388536,19145
1078.63,1.310735,389855,19062
1082.3,1.314669,391215,18956
1085.96,1.310673,393215,19229
1090.84,1.306844,396270,19550
1094.49,1.311256,398760,19474
1098.14,1.307255,400987,19764
1101.79,1.312037,403477,19669
1105.43,1.310212,406116,19881
1109.06,1.310377,407701,19951
1112.7,1.305995,409859,20260
1117.53,1.314019,412494,20017
1121.15,1.315319,414909,20074
1124.77,1.314712,416559,20182
1128.38,1.310781,418532,20462
1131.99,1.319101,419956,20142
1135.6,1.314075,421946,20473
1139.2,1.314390,423881,20552
1143.99,1.322843,426786,20294
1147.58,1.312422,428617,20876
1151.17,1.308906,431169,21171
1154.75,1.304771,433579,21493
1158.33,1.313147,436264,21213
1161.91,1.313971,439132,21312
1165.48,1.311109,442389,21612
1169.04,1.314357,446101,21631
1173.79,1.318731,451929,21694
1177.34,1.307483,456026,22465
1180.9,1.308863,461306,22653
1184.44,1.312984,467657,22748
1187.99,1.317834,473969,22799
1191.52,1.306289,479856,23704
1195.06,1.312837,487372,23715
1199.76,1.317281,497347,23954
1203.29,1.320087,504311,24133
1206.81,1.315733,511507,24724
1210.33,1.315421,519078,25108
1213.84,1.319804,527163,25243
1217.35,1.314713,534208,25882
1220.85,1.340710,540472,24664
1225.51,1.321972,549929,26202
1229.01,1.319501,556888,26685
1232.5,1.321255,562180,26830
1235.98,1.317769,567975,27325
1239.46,1.313846,574815,27905
1242.94,1.307352,582782,28718
1246.41,1.313586,591476,28731
1251.03,1.324865,604016,28588
1254.5,1.320875,612289,29247
1257.96,1.323993,619125,29362
1261.41,1.318505,624551,29996
1264.86,1.322179,629900,29998
1268.31,1.326596,634345,29904
1271.75,1.319902,638574,30571
1276.33,1.322506,642499,30575
1279.76,1.326824,645905,30433
1283.19,1.323131,648307,30807
1286.61,1.325239,650446,30759
1290.03,1.324518,652132,30890
1293.44,1.325234,653907,30923
1296.85,1.329331,655963,30729
1301.39,1.325441,657349,31071
1304.8,1.327428,657558,30939
1308.19,1.325624,658515,31113
1311.58,1.321260,658804,31441
1314.97,1.329919,659011,30830
1318.36,1.328475,658272,30898
1321.73,1.327299,658022,30970
1326.23,1.324654,657870,31152
1329.6,1.325189,656482,31048
1332.97,1.324396,654926,31031
1336.33,1.324974,653727,30933
1339.69,1.329397,652497,30562
1343.04,1.327389,649913,30582
1346.39,1.329797,647671,30308
1349.73,1.322324,645338,30723
1354.18,1.325305,641175,30316
1357.52,1.320321,638376,30532
1360.85,1.319779,635805,30447
1364.17,1.319657,633413,30341
1367.49,1.324681,631026,29879
1370.81,1.325677,628050,29670
1374.12,1.323323,625034,29688
1378.54,1.324368,620272,29391
1381.84,1.321035,616892,29456
1385.14,1.331635,613613,28593
1388.43,1.330201,611526,28590
1391.72,1.322865,610663,29036
1395.01,1.316533,610634,29461
1398.29,1.318768,611700,29361
1402.66,1.320286,614051,29371
1405.93,1.323124,616268,29285
1409.2,1.325060,617795,29227
1412.46,1.329083,618872,29008
1415.72,1.321455,619795,29566
1418.98,1.325663,620495,29314
1422.23,1.329498,621087,29084
1426.56,1.328969,621375,29133
1429.8,1.328050,621616,29206
1433.04,1.327087,622129,29295
1436.27,1.332066,621526,28933
1439.5,1.327342,621113,29230
1442.72,1.328100,620921,29170
1445.94,1.330018,620270,29011
1450.23,1.325615,618860,29240
1453.44,1.317595,617697,29729
1456.64,1.330148,616264,28815
1459.85,1.334012,614413,28474
1463.04,1.334141,612307,28368
1466.24,1.326760,610032,28747
1469.43,1.329750,607345,28424
1473.67,1.332999,603789,28047
1476.85,1.337604,601175,27631
1480.02,1.335035,597737,27636
1483.19,1.327165,594479,27988
1486.36,1.338484,591232,27119
1489.52,1.327982,587853,27624
1492.68,1.330651,583875,27269
1496.89,1.326592,578062,27251
1500.03,1.341063,574159,26180
1503.18,1.330395,570285,26650
1506.32,1.329209,565444,26496
1509.45,1.334159,560571,25970
1512.58,1.332390,555821,25855
1515.71,1.332530,550344,25592
1519.87,1.332036,543983,25325
1522.99,1.336282,538764,24838
1526.1,1.325047,533692,25249
1529.21,1.336322,527902,24335
1532.32,1.328605,521886,24489
1535.42,1.329027,515888,24184
1538.51,1.320757,509987,24367
1541.6,1.329611,503936,23592
1545.72,1.323731,494694,23475
1548.8,1.327841,488378,22957
1551.88,1.332589,481832,22403
1554.95,1.333492,474989,22039
1558.02,1.329950,467818,21884
1561.08,1.330160,460730,21542
1564.15,1.324800,454170,21499
1568.22,1.331967,444181,20682
1571.27,1.330756,436947,20402
1574.32,1.331576,429598,20021
1577.36,1.325519,422039,19945
1580.4,1.334454,414375,19184
1583.43,1.316006,406354,19629
1586.46,1.329001,398475,18681
1590.49,1.331915,388982,18114
1593.51,1.325537,380708,17991
1596.53,1.323270,372727,17706
1599.54,1.324318,365060,17300
1602.55,1.322420,357543,17018
1605.55,1.321584,349495,16667
1608.55,1.319300,341154,16355
1612.54,1.321697,330877,15775
1615.53,1.315226,322904,15626
1618.51,1.332574,315116,14652
1621.49,1.311036,307217,15011
1624.47,1.308196,299481,14729
1627.44,1.308365,292112,14361
1630.41,1.314980,284245,13763
1634.36,1.313306,274079,13322
1637.32,1.309335,266916,13093
1640.27,1.302491,259612,12937
1643.22,1.310663,251804,12314
1646.16,1.308755,244348,12002
1649.1,1.297054,236703,11944
1652.04,1.308345,228171,11218
1655.95,1.305342,215408,10664
1658.88,1.299374,204937,10286
1661.8,1.290635,193395,9904
1664.72,1.279874,179728,9435
1667.63,1.251478,163642,9171
1670.54,1.241570,146312,8389
1673.44,1.216921,128451,7795
1677.31,1.181226,105080,6923
1680.21,1.180441,88906,5868
1683.1,1.168449,75033,5091
1685.99,1.156703,63520,4428
1688.87,1.166369,53714,3662
1691.75,1.180903,45653,3010
1694.62,1.155154,39137,2738
1697.49,1.147132,33776,2407
1701.31,1.119450,28175,2140