File: ML/samples/unknown/Column 1_078685_20241121_171714.csv
Method:,Column 1,,
Host Date-Time:,21/11/24 @ 17:17:14,,
Header Version:,1,,
System Temp (C):,34.42,,
Detector Temp (C):,34.79,,
Humidity (%):,1.56,,
Lamp PD:,3801,,
Shift Vector Coefficients:,-10.5391,0.0761263,-0.000134223,,
Pixel to Wavelength Coefficients:,1775.68,-0.916766,-0.000235065,,
Serial Number:,5510004,,
Scan Config Name:,Column 1,,
Scan Config Type:,Slew,,
Section 1,,
Start wavelength (nm):,900,,
End wavelength (nm):,1700,,
Pattern Pixel Width (nm):,   7.03,,,,
Exposure (ms):,  0.635,,,,
Digital Resolution:,228,,
Num Repeats:,6,,
PGA Gain:,64,,
Total Measurement Time in sec:,  2.703,,
Wavelength (nm),Absorbance (AU),Reference Signal (unitless),Sample Signal (unitless)
901.51,1.321459,108485,5175
905.376,1.301840,121306,6054
909.237,1.339237,131909,6040
913.095,1.324629,143299,6786
916.948,1.325036,156982,7427
922.079,1.320117,179937,8610
925.923,1.327243,200504,9438
929.762,1.326412,222660,10501
933.597,1.319479,244426,11713
937.427,1.314144,263972,12806
941.254,1.315514,281845,13630
945.076,1.304478,297271,14746
950.165,1.312357,315605,15374
953.978,1.298428,328029,16500
957.786,1.294108,340470,17297
961.59,1.305064,352317,17453
965.389,1.303978,363056,18030
969.185,1.308711,373162,18331
972.976,1.300726,382632,19145
976.763,1.310414,391202,19142
981.806,1.303282,400190,19906
985.583,1.305014,406088,20119
989.355,1.306595,410162,20247
993.124,1.306735,412868,20374
996.888,1.304021,414263,20571
1000.65,1.304405,415476,20613
1004.4,1.309750,415479,20361
1009.41,1.303171,414358,20616
1013.15,1.319753,412923,19775
1016.89,1.304895,411526,20394
1020.63,1.312025,409066,19942
1024.36,1.303403,406777,20228
1028.09,1.303277,404427,20117
1031.82,1.297276,401911,20270
1036.78,1.300431,398410,19948
1040.49,1.310408,396204,19387
1044.2,1.306770,394236,19453
1047.91,1.307910,392042,19294
1051.61,1.301635,389823,19464
1055.31,1.311416,388234,18953
1059,1.304674,387599,19218
1063.92,1.312533,386688,18829
1067.61,1.311189,386598,18883
1071.29,1.304697,387377,19206
1074.96,1.312946,388536,18901
1078.63,1.312950,389855,18965
1082.3,1.309250,391215,19194
1085.96,1.307254,393215,19381
1090.84,1.310503,396270,19386
1094.49,1.315943,398760,19265
1098.14,1.313921,400987,19463
1101.79,1.315317,403477,19521
1105.43,1.311371,406116,19828
1109.06,1.309551,407701,19989
1112.7,1.315816,409859,19807
1117.53,1.310045,412494,20201
1121.15,1.303812,414909,20613
1124.77,1.310771,416559,20366
1128.38,1.316033,418532,20216
1131.99,1.318929,419956,20150
1135.6,1.321068,421946,20146
1139.2,1.311211,423881,20703
1143.99,1.319411,426786,20455
1147.58,1.317718,428617,20623
1151.17,1.313692,431169,20939
1154.75,1.322316,433579,20642
1158.33,1.316766,436264,21037
1161.91,1.315502,439132,21237
1165.48,1.306174,442389,21859
1169.04,1.314718,446101,21613
1173.79,1.310148,451929,22127
1177.34,1.313537,456026,22154
1180.9,1.316015,461306,22283
1184.44,1.317841,467657,22495
1187.99,1.320394,473969,22665
1191.52,1.312136,479856,23387
1195.06,1.317625,487372,23455
1199.76,1.315003,497347,24080
1203.29,1.318435,504311,24225
1206.81,1.314523,511507,24793
1210.33,1.317015,519078,25016
1213.84,1.320975,527163,25175
1217.35,1.310305,534208,26146
1220.85,1.325331,540472,25553
1225.51,1.316668,549929,26524
1229.01,1.317665,556888,26798
1232.5,1.314589,562180,27245
1235.98,1.318692,567975,27267
1239.46,1.314594,574815,27857
1242.94,1.316151,582782,28142
1246.41,1.319967,591476,28312
1251.03,1.320466,604016,28879
1254.5,1.319541,612289,29337
1257.96,1.317329,619125,29816
1261.41,1.325540,624551,29514
1264.86,1.319567,629900,30179
1268.31,1.323990,634345,30084
1271.75,1.322038,638574,30421
1276.33,1.323331,642499,30517
1279.76,1.318877,645905,30995
1283.19,1.322371,648307,30861
1286.61,1.329025,650446,30492
1290.03,1.325165,652132,30844
1293.44,1.321932,653907,31159
1296.85,1.331740,655963,30559
1301.39,1.327613,657349,30916
1304.8,1.323919,657558,31190
1308.19,1.326210,658515,31071
1311.58,1.327268,658804,31009
1314.97,1.329286,659011,30875
1318.36,1.323736,658272,31237
1321.73,1.330961,658022,30710
1326.23,1.323373,657870,31244
1329.6,1.325539,656482,31023
1332.97,1.329507,654926,30668
1336.33,1.322259,653727,31127
1339.69,1.330991,652497,30450
1343.04,1.325759,649913,30697
1346.39,1.333452,647671,30054
1349.73,1.326228,645338,30448
1354.18,1.325161,641175,30326
1357.52,1.324122,638376,30266
1360.85,1.325335,635805,30060
1364.17,1.324986,633413,29971
1367.49,1.321279,631026,30114
1370.81,1.330593,628050,29336
1374.12,1.330893,625034,29175
1378.54,1.323984,620272,29417
1381.84,1.323920,616892,29261
1385.14,1.319400,613613,29410
1388.43,1.320750,611526,29219
1391.72,1.319438,610663,29266
1395.01,1.322172,610634,29081
1398.29,1.316716,611700,29500
1402.66,1.324073,614051,29116
1405.93,1.324610,616268,29185
1409.2,1.324837,617795,29242
1412.46,1.326516,618872,29180
1415.72,1.323975,619795,29395
1418.98,1.330071,620495,29018
1422.23,1.330246,621087,29034
1426.56,1.330956,621375,29000
1429.8,1.323479,621616,29515
1433.04,1.330600,622129,29059
1436.27,1.327022,621526,29271
1439.5,1.323746,621113,29473
1442.72,1.332966,620921,28845
1445.94,1.334366,620270,28722
1450.23,1.334119,618860,28673
1453.44,1.330178,617697,28880
1456.64,1.322114,616264,29353
1459.85,1.325090,614413,29065
1463.04,1.330649,612307,28597
1466.24,1.331881,610032,28410
1469.43,1.331710,607345,28296
1473.67,1.331978,603789,28113
1476.85,1.329584,601175,28146
1480.02,1.336515,597737,27542
1483.19,1.333621,594479,27575
1486.36,1.323516,591232,28070
1489.52,1.326836,587853,27697
1492.68,1.332054,583875,27181
1496.89,1.331158,578062,26966
1500.03,1.332033,574159,26730
1503.18,1.328265,570285,26781
1506.32,1.335683,565444,26104
1509.45,1.334259,560571,25964
1512.58,1.328711,555821,26075
1515.71,1.329318,550344,25782
1519.87,1.331179,543983,25375
1522.99,1.329430,538764,25233
1526.1,1.333873,533692,24741
1529.21,1.330613,527902,24657
1532.32,1.335973,521886,24077
1535.42,1.333921,515888,23913
1538.51,1.336233,509987,23514
1541.6,1.328012,503936,23679
1545.72,1.334103,494694,22921
1548.8,1.335340,488378,22564
1551.88,1.336680,481832,22193
1554.95,1.332350,474989,22097
1558.02,1.332119,467818,21775
1561.08,1.331554,460730,21473
1564.15,1.332011,454170,21145
1568.22,1.329768,444181,20787
1571.27,1.330118,436947,20432
1574.32,1.323198,429598,20411
1577.36,1.325540,422039,19944
1580.4,1.329435,414375,19407
1583.43,1.324429,406354,19252
1586.46,1.317507,398475,19182
1590.49,1.326814,388982,18328
1593.51,1.328613,380708,17864
1596.53,1.331666,372727,17367
1599.54,1.321491,365060,17413
1602.55,1.324646,357543,16931
1605.55,1.330215,349495,16339
1608.55,1.322926,341154,16219
1612.54,1.314273,330877,16047
1615.53,1.313257,322904,15697
1618.51,1.316798,315116,15194
1621.49,1.306861,307217,15156
1624.47,1.319881,299481,14338
1627.44,1.307036,292112,14405
1630.41,1.309742,284245,13930
1634.36,1.300807,274079,13711
1637.32,1.304979,266916,13225
1640.27,1.308951,259612,12746
1643.22,1.301451,251804,12578
1646.16,1.322056,244348,11640
1649.1,1.301329,236703,11827
1652.04,1.313486,228171,11086
1655.95,1.295636,215408,10905
1658.88,1.286683,204937,10591
1661.8,1.290240,193395,9913
1664.72,1.265522,179728,9752
1667.63,1.245879,163642,9290
1670.54,1.236168,146312,8494
1673.44,1.236756,128451,7447
1677.31,1.172469,105080,7064
1680.21,1.178005,88906,5901
1683.1,1.174549,75033,5020
1685.99,1.155332,63520,4442
1688.87,1.158146,53714,3732
1691.75,1.182493,45653,2999
1694.62,1.185027,39137,2556
1697.49,1.212638,33776,2070
1701.31,1.232380,28175,1650