File: ML/samples/unknown/Column 1_078644_20241121_171251.csv
Method:,Column 1,,
Host Date-Time:,21/11/24 @ 17:12:51,,
Header Version:,1,,
System Temp (C):,36.17,,
Detector Temp (C):,35.19,,
Humidity (%):,0.29,,
Lamp PD:,3797,,
Shift Vector Coefficients:,-10.5391,0.0761263,-0.000134223,,
Pixel to Wavelength Coefficients:,1775.68,-0.916766,-0.000235065,,
Serial Number:,5510004,,
Scan Config Name:,Column 1,,
Scan Config Type:,Slew,,
Section 1,,
Start wavelength (nm):,900,,
End wavelength (nm):,1700,,
Pattern Pixel Width (nm):,   7.03,,,,
Exposure (ms):,  0.635,,,,
Digital Resolution:,228,,
Num Repeats:,6,,
PGA Gain:,64,,
Total Measurement Time in sec:,  2.727,,
Wavelength (nm),Absorbance (AU),Reference Signal (unitless),Sample Signal (unitless)
901.51,1.315873,108485,5242
905.376,1.328694,121306,5691
909.237,1.324881,131909,6243
913.095,1.330882,143299,6689
916.948,1.302699,156982,7819
922.079,1.315901,179937,8694
925.923,1.333173,200504,9310
929.762,1.312293,222660,10848
933.597,1.325942,244426,11540
937.427,1.323191,263972,12542
941.254,1.314178,281845,13672
945.076,1.321476,297271,14180
950.165,1.317472,315605,15194
953.978,1.309707,328029,16077
957.786,1.315939,340470,16449
961.59,1.314751,352317,17068
965.389,1.303809,363056,18037
969.185,1.307954,373162,18363
972.976,1.307631,382632,18843
976.763,1.310187,391202,19152
981.806,1.307315,400190,19722
985.583,1.304755,406088,20131
989.355,1.308443,410162,20161
993.124,1.307781,412868,20325
996.888,1.306434,414263,20457
1000.65,1.303584,415476,20652
1004.4,1.297738,415479,20932
1009.41,1.305135,414358,20523
1013.15,1.305898,412923,20416
1016.89,1.305598,411526,20361
1020.63,1.310264,409066,20023
1024.36,1.302674,406777,20262
1028.09,1.306549,404427,19966
1031.82,1.302948,401911,20007
1036.78,1.307277,398410,19636
1040.49,1.308598,396204,19468
1044.2,1.313542,394236,19152
1047.91,1.305397,392042,19406
1051.61,1.313350,389823,18946
1055.31,1.309815,388234,19023
1059,1.302376,387599,19320
1063.92,1.309614,386688,18956
1067.61,1.303800,386598,19207
1071.29,1.313976,387377,18800
1074.96,1.311272,388536,18974
1078.63,1.323497,389855,18510
1082.3,1.317727,391215,18823
1085.96,1.304751,393215,19493
1090.84,1.312546,396270,19295
1094.49,1.310432,398760,19511
1098.14,1.311628,400987,19566
1101.79,1.317212,403477,19436
1105.43,1.306038,406116,20073
1109.06,1.312844,407701,19838
1112.7,1.316935,409859,19756
1117.53,1.309615,412494,20221
1121.15,1.312580,414909,20201
1124.77,1.312973,416559,20263
1128.38,1.314104,418532,20306
1131.99,1.317852,419956,20200
1135.6,1.322623,421946,20074
1139.2,1.318829,423881,20343
1143.99,1.311980,426786,20808
1147.58,1.318730,428617,20575
1151.17,1.319307,431169,20670
1154.75,1.299589,433579,21751
1158.33,1.318918,436264,20933
1161.91,1.317942,439132,21118
1165.48,1.321748,442389,21089
1169.04,1.311754,446101,21761
1173.79,1.323036,451929,21480
1177.34,1.311738,456026,22246
1180.9,1.309381,461306,22626
1184.44,1.311117,467657,22846
1187.99,1.310449,473969,23190
1191.52,1.309784,479856,23514
1195.06,1.319778,487372,23339
1199.76,1.321270,497347,23735
1203.29,1.326304,504311,23790
1206.81,1.321141,511507,24418
1210.33,1.320939,519078,24791
1213.84,1.316018,527163,25464
1217.35,1.321733,534208,25467
1220.85,1.318619,540472,25951
1225.51,1.322155,549929,26191
1229.01,1.322571,556888,26497
1232.5,1.320899,562180,26852
1235.98,1.321056,567975,27119
1239.46,1.318037,574815,27637
1242.94,1.313566,582782,28310
1246.41,1.316529,591476,28537
1251.03,1.326707,604016,28467
1254.5,1.324139,612289,29028
1257.96,1.323239,619125,29413
1261.41,1.321891,624551,29763
1264.86,1.324706,629900,29824
1268.31,1.324134,634345,30074
1271.75,1.323382,638574,30327
1276.33,1.323302,642499,30519
1279.76,1.320098,645905,30908
1283.19,1.325733,648307,30623
1286.61,1.330595,650446,30382
1290.03,1.324026,652132,30925
1293.44,1.328675,653907,30679
1296.85,1.319770,655963,31413
1301.39,1.321102,657349,31383
1304.8,1.325118,657558,31104
1308.19,1.324300,658515,31208
1311.58,1.326219,658804,31084
1314.97,1.327041,659011,31035
1318.36,1.327478,658272,30969
1321.73,1.329845,658022,30789
1326.23,1.328252,657870,30895
1329.6,1.323946,656482,31137
1332.97,1.324676,654926,31011
1336.33,1.324329,653727,30979
1339.69,1.327610,652497,30688
1343.04,1.330983,649913,30330
1346.39,1.330199,647671,30280
1349.73,1.327414,645338,30365
1354.18,1.328150,641175,30118
1357.52,1.320791,638376,30499
1360.85,1.322771,635805,30238
1364.17,1.324551,633413,30001
1367.49,1.325190,631026,29844
1370.81,1.323195,628050,29840
1374.12,1.324377,625034,29616
1378.54,1.330334,620272,28990
1381.84,1.334846,616892,28534
1385.14,1.319710,613613,29389
1388.43,1.318348,611526,29381
1391.72,1.323673,610663,28982
1395.01,1.330160,610634,28551
1398.29,1.329808,611700,28624
1402.66,1.325298,614051,29034
1405.93,1.322591,616268,29321
1409.2,1.327310,617795,29076
1412.46,1.322811,618872,29430
1415.72,1.330885,619795,28931
1418.98,1.331240,620495,28940
1422.23,1.327012,621087,29251
1426.56,1.330806,621375,29010
1429.8,1.331289,621616,28989
1433.04,1.326716,622129,29320
1436.27,1.330537,621526,29035
1439.5,1.329666,621113,29074
1442.72,1.328472,620921,29145
1445.94,1.326010,620270,29280
1450.23,1.328880,618860,29021
1453.44,1.334455,617697,28597
1456.64,1.329817,616264,28837
1459.85,1.324045,614413,29135
1463.04,1.333101,612307,28436
1466.24,1.328516,610032,28631
1469.43,1.334513,607345,28114
1473.67,1.329329,603789,28285
1476.85,1.336427,601175,27706
1480.02,1.329461,597737,27993
1483.19,1.328922,594479,27875
1486.36,1.331636,591232,27550
1489.52,1.334094,587853,27238
1492.68,1.336019,583875,26934
1496.89,1.332885,578062,26859
1500.03,1.335246,574159,26533
1503.18,1.331913,570285,26557
1506.32,1.331494,565444,26357
1509.45,1.332290,560571,26082
1512.58,1.324319,555821,26340
1515.71,1.335185,550344,25436
1519.87,1.338671,543983,24941
1522.99,1.332626,538764,25048
1526.1,1.328865,533692,25028
1529.21,1.335698,527902,24370
1532.32,1.334946,521886,24134
1535.42,1.327683,515888,24259
1538.51,1.321703,509987,24314
1541.6,1.329721,503936,23586
1545.72,1.327093,494694,23294
1548.8,1.338334,488378,22409
1551.88,1.327157,481832,22685
1554.95,1.327309,474989,22355
1558.02,1.327536,467818,22006
1561.08,1.334171,460730,21344
1564.15,1.344618,454170,20540
1568.22,1.330270,444181,20763
1571.27,1.320470,436947,20891
1574.32,1.326123,429598,20274
1577.36,1.326281,422039,19910
1580.4,1.330825,414375,19345
1583.43,1.331249,406354,18952
1586.46,1.320689,398475,19042
1590.49,1.322758,388982,18500
1593.51,1.325030,380708,18012
1596.53,1.326693,372727,17567
1599.54,1.321965,365060,17394
1602.55,1.330482,357543,16705
1605.55,1.324381,349495,16560
1608.55,1.318186,341154,16397
1612.54,1.325874,330877,15624
1615.53,1.312649,322904,15719
1618.51,1.320184,315116,15076
1621.49,1.324941,307217,14538
1624.47,1.310680,299481,14645
1627.44,1.319639,292112,13993
1630.41,1.320985,284245,13574
1634.36,1.301885,274079,13677
1637.32,1.313234,266916,12976
1640.27,1.318110,259612,12480
1643.22,1.317059,251804,12134
1646.16,1.303397,244348,12151
1649.1,1.304647,236703,11737
1652.04,1.309857,228171,11179
1655.95,1.306157,215408,10644
1658.88,1.286396,204937,10598
1661.8,1.278314,193395,10189
1664.72,1.273976,179728,9564
1667.63,1.260715,163642,8978
1670.54,1.237961,146312,8459
1673.44,1.226327,128451,7628
1677.31,1.171487,105080,7080
1680.21,1.211420,88906,5464
1683.1,1.154928,75033,5252
1685.99,1.172788,63520,4267
1688.87,1.179615,53714,3552
1691.75,1.155543,45653,3191
1694.62,1.212015,39137,2402
1697.49,1.172965,33776,2268
1701.31,1.231591,28175,1653