File: ML/samples/unknown/Column 1_078778_20241121_172143.csv
Method:,Column 1,,
Host Date-Time:,21/11/24 @ 17:21:43,,
Header Version:,1,,
System Temp (C):,36.71,,
Detector Temp (C):,35.17,,
Humidity (%):,1.08,,
Lamp PD:,3798,,
Shift Vector Coefficients:,-10.5391,0.0761263,-0.000134223,,
Pixel to Wavelength Coefficients:,1775.68,-0.916766,-0.000235065,,
Serial Number:,5510004,,
Scan Config Name:,Column 1,,
Scan Config Type:,Slew,,
Section 1,,
Start wavelength (nm):,900,,
End wavelength (nm):,1700,,
Pattern Pixel Width (nm):,   7.03,,,,
Exposure (ms):,  0.635,,,,
Digital Resolution:,228,,
Num Repeats:,6,,
PGA Gain:,64,,
Total Measurement Time in sec:,  2.727,,
Wavelength (nm),Absorbance (AU),Reference Signal (unitless),Sample Signal (unitless)
901.51,1.307585,108485,5343
905.376,1.338651,121306,5562
909.237,1.362044,131909,5731
913.095,1.341596,143299,6526
916.948,1.315837,156982,7586
922.079,1.309947,179937,8814
925.923,1.327105,200504,9441
929.762,1.331194,222660,10386
933.597,1.319887,244426,11702
937.427,1.337625,263972,12132
941.254,1.327238,281845,13267
945.076,1.308473,297271,14611
950.165,1.321896,315605,15040
953.978,1.312390,328029,15978
957.786,1.323288,340470,16173
961.59,1.314446,352317,17080
965.389,1.300260,363056,18185
969.185,1.301428,373162,18641
972.976,1.309086,382632,18780
976.763,1.306327,391202,19323
981.806,1.303217,400190,19909
985.583,1.306224,406088,20063
989.355,1.302177,410162,20454
993.124,1.312313,412868,20114
996.888,1.308008,414263,20383
1000.65,1.304847,415476,20592
1004.4,1.303903,415479,20637
1009.41,1.313554,414358,20129
1013.15,1.304518,412923,20481
1016.89,1.311158,411526,20102
1020.63,1.297463,409066,20622
1024.36,1.306831,406777,20069
1028.09,1.308162,404427,19892
1031.82,1.301236,401911,20086
1036.78,1.306923,398410,19652
1040.49,1.300728,396204,19824
1044.2,1.303811,394236,19586
1047.91,1.306629,392042,19351
1051.61,1.306256,389823,19258
1055.31,1.299104,388234,19498
1059,1.300962,387599,19383
1063.92,1.304376,386688,19186
1067.61,1.298474,386598,19444
1071.29,1.311580,387377,18904
1074.96,1.315412,388536,18794
1078.63,1.316676,389855,18803
1082.3,1.310360,391215,19145
1085.96,1.309613,393215,19276
1090.84,1.306534,396270,19564
1094.49,1.316823,398760,19226
1098.14,1.315441,400987,19395
1101.79,1.314095,403477,19576
1105.43,1.310780,406116,19855
1109.06,1.310878,407701,19928
1112.7,1.317617,409859,19725
1117.53,1.319345,412494,19773
1121.15,1.315947,414909,20045
1124.77,1.307732,416559,20509
1128.38,1.311567,418532,20425
1131.99,1.321349,419956,20038
1135.6,1.318532,421946,20264
1139.2,1.314686,423881,20538
1143.99,1.314093,426786,20707
1147.58,1.316288,428617,20691
1151.17,1.311746,431169,21033
1154.75,1.321035,433579,20703
1158.33,1.312840,436264,21228
1161.91,1.318395,439132,21096
1165.48,1.321872,442389,21083
1169.04,1.324904,446101,21112
1173.79,1.315480,451929,21857
1177.34,1.321650,456026,21744
1180.9,1.314945,461306,22338
1184.44,1.315992,467657,22591
1187.99,1.318749,473969,22751
1191.52,1.304735,479856,23789
1195.06,1.317015,487372,23488
1199.76,1.314210,497347,24124
1203.29,1.324246,504311,23903
1206.81,1.320466,511507,24456
1210.33,1.331992,519078,24168
1213.84,1.321096,527163,25168
1217.35,1.320643,534208,25531
1220.85,1.313694,540472,26247
1225.51,1.318111,549929,26436
1229.01,1.318477,556888,26748
1232.5,1.322779,562180,26736
1235.98,1.317976,567975,27312
1239.46,1.321667,574815,27407
1242.94,1.323293,582782,27683
1246.41,1.314964,591476,28640
1251.03,1.321671,604016,28799
1254.5,1.325368,612289,28946
1257.96,1.324763,619125,29310
1261.41,1.320071,624551,29888
1264.86,1.321658,629900,30034
1268.31,1.325291,634345,29994
1271.75,1.322852,638574,30364
1276.33,1.324656,642499,30424
1279.76,1.320505,645905,30879
1283.19,1.319076,648307,31096
1286.61,1.319335,650446,31180
1290.03,1.324237,652132,30910
1293.44,1.324855,653907,30950
1296.85,1.325994,655963,30966
1301.39,1.325692,657349,31053
1304.8,1.320935,657558,31405
1308.19,1.326336,658515,31062
1311.58,1.328166,658804,30945
1314.97,1.333498,659011,30577
1318.36,1.326232,658272,31058
1321.73,1.330904,658022,30714
1326.23,1.329744,657870,30789
1329.6,1.329646,656482,30731
1332.97,1.322302,654926,31181
1336.33,1.325283,653727,30911
1339.69,1.329781,652497,30535
1343.04,1.325349,649913,30726
1346.39,1.333019,647671,30084
1349.73,1.329019,645338,30253
1354.18,1.323717,641175,30427
1357.52,1.317571,638376,30726
1360.85,1.326492,635805,29980
1364.17,1.326263,633413,29883
1367.49,1.322694,631026,30016
1370.81,1.329115,628050,29436
1374.12,1.329852,625034,29245
1378.54,1.325892,620272,29288
1381.84,1.325839,616892,29132
1385.14,1.324509,613613,29066
1388.43,1.321598,611526,29162
1391.72,1.321312,610663,29140
1395.01,1.321903,610634,29099
1398.29,1.326212,611700,28862
1402.66,1.325342,614051,29031
1405.93,1.330030,616268,28823
1409.2,1.330097,617795,28890
1412.46,1.334249,618872,28665
1415.72,1.327282,619795,29172
1418.98,1.326123,620495,29283
1422.23,1.328171,621087,29173
1426.56,1.325080,621375,29395
1429.8,1.330271,621616,29057
1433.04,1.327725,622129,29252
1436.27,1.327066,621526,29268
1439.5,1.328279,621113,29167
1442.72,1.323362,620921,29490
1445.94,1.330348,620270,28989
1450.23,1.332155,618860,28803
1453.44,1.333439,617697,28664
1456.64,1.335074,616264,28490
1459.85,1.329596,614413,28765
1463.04,1.330968,612307,28576
1466.24,1.336137,610032,28133
1469.43,1.332602,607345,28238
1473.67,1.330960,603789,28179
1476.85,1.329754,601175,28135
1480.02,1.332668,597737,27787
1483.19,1.331390,594479,27717
1486.36,1.330786,591232,27604
1489.52,1.335979,587853,27120
1492.68,1.334570,583875,27024
1496.89,1.335984,578062,26668
1500.03,1.332456,574159,26704
1503.18,1.335443,570285,26342
1506.32,1.330703,565444,26405
1509.45,1.338022,560571,25740
1512.58,1.332945,555821,25822
1515.71,1.329570,550344,25767
1519.87,1.334702,543983,25170
1522.99,1.336702,538764,24814
1526.1,1.332664,533692,24810
1529.21,1.340086,527902,24125
1532.32,1.333455,521886,24217
1535.42,1.336088,515888,23794
1538.51,1.325272,509987,24115
1541.6,1.328765,503936,23638
1545.72,1.326776,494694,23311
1548.8,1.326990,488378,23002
1551.88,1.329152,481832,22581
1554.95,1.329236,474989,22256
1558.02,1.334739,467818,21644
1561.08,1.328229,460730,21638
1564.15,1.328350,454170,21324
1568.22,1.331883,444181,20686
1571.27,1.323348,436947,20753
1574.32,1.329650,429598,20110
1577.36,1.328665,422039,19801
1580.4,1.332196,414375,19284
1583.43,1.327689,406354,19108
1586.46,1.329001,398475,18681
1590.49,1.320954,388982,18577
1593.51,1.330026,380708,17806
1596.53,1.329695,372727,17446
1599.54,1.326432,365060,17216
1602.55,1.330300,357543,16712
1605.55,1.331627,349495,16286
1608.55,1.327936,341154,16033
1612.54,1.321037,330877,15799
1615.53,1.318938,322904,15493
1618.51,1.323655,315116,14956
1621.49,1.307606,307217,15130
1624.47,1.320851,299481,14306
1627.44,1.312497,292112,14225
1630.41,1.310866,284245,13894
1634.36,1.304465,274079,13596
1637.32,1.317979,266916,12835
1640.27,1.311034,259612,12685
1643.22,1.316808,251804,12141
1646.16,1.300511,244348,12232
1649.1,1.289342,236703,12158
1652.04,1.294252,228171,11588
1655.95,1.295517,215408,10908
1658.88,1.291964,204937,10463
1661.8,1.293009,193395,9850
1664.72,1.271531,179728,9618
1667.63,1.244525,163642,9319
1670.54,1.242347,146312,8374
1673.44,1.204997,128451,8012
1677.31,1.166607,105080,7160
1680.21,1.164885,88906,6082
1683.1,1.164036,75033,5143
1685.99,1.161635,63520,4378
1688.87,1.142264,53714,3871
1691.75,1.195129,45653,2913
1694.62,1.127949,39137,2915
1697.49,1.156249,33776,2357
1701.31,1.196041,28175,1794