File: ML/samples/unknown/Column 1_078273_20241121_165359.csv
Method:,Column 1,,
Host Date-Time:,21/11/24 @ 16:53:59,,
Header Version:,1,,
System Temp (C):,34.3,,
Detector Temp (C):,32.15,,
Humidity (%):,2.55,,
Lamp PD:,3802,,
Shift Vector Coefficients:,-10.5391,0.0761263,-0.000134223,,
Pixel to Wavelength Coefficients:,1775.68,-0.916766,-0.000235065,,
Serial Number:,5510004,,
Scan Config Name:,Column 1,,
Scan Config Type:,Slew,,
Section 1,,
Start wavelength (nm):,900,,
End wavelength (nm):,1700,,
Pattern Pixel Width (nm):,   7.03,,,,
Exposure (ms):,  0.635,,,,
Digital Resolution:,228,,
Num Repeats:,6,,
PGA Gain:,64,,
Total Measurement Time in sec:,  2.678,,
Wavelength (nm),Absorbance (AU),Reference Signal (unitless),Sample Signal (unitless)
901.51,1.284399,108485,5636
905.376,1.327551,121306,5706
909.237,1.306493,131909,6513
913.095,1.339472,143299,6558
916.948,1.289623,156982,8058
922.079,1.335938,179937,8302
925.923,1.305568,200504,9921
929.762,1.329483,222660,10427
933.597,1.323390,244426,11608
937.427,1.315435,263972,12768
941.254,1.309817,281845,13810
945.076,1.309395,297271,14580
950.165,1.306995,315605,15565
953.978,1.313424,328029,15940
957.786,1.307753,340470,16762
961.59,1.307885,352317,17340
965.389,1.308895,363056,17827
969.185,1.305878,373162,18451
972.976,1.314578,382632,18544
976.763,1.307091,391202,19289
981.806,1.311898,400190,19515
985.583,1.316054,406088,19614
989.355,1.311253,410162,20031
993.124,1.319827,412868,19769
996.888,1.309737,414263,20302
1000.65,1.305438,415476,20564
1004.4,1.310241,415479,20338
1009.41,1.312691,414358,20169
1013.15,1.312997,412923,20085
1016.89,1.313910,411526,19975
1020.63,1.310243,409066,20024
1024.36,1.314890,406777,19700
1028.09,1.312176,404427,19709
1031.82,1.307092,401911,19817
1036.78,1.318298,398410,19144
1040.49,1.312452,396204,19296
1044.2,1.307351,394236,19427
1047.91,1.308834,392042,19253
1051.61,1.311246,389823,19038
1055.31,1.310317,388234,19001
1059,1.313440,387599,18834
1063.92,1.303698,386688,19216
1067.61,1.308026,386598,19021
1071.29,1.315967,387377,18714
1074.96,1.312602,388536,18916
1078.63,1.308598,389855,19156
1082.3,1.320527,391215,18702
1085.96,1.315534,393215,19015
1090.84,1.315097,396270,19182
1094.49,1.314053,398760,19349
1098.14,1.313898,400987,19464
1101.79,1.317301,403477,19432
1105.43,1.311831,406116,19807
1109.06,1.315193,407701,19731
1112.7,1.321866,409859,19533
1117.53,1.315235,412494,19961
1121.15,1.320805,414909,19822
1124.77,1.318755,416559,19995
1128.38,1.325085,418532,19799
1131.99,1.314405,419956,20361
1135.6,1.322061,421946,20100
1139.2,1.323961,423881,20104
1143.99,1.321113,426786,20375
1147.58,1.316393,428617,20686
1151.17,1.314190,431169,20915
1154.75,1.318901,433579,20805
1158.33,1.314460,436264,21149
1161.91,1.314195,439132,21301
1165.48,1.319407,442389,21203
1169.04,1.306813,446101,22010
1173.79,1.316494,451929,21806
1177.34,1.326026,456026,21526
1180.9,1.317558,461306,22204
1184.44,1.311840,467657,22808
1187.99,1.321469,473969,22609
1191.52,1.309138,479856,23549
1195.06,1.326454,487372,22983
1199.76,1.320667,497347,23768
1203.29,1.326140,504311,23799
1206.81,1.320608,511507,24448
1210.33,1.321921,519078,24735
1213.84,1.324109,527163,24994
1217.35,1.325896,534208,25224
1220.85,1.330151,540472,25271
1225.51,1.317225,549929,26490
1229.01,1.323359,556888,26449
1232.5,1.322081,562180,26779
1235.98,1.322724,567975,27015
1239.46,1.318509,574815,27607
1242.94,1.327898,582782,27391
1246.41,1.322875,591476,28123
1251.03,1.327440,604016,28419
1254.5,1.329892,612289,28646
1257.96,1.328214,619125,29078
1261.41,1.320609,624551,29851
1264.86,1.325624,629900,29761
1268.31,1.326785,634345,29891
1271.75,1.325132,638574,30205
1276.33,1.325513,642499,30364
1279.76,1.325229,645905,30545
1283.19,1.330223,648307,30308
1286.61,1.326172,650446,30693
1290.03,1.327749,652132,30661
1293.44,1.334575,653907,30265
1296.85,1.330576,655963,30641
1301.39,1.326883,657349,30968
1304.8,1.330258,657558,30738
1308.19,1.331979,658515,30661
1311.58,1.328376,658804,30930
1314.97,1.329047,659011,30892
1318.36,1.329996,658272,30790
1321.73,1.332108,658022,30629
1326.23,1.329716,657870,30791
1329.6,1.326969,656482,30921
1332.97,1.332705,654926,30443
1336.33,1.332209,653727,30422
1339.69,1.330834,652497,30461
1343.04,1.333150,649913,30179
1346.39,1.326955,647671,30507
1349.73,1.326699,645338,30415
1354.18,1.332819,641175,29796
1357.52,1.329086,638376,29922
1360.85,1.324224,635805,30137
1364.17,1.329194,633413,29682
1367.49,1.330652,631026,29471
1370.81,1.324463,628050,29753
1374.12,1.332339,625034,29078
1378.54,1.326649,620272,29237
1381.84,1.328891,616892,28928
1385.14,1.327523,613613,28865
1388.43,1.330413,611526,28576
1391.72,1.329785,610663,28577
1395.01,1.325650,610634,28849
1398.29,1.326348,611700,28853
1402.66,1.328149,614051,28844
1405.93,1.331011,616268,28758
1409.2,1.324793,617795,29245
1412.46,1.332857,618872,28757
1415.72,1.335139,619795,28649
1418.98,1.334811,620495,28703
1422.23,1.332706,621087,28870
1426.56,1.329969,621375,29066
1429.8,1.334537,621616,28773
1433.04,1.333313,622129,28878
1436.27,1.333118,621526,28863
1439.5,1.330129,621113,29043
1442.72,1.334021,620921,28775
1445.94,1.337812,620270,28495
1450.23,1.335530,618860,28580
1453.44,1.335139,617697,28552
1456.64,1.335623,616264,28454
1459.85,1.338165,614413,28203
1463.04,1.333590,612307,28404
1466.24,1.340621,610032,27844
1469.43,1.337691,607345,27909
1473.67,1.335406,603789,27892
1476.85,1.334222,601175,27847
1480.02,1.335979,597737,27576
1483.19,1.337974,594479,27300
1486.36,1.338821,591232,27098
1489.52,1.333663,587853,27265
1492.68,1.339695,583875,26707
1496.89,1.341276,578062,26345
1500.03,1.340681,574159,26203
1503.18,1.338670,570285,26147
1506.32,1.341916,565444,25732
1509.45,1.337112,560571,25794
1512.58,1.330680,555821,25957
1515.71,1.341549,550344,25066
1519.87,1.336674,543983,25056
1522.99,1.332331,538764,25065
1526.1,1.338249,533692,24493
1529.21,1.337537,527902,24267
1532.32,1.328516,521886,24494
1535.42,1.333812,515888,23919
1538.51,1.339347,509987,23346
1541.6,1.335523,503936,23273
1545.72,1.331233,494694,23073
1548.8,1.334974,488378,22583
1551.88,1.339684,481832,22040
1554.95,1.337908,474989,21816
1558.02,1.339014,467818,21432
1561.08,1.333236,460730,21390
1564.15,1.335993,454170,20952
1568.22,1.337270,444181,20431
1571.27,1.330884,436947,20396
1574.32,1.338640,429598,19698
1577.36,1.336500,422039,19447
1580.4,1.340404,414375,18923
1583.43,1.345056,406354,18359
1586.46,1.332174,398475,18545
1590.49,1.327004,388982,18320
1593.51,1.333749,380708,17654
1596.53,1.332367,372727,17339
1599.54,1.329343,365060,17101
1602.55,1.329625,357543,16738
1605.55,1.337398,349495,16071
1608.55,1.321243,341154,16282
1612.54,1.317860,330877,15915
1615.53,1.322993,322904,15349
1618.51,1.317628,315116,15165
1621.49,1.329113,307217,14399
1624.47,1.318761,299481,14375
1627.44,1.312894,292112,14212
1630.41,1.313311,284245,13816
1634.36,1.320273,274079,13110
1637.32,1.329951,266916,12486
1640.27,1.311000,259612,12686
1643.22,1.311299,251804,12296
1646.16,1.311332,244348,11931
1649.1,1.301403,236703,11825
1652.04,1.314780,228171,11053
1655.95,1.304650,215408,10681
1658.88,1.290059,204937,10509
1661.8,1.285188,193395,10029
1664.72,1.278954,179728,9455
1667.63,1.259508,163642,9003
1670.54,1.236833,146312,8481
1673.44,1.227011,128451,7616
1677.31,1.235266,105080,6113
1680.21,1.208332,88906,5503
1683.1,1.175155,75033,5013
1685.99,1.212515,63520,3894
1688.87,1.189508,53714,3472
1691.75,1.193047,45653,2927
1694.62,1.259745,39137,2152
1697.49,1.222183,33776,2025
1701.31,1.161168,28175,1944