File: ML/samples/unknown/Column 1_078471_20241121_170418.csv
Method:,Column 1,,
Host Date-Time:,21/11/24 @ 17:4:18,,
Header Version:,1,,
System Temp (C):,34.5,,
Detector Temp (C):,33.75,,
Humidity (%):,1.86,,
Lamp PD:,3801,,
Shift Vector Coefficients:,-10.5391,0.0761263,-0.000134223,,
Pixel to Wavelength Coefficients:,1775.68,-0.916766,-0.000235065,,
Serial Number:,5510004,,
Scan Config Name:,Column 1,,
Scan Config Type:,Slew,,
Section 1,,
Start wavelength (nm):,900,,
End wavelength (nm):,1700,,
Pattern Pixel Width (nm):,   7.03,,,,
Exposure (ms):,  0.635,,,,
Digital Resolution:,228,,
Num Repeats:,6,,
PGA Gain:,64,,
Total Measurement Time in sec:,  2.725,,
Wavelength (nm),Absorbance (AU),Reference Signal (unitless),Sample Signal (unitless)
901.51,1.307828,108485,5340
905.376,1.344468,121306,5488
909.237,1.348393,131909,5914
913.095,1.322905,143299,6813
916.948,1.334077,156982,7274
922.079,1.340143,179937,8222
925.923,1.324582,200504,9496
929.762,1.343149,222660,10104
933.597,1.336223,244426,11270
937.427,1.335911,263972,12180
941.254,1.320804,281845,13465
945.076,1.314278,297271,14417
950.165,1.323864,315605,14972
953.978,1.316075,328029,15843
957.786,1.308272,340470,16742
961.59,1.318585,352317,16918
965.389,1.314042,363056,17617
969.185,1.314819,373162,18075
972.976,1.310081,382632,18737
976.763,1.313647,391202,19000
981.806,1.311697,400190,19524
985.583,1.317762,406088,19537
989.355,1.307239,410162,20217
993.124,1.310180,412868,20213
996.888,1.307838,414263,20391
1000.65,1.301716,415476,20741
1004.4,1.311053,415479,20300
1009.41,1.312562,414358,20175
1013.15,1.310539,412923,20199
1016.89,1.312781,411526,20027
1020.63,1.312090,409066,19939
1024.36,1.311071,406777,19874
1028.09,1.304834,404427,20045
1031.82,1.308805,401911,19739
1036.78,1.309272,398410,19546
1040.49,1.307417,396204,19521
1044.2,1.318170,394236,18949
1047.91,1.313438,392042,19050
1051.61,1.305828,389823,19277
1055.31,1.314936,388234,18800
1059,1.307622,387599,19088
1063.92,1.304761,386688,19169
1067.61,1.314907,386598,18722
1071.29,1.308239,387377,19050
1074.96,1.315135,388536,18806
1078.63,1.311259,389855,19039
1082.3,1.316000,391215,18898
1085.96,1.314143,393215,19076
1090.84,1.320680,396270,18937
1094.49,1.322347,398760,18983
1098.14,1.317888,400987,19286
1101.79,1.318824,403477,19364
1105.43,1.319574,406116,19457
1109.06,1.311380,407701,19905
1112.7,1.309222,409859,20110
1117.53,1.319982,412494,19744
1121.15,1.315297,414909,20075
1124.77,1.316264,416559,20110
1128.38,1.317518,418532,20147
1131.99,1.323784,419956,19926
1135.6,1.318639,421946,20259
1139.2,1.317656,423881,20398
1143.99,1.323356,426786,20270
1147.58,1.330670,428617,20017
1151.17,1.322851,431169,20502
1154.75,1.325802,433579,20477
1158.33,1.320706,436264,20847
1161.91,1.324323,439132,20810
1165.48,1.319100,442389,21218
1169.04,1.320279,446101,21338
1173.79,1.315738,451929,21844
1177.34,1.318625,456026,21896
1180.9,1.314090,461306,22382
1184.44,1.320592,467657,22353
1187.99,1.325192,473969,22416
1191.52,1.324722,479856,22719
1195.06,1.321288,487372,23258
1199.76,1.314769,497347,24093
1203.29,1.319548,504311,24163
1206.81,1.323049,511507,24311
1210.33,1.320308,519078,24827
1213.84,1.333364,527163,24467
1217.35,1.323852,534208,25343
1220.85,1.322198,540472,25738
1225.51,1.319674,549929,26341
1229.01,1.325911,556888,26294
1232.5,1.322909,562180,26728
1235.98,1.320895,567975,27129
1239.46,1.323334,574815,27302
1242.94,1.326995,582782,27448
1246.41,1.325820,591476,27933
1251.03,1.324652,604016,28602
1254.5,1.319334,612289,29351
1257.96,1.323520,619125,29394
1261.41,1.328893,624551,29287
1264.86,1.331397,629900,29368
1268.31,1.330931,634345,29607
1271.75,1.328394,638574,29979
1276.33,1.328240,642499,30174
1279.76,1.329515,645905,30245
1283.19,1.323244,648307,30799
1286.61,1.334385,650446,30118
1290.03,1.329779,652132,30518
1293.44,1.334045,653907,30302
1296.85,1.331342,655963,30587
1301.39,1.331465,657349,30643
1304.8,1.331560,657558,30646
1308.19,1.326910,658515,31021
1311.58,1.330869,658804,30753
1314.97,1.331669,659011,30706
1318.36,1.333707,658272,30528
1321.73,1.330381,658022,30751
1326.23,1.327620,657870,30940
1329.6,1.333664,656482,30448
1332.97,1.337770,654926,30090
1336.33,1.340860,653727,29822
1339.69,1.330236,652497,30503
1343.04,1.330682,649913,30351
1346.39,1.335814,647671,29891
1349.73,1.327271,645338,30375
1354.18,1.332090,641175,29846
1357.52,1.327377,638376,30040
1360.85,1.329341,635805,29784
1364.17,1.328989,633413,29696
1367.49,1.331301,631026,29427
1370.81,1.328879,628050,29452
1374.12,1.329986,625034,29236
1378.54,1.329690,620272,29033
1381.84,1.333600,616892,28616
1385.14,1.327854,613613,28843
1388.43,1.330049,611526,28600
1391.72,1.333540,610663,28331
1395.01,1.326569,610634,28788
1398.29,1.328037,611700,28741
1402.66,1.328224,614051,28839
1405.93,1.332584,616268,28654
1409.2,1.336213,617795,28486
1412.46,1.326694,618872,29168
1415.72,1.332072,619795,28852
1418.98,1.333678,620495,28778
1422.23,1.341259,621087,28307
1426.56,1.339714,621375,28421
1429.8,1.329286,621616,29123
1433.04,1.334458,622129,28802
1436.27,1.336699,621526,28626
1439.5,1.335047,621113,28716
1442.72,1.330369,620921,29018
1445.94,1.336063,620270,28610
1450.23,1.332517,618860,28779
1453.44,1.337794,617697,28378
1456.64,1.337873,616264,28307
1459.85,1.339121,614413,28141
1463.04,1.333727,612307,28395
1466.24,1.337915,610032,28018
1469.43,1.335332,607345,28061
1473.67,1.336169,603789,27843
1476.85,1.337321,601175,27649
1480.02,1.339108,597737,27378
1483.19,1.326250,594479,28047
1486.36,1.339912,591232,27030
1489.52,1.341053,587853,26805
1492.68,1.344321,583875,26424
1496.89,1.339680,578062,26442
1500.03,1.334788,574159,26561
1503.18,1.332420,570285,26526
1506.32,1.335533,565444,26113
1509.45,1.339814,560571,25634
1512.58,1.336746,555821,25597
1515.71,1.339768,550344,25169
1519.87,1.333169,543983,25259
1522.99,1.341683,538764,24531
1526.1,1.342866,533692,24234
1529.21,1.334897,527902,24415
1532.32,1.343102,521886,23685
1535.42,1.338155,515888,23681
1538.51,1.345529,509987,23016
1541.6,1.340685,503936,22998
1545.72,1.329861,494694,23146
1548.8,1.336844,488378,22486
1551.88,1.339605,481832,22044
1554.95,1.335111,474989,21957
1558.02,1.341106,467818,21329
1561.08,1.340318,460730,21044
1564.15,1.335082,454170,20996
1568.22,1.333524,444181,20608
1571.27,1.331118,436947,20385
1574.32,1.330039,429598,20092
1577.36,1.336143,422039,19463
1580.4,1.341415,414375,18879
1583.43,1.325603,406354,19200
1586.46,1.333699,398475,18480
1590.49,1.334874,388982,17991
1593.51,1.329100,380708,17844
1596.53,1.326026,372727,17594
1599.54,1.332145,365060,16991
1602.55,1.332723,357543,16619
1605.55,1.334409,349495,16182
1608.55,1.334376,341154,15797
1612.54,1.325041,330877,15654
1615.53,1.339252,322904,14785
1618.51,1.335071,315116,14568
1621.49,1.322795,307217,14610
1624.47,1.328044,299481,14071
1627.44,1.313016,292112,14208
1630.41,1.330495,284245,13280
1634.36,1.322232,274079,13051
1637.32,1.327973,266916,12543
1640.27,1.326118,259612,12252
1643.22,1.305684,251804,12456
1646.16,1.314254,244348,11851
1649.1,1.323669,236703,11234
1652.04,1.317421,228171,10986
1655.95,1.309886,215408,10553
1658.88,1.290059,204937,10509
1661.8,1.297753,193395,9743
1664.72,1.278771,179728,9459
1667.63,1.256048,163642,9075
1670.54,1.260294,146312,8035
1673.44,1.203860,128451,8033
1677.31,1.204749,105080,6558
1680.21,1.183039,88906,5833
1683.1,1.180559,75033,4951
1685.99,1.219712,63520,3830
1688.87,1.169942,53714,3632
1691.75,1.190384,45653,2945
1694.62,1.229540,39137,2307
1697.49,1.134858,33776,2476
1701.31,1.221207,28175,1693