File: ML/samples/unknown/Column 1_078695_20241121_171743.csv
Method:,Column 1,,
Host Date-Time:,21/11/24 @ 17:17:43,,
Header Version:,1,,
System Temp (C):,35.04,,
Detector Temp (C):,34.48,,
Humidity (%):,1.76,,
Lamp PD:,3801,,
Shift Vector Coefficients:,-10.5391,0.0761263,-0.000134223,,
Pixel to Wavelength Coefficients:,1775.68,-0.916766,-0.000235065,,
Serial Number:,5510004,,
Scan Config Name:,Column 1,,
Scan Config Type:,Slew,,
Section 1,,
Start wavelength (nm):,900,,
End wavelength (nm):,1700,,
Pattern Pixel Width (nm):,   7.03,,,,
Exposure (ms):,  0.635,,,,
Digital Resolution:,228,,
Num Repeats:,6,,
PGA Gain:,64,,
Total Measurement Time in sec:,  2.693,,
Wavelength (nm),Absorbance (AU),Reference Signal (unitless),Sample Signal (unitless)
901.51,1.319366,108485,5200
905.376,1.311634,121306,5919
909.237,1.327673,131909,6203
913.095,1.336633,143299,6601
916.948,1.314808,156982,7604
922.079,1.315751,179937,8697
925.923,1.327059,200504,9442
929.762,1.325998,222660,10511
933.597,1.303000,244426,12166
937.427,1.327296,263972,12424
941.254,1.314687,281845,13656
945.076,1.312564,297271,14474
950.165,1.309149,315605,15488
953.978,1.304338,328029,16277
957.786,1.309883,340470,16680
961.59,1.311329,352317,17203
965.389,1.309871,363056,17787
969.185,1.308806,373162,18327
972.976,1.314250,382632,18558
976.763,1.309100,391202,19200
981.806,1.306018,400190,19781
985.583,1.304669,406088,20135
989.355,1.303730,410162,20381
993.124,1.307097,412868,20357
996.888,1.308370,414263,20366
1000.65,1.311307,415476,20288
1004.4,1.306435,415479,20517
1009.41,1.296731,414358,20924
1013.15,1.290887,412923,21134
1016.89,1.296230,411526,20805
1020.63,1.307131,409066,20168
1024.36,1.304737,406777,20166
1028.09,1.299387,404427,20298
1031.82,1.304209,401911,19949
1036.78,1.303841,398410,19792
1040.49,1.310767,396204,19371
1044.2,1.302460,394236,19647
1047.91,1.310937,392042,19160
1051.61,1.311109,389823,19044
1055.31,1.303131,388234,19318
1059,1.311163,387599,18933
1063.92,1.306327,386688,19100
1067.61,1.306454,386598,19090
1071.29,1.314230,387377,18789
1074.96,1.312717,388536,18911
1078.63,1.310393,389855,19077
1082.3,1.322389,391215,18622
1085.96,1.308893,393215,19308
1090.84,1.311153,396270,19357
1094.49,1.318384,398760,19157
1098.14,1.312228,400987,19539
1101.79,1.309329,403477,19792
1105.43,1.306709,406116,20042
1109.06,1.309268,407701,20002
1112.7,1.311366,409859,20011
1117.53,1.316216,412494,19916
1121.15,1.312107,414909,20223
1124.77,1.317627,416559,20047
1128.38,1.310229,418532,20488
1131.99,1.316607,419956,20258
1135.6,1.312128,421946,20565
1139.2,1.313250,423881,20606
1143.99,1.315606,426786,20635
1147.58,1.314090,428617,20796
1151.17,1.317190,431169,20771
1154.75,1.314560,433579,21014
1158.33,1.315508,436264,21098
1161.91,1.318663,439132,21083
1165.48,1.307527,442389,21791
1169.04,1.320952,446101,21305
1173.79,1.314269,451929,21918
1177.34,1.308315,456026,22422
1180.9,1.312270,461306,22476
1184.44,1.317996,467657,22487
1187.99,1.316370,473969,22876
1191.52,1.321029,479856,22913
1195.06,1.319983,487372,23328
1199.76,1.318934,497347,23863
1203.29,1.312842,504311,24539
1206.81,1.317599,511507,24618
1210.33,1.320361,519078,24824
1213.84,1.320045,527163,25229
1217.35,1.318742,534208,25643
1220.85,1.318686,540472,25947
1225.51,1.320417,549929,26296
1229.01,1.320429,556888,26628
1232.5,1.324146,562180,26652
1235.98,1.317245,567975,27358
1239.46,1.315671,574815,27788
1242.94,1.321539,582782,27795
1246.41,1.318986,591476,28376
1251.03,1.318920,604016,28982
1254.5,1.323123,612289,29096
1257.96,1.323727,619125,29380
1261.41,1.322388,624551,29729
1264.86,1.320676,629900,30102
1268.31,1.326916,634345,29882
1271.75,1.321995,638574,30424
1276.33,1.321867,642499,30620
1279.76,1.321731,645905,30792
1283.19,1.323710,648307,30766
1286.61,1.324435,650446,30816
1290.03,1.331291,652132,30412
1293.44,1.322337,653907,31130
1296.85,1.320974,655963,31326
1301.39,1.323711,657349,31195
1304.8,1.322459,657558,31295
1308.19,1.332844,658515,30600
1311.58,1.323254,658804,31297
1314.97,1.326775,659011,31054
1318.36,1.329742,658272,30808
1321.73,1.325131,658022,31125
1326.23,1.330295,657870,30750
1329.6,1.323291,656482,31184
1332.97,1.323418,654926,31101
1336.33,1.326677,653727,30812
1339.69,1.322699,652497,31037
1343.04,1.325689,649913,30702
1346.39,1.326713,647671,30524
1349.73,1.320983,645338,30818
1354.18,1.329045,641175,30056
1357.52,1.332744,638376,29671
1360.85,1.322025,635805,30290
1364.17,1.319915,633413,30323
1367.49,1.326458,631026,29757
1370.81,1.328319,628050,29490
1374.12,1.318334,625034,30031
1378.54,1.323644,620272,29440
1381.84,1.322956,616892,29326
1385.14,1.322393,613613,29208
1388.43,1.318984,611526,29338
1391.72,1.311964,610663,29774
1395.01,1.325409,610634,28865
1398.29,1.322645,611700,29100
1402.66,1.323760,614051,29137
1405.93,1.327491,616268,28992
1409.2,1.323606,617795,29325
1412.46,1.331440,618872,28851
1415.72,1.329955,619795,28993
1418.98,1.328204,620495,29143
1422.23,1.331399,621087,28957
1426.56,1.323399,621375,29509
1429.8,1.329048,621616,29139
1433.04,1.329644,622129,29123
1436.27,1.328002,621526,29205
1439.5,1.329561,621113,29081
1442.72,1.331178,620921,28964
1445.94,1.330108,620270,29005
1450.23,1.329389,618860,28987
1453.44,1.325229,617697,29211
1456.64,1.323537,616264,29257
1459.85,1.331487,614413,28640
1463.04,1.331272,612307,28556
1466.24,1.334888,610032,28214
1469.43,1.331680,607345,28298
1473.67,1.330621,603789,28201
1476.85,1.331548,601175,28019
1480.02,1.328562,597737,28051
1483.19,1.331782,594479,27692
1486.36,1.337429,591232,27185
1489.52,1.335755,587853,27134
1492.68,1.337408,583875,26848
1496.89,1.339910,578062,26428
1500.03,1.334004,574159,26609
1503.18,1.332797,570285,26503
1506.32,1.341781,565444,25740
1509.45,1.332090,560571,26094
1512.58,1.329811,555821,26009
1515.71,1.336536,550344,25357
1519.87,1.325787,543983,25692
1522.99,1.332071,538764,25080
1526.1,1.330377,533692,24941
1529.21,1.323676,527902,25054
1532.32,1.330310,521886,24393
1535.42,1.333940,515888,23912
1538.51,1.327909,509987,23969
1541.6,1.327389,503936,23713
1545.72,1.335279,494694,22859
1548.8,1.333458,488378,22662
1551.88,1.325762,481832,22758
1554.95,1.334024,474989,22012
1558.02,1.328880,467818,21938
1561.08,1.327187,460730,21690
1564.15,1.331826,454170,21154
1568.22,1.332198,444181,20671
1571.27,1.324395,436947,20703
1574.32,1.333708,429598,19923
1577.36,1.329126,422039,19780
1580.4,1.330870,414375,19343
1583.43,1.331938,406354,18922
1586.46,1.324284,398475,18885
1590.49,1.322687,388982,18503
1593.51,1.326382,380708,17956
1596.53,1.325015,372727,17635
1599.54,1.324619,365060,17288
1602.55,1.328977,357543,16763
1605.55,1.320985,349495,16690
1608.55,1.326125,341154,16100
1612.54,1.319774,330877,15845
1615.53,1.318350,322904,15514
1618.51,1.322292,315116,15003
1621.49,1.317595,307217,14786
1624.47,1.312880,299481,14571
1627.44,1.326615,292112,13770
1630.41,1.312776,284245,13833
1634.36,1.325505,274079,12953
1637.32,1.321376,266916,12735
1640.27,1.312475,259612,12643
1643.22,1.306382,251804,12436
1646.16,1.310932,244348,11942
1649.1,1.324714,236703,11207
1652.04,1.313956,228171,11074
1655.95,1.280222,215408,11299
1658.88,1.297520,204937,10330
1661.8,1.300794,193395,9675
1664.72,1.266235,179728,9736
1667.63,1.263092,163642,8929
1670.54,1.204286,146312,9141
1673.44,1.229642,128451,7570
1677.31,1.209208,105080,6491
1680.21,1.169840,88906,6013
1683.1,1.176022,75033,5003
1685.99,1.213296,63520,3887
1688.87,1.186516,53714,3496
1691.75,1.167268,45653,3106
1694.62,1.206624,39137,2432
1697.49,1.149847,33776,2392
1701.31,1.188125,28175,1827