File: ML/samples/unknown/Column 1_078989_20241121_173153.csv
Method:,Column 1,,
Host Date-Time:,21/11/24 @ 17:31:53,,
Header Version:,1,,
System Temp (C):,37.66,,
Detector Temp (C):,36.93,,
Humidity (%):,0.83,,
Lamp PD:,3795,,
Shift Vector Coefficients:,-10.5391,0.0761263,-0.000134223,,
Pixel to Wavelength Coefficients:,1775.68,-0.916766,-0.000235065,,
Serial Number:,5510004,,
Scan Config Name:,Column 1,,
Scan Config Type:,Slew,,
Section 1,,
Start wavelength (nm):,900,,
End wavelength (nm):,1700,,
Pattern Pixel Width (nm):,   7.03,,,,
Exposure (ms):,  0.635,,,,
Digital Resolution:,228,,
Num Repeats:,6,,
PGA Gain:,64,,
Total Measurement Time in sec:,  2.728,,
Wavelength (nm),Absorbance (AU),Reference Signal (unitless),Sample Signal (unitless)
901.51,1.303056,108485,5399
905.376,1.303709,121306,6028
909.237,1.312199,131909,6428
913.095,1.328680,143299,6723
916.948,1.320615,156982,7503
922.079,1.332239,179937,8373
925.923,1.301082,200504,10024
929.762,1.328567,222660,10449
933.597,1.320482,244426,11686
937.427,1.303293,263972,13130
941.254,1.310730,281845,13781
945.076,1.311365,297271,14514
950.165,1.318588,315605,15155
953.978,1.297981,328029,16517
957.786,1.321225,340470,16250
961.59,1.311456,352317,17198
965.389,1.307776,363056,17873
969.185,1.295367,373162,18903
972.976,1.305539,382632,18934
976.763,1.304286,391202,19414
981.806,1.298660,400190,20119
985.583,1.298586,406088,20419
989.355,1.293287,410162,20877
993.124,1.297873,412868,20794
996.888,1.302083,414263,20663
1000.65,1.299336,415476,20855
1004.4,1.305906,415479,20542
1009.41,1.294020,414358,21055
1013.15,1.298558,412923,20764
1016.89,1.309239,411526,20191
1020.63,1.300633,409066,20472
1024.36,1.294331,406777,20655
1028.09,1.305138,404427,20031
1031.82,1.306698,401911,19835
1036.78,1.304060,398410,19782
1040.49,1.322677,396204,18847
1044.2,1.297318,394236,19881
1047.91,1.311640,392042,19129
1051.61,1.310039,389823,19091
1055.31,1.305295,388234,19222
1059,1.315381,387599,18750
1063.92,1.297705,386688,19483
1067.61,1.312571,386598,18823
1071.29,1.312155,387377,18879
1074.96,1.303874,388536,19300
1078.63,1.301515,389855,19471
1082.3,1.311610,391215,19090
1085.96,1.313688,393215,19096
1090.84,1.304231,396270,19668
1094.49,1.305166,398760,19749
1098.14,1.309503,400987,19662
1101.79,1.309702,403477,19775
1105.43,1.316571,406116,19592
1109.06,1.305981,407701,20154
1112.7,1.307950,409859,20169
1117.53,1.305596,412494,20409
1121.15,1.312580,414909,20201
1124.77,1.315811,416559,20131
1128.38,1.315819,418532,20226
1131.99,1.310878,419956,20527
1135.6,1.305901,421946,20862
1139.2,1.310519,423881,20736
1143.99,1.315059,426786,20661
1147.58,1.312526,428617,20871
1151.17,1.319580,431169,20657
1154.75,1.318275,433579,20835
1158.33,1.314357,436264,21154
1161.91,1.307418,439132,21636
1165.48,1.315553,442389,21392
1169.04,1.315140,446101,21592
1173.79,1.312509,451929,22007
1177.34,1.320812,456026,21786
1180.9,1.311459,461306,22518
1184.44,1.316993,467657,22539
1187.99,1.306070,473969,23425
1191.52,1.317349,479856,23108
1195.06,1.310791,487372,23827
1199.76,1.315093,497347,24075
1203.29,1.317772,504311,24262
1206.81,1.315505,511507,24737
1210.33,1.322219,519078,24718
1213.84,1.318138,527163,25340
1217.35,1.313506,534208,25954
1220.85,1.320867,540472,25817
1225.51,1.314561,549929,26653
1229.01,1.322260,556888,26516
1232.5,1.322081,562180,26779
1235.98,1.315597,567975,27462
1239.46,1.308925,574815,28223
1242.94,1.312647,582782,28370
1246.41,1.319369,591476,28351
1251.03,1.318695,604016,28997
1254.5,1.318521,612289,29406
1257.96,1.320047,619125,29630
1261.41,1.319490,624551,29928
1264.86,1.320561,629900,30110
1268.31,1.322347,634345,30198
1271.75,1.315126,638574,30909
1276.33,1.327291,642499,30240
1279.76,1.325741,645905,30509
1283.19,1.317445,648307,31213
1286.61,1.316918,650446,31354
1290.03,1.323016,652132,30997
1293.44,1.321765,653907,31171
1296.85,1.326135,655963,30956
1301.39,1.328119,657349,30880
1304.8,1.328735,657558,30846
1308.19,1.329113,658515,30864
1311.58,1.323962,658804,31246
1314.97,1.318121,659011,31679
1318.36,1.326344,658272,31050
1321.73,1.326571,658022,31022
1326.23,1.323012,657870,31270
1329.6,1.326352,656482,30965
1332.97,1.323837,654926,31071
1336.33,1.327905,653727,30725
1339.69,1.328829,652497,30602
1343.04,1.323614,649913,30849
1346.39,1.327881,647671,30442
1349.73,1.318972,645338,30961
1354.18,1.320305,641175,30667
1357.52,1.326222,638376,30120
1360.85,1.319836,635805,30443
1364.17,1.325580,633413,29930
1367.49,1.320530,631026,30166
1370.81,1.323501,628050,29819
1374.12,1.324803,625034,29587
1378.54,1.320763,620272,29636
1381.84,1.327691,616892,29008
1385.14,1.321531,613613,29266
1388.43,1.324646,611526,28958
1391.72,1.326093,610663,28821
1395.01,1.324838,610634,28903
1398.29,1.320814,611700,29223
1402.66,1.320582,614051,29351
1405.93,1.328406,616268,28931
1409.2,1.323029,617795,29364
1412.46,1.322707,618872,29437
1415.72,1.328116,619795,29116
1418.98,1.329772,620495,29038
1422.23,1.328499,621087,29151
1426.56,1.336320,621375,28644
1429.8,1.325914,621616,29350
1433.04,1.328289,622129,29214
1436.27,1.330149,621526,29061
1439.5,1.329995,621113,29052
1442.72,1.325177,620921,29367
1445.94,1.325254,620270,29331
1450.23,1.337571,618860,28446
1453.44,1.329532,617697,28923
1456.64,1.329666,616264,28847
1459.85,1.333661,614413,28497
1463.04,1.326733,612307,28856
1466.24,1.328759,610032,28615
1469.43,1.332694,607345,28232
1473.67,1.328026,603789,28370
1476.85,1.329831,601175,28130
1480.02,1.329197,597737,28010
1483.19,1.329093,594479,27864
1486.36,1.326668,591232,27867
1489.52,1.330031,587853,27494
1492.68,1.338607,583875,26774
1496.89,1.332771,578062,26866
1500.03,1.327009,574159,27041
1503.18,1.330362,570285,26652
1506.32,1.335101,565444,26139
1509.45,1.334694,560571,25938
1512.58,1.330279,555821,25981
1515.71,1.331225,550344,25669
1519.87,1.332757,543983,25283
1522.99,1.341046,538764,24567
1526.1,1.336285,533692,24604
1529.21,1.330772,527902,24648
1532.32,1.327453,521886,24554
1535.42,1.330899,515888,24080
1538.51,1.330034,509987,23852
1541.6,1.336775,503936,23206
1545.72,1.329804,494694,23149
1548.8,1.327803,488378,22959
1551.88,1.329691,481832,22553
1554.95,1.332114,474989,22109
1558.02,1.330149,467818,21874
1561.08,1.330503,460730,21525
1564.15,1.321279,454170,21674
1568.22,1.328433,444181,20851
1571.27,1.317507,436947,21034
1574.32,1.320293,429598,20548
1577.36,1.326172,422039,19915
1580.4,1.329771,414375,19392
1583.43,1.328008,406354,19094
1586.46,1.327539,398475,18744
1590.49,1.331532,388982,18130
1593.51,1.323298,380708,18084
1596.53,1.328775,372727,17483
1599.54,1.312042,365060,17796
1602.55,1.322420,357543,17018
1605.55,1.312635,349495,17014
1608.55,1.323677,341154,16191
1612.54,1.328355,330877,15535
1615.53,1.324212,322904,15306
1618.51,1.314091,315116,15289
1621.49,1.315748,307217,14849
1624.47,1.308225,299481,14728
1627.44,1.303314,292112,14529
1630.41,1.312682,284245,13836
1634.36,1.323799,274079,13004
1637.32,1.323804,266916,12664
1640.27,1.308304,259612,12765
1643.22,1.306242,251804,12440
1646.16,1.301969,244348,12191
1649.1,1.305499,236703,11714
1652.04,1.299683,228171,11444
1655.95,1.306279,215408,10641
1658.88,1.293544,204937,10425
1661.8,1.265670,193395,10490
1664.72,1.254312,179728,10007
1667.63,1.240675,163642,9402
1670.54,1.194468,146312,9350
1673.44,1.184976,128451,8390
1677.31,1.164067,105080,7202
1680.21,1.137557,88906,6477
1683.1,1.109509,75033,5831
1685.99,1.093132,63520,5126
1688.87,1.150647,53714,3797
1691.75,1.077520,45653,3819
1694.62,1.074205,39137,3299
1697.49,1.108983,33776,2628
1701.31,1.044006,28175,2546