File: ML/samples/unknown/Column 1_078790_20241121_172218.csv
Method:,Column 1,,
Host Date-Time:,21/11/24 @ 17:22:18,,
Header Version:,1,,
System Temp (C):,36.4,,
Detector Temp (C):,35.21,,
Humidity (%):,0.68,,
Lamp PD:,3797,,
Shift Vector Coefficients:,-10.5391,0.0761263,-0.000134223,,
Pixel to Wavelength Coefficients:,1775.68,-0.916766,-0.000235065,,
Serial Number:,5510004,,
Scan Config Name:,Column 1,,
Scan Config Type:,Slew,,
Section 1,,
Start wavelength (nm):,900,,
End wavelength (nm):,1700,,
Pattern Pixel Width (nm):,   7.03,,,,
Exposure (ms):,  0.635,,,,
Digital Resolution:,228,,
Num Repeats:,6,,
PGA Gain:,64,,
Total Measurement Time in sec:,  2.724,,
Wavelength (nm),Absorbance (AU),Reference Signal (unitless),Sample Signal (unitless)
901.51,1.323562,108485,5150
905.376,1.308490,121306,5962
909.237,1.351932,131909,5866
913.095,1.302423,143299,7142
916.948,1.277295,156982,8290
922.079,1.315801,179937,8696
925.923,1.329088,200504,9398
929.762,1.314017,222660,10805
933.597,1.318294,244426,11745
937.427,1.312520,263972,12854
941.254,1.322841,281845,13402
945.076,1.309216,297271,14586
950.165,1.319420,315605,15126
953.978,1.306210,328029,16207
957.786,1.314095,340470,16519
961.59,1.304715,352317,17467
965.389,1.298092,363056,18276
969.185,1.306513,373162,18424
972.976,1.305975,382632,18915
976.763,1.299348,391202,19636
981.806,1.305316,400190,19813
985.583,1.294753,406088,20600
989.355,1.294579,410162,20815
993.124,1.305075,412868,20452
996.888,1.308392,414263,20365
1000.65,1.297445,415476,20946
1004.4,1.306202,415479,20528
1009.41,1.310908,414358,20252
1013.15,1.302107,412923,20595
1016.89,1.299162,411526,20665
1020.63,1.296369,409066,20674
1024.36,1.309261,406777,19957
1028.09,1.302328,404427,20161
1031.82,1.299295,401911,20176
1036.78,1.294571,398410,20219
1040.49,1.304645,396204,19646
1044.2,1.310807,394236,19273
1047.91,1.305285,392042,19411
1051.61,1.306617,389823,19242
1055.31,1.294716,388234,19696
1059,1.302555,387599,19312
1063.92,1.310669,386688,18910
1067.61,1.309398,386598,18961
1071.29,1.305398,387377,19175
1074.96,1.316731,388536,18737
1078.63,1.309165,389855,19131
1082.3,1.314188,391215,18977
1085.96,1.316448,393215,18975
1090.84,1.314012,396270,19230
1094.49,1.313156,398760,19389
1098.14,1.312984,400987,19505
1101.79,1.310538,403477,19737
1105.43,1.304569,406116,20141
1109.06,1.316736,407701,19661
1112.7,1.313825,409859,19898
1117.53,1.316346,412494,19910
1121.15,1.308621,414909,20386
1124.77,1.315208,416559,20159
1128.38,1.316549,418532,20192
1131.99,1.318606,419956,20165
1135.6,1.306005,421946,20857
1139.2,1.327628,423881,19935
1143.99,1.308301,426786,20985
1147.58,1.317381,428617,20639
1151.17,1.320675,431169,20605
1154.75,1.320071,433579,20749
1158.33,1.314295,436264,21157
1161.91,1.305935,439132,21710
1165.48,1.307169,442389,21809
1169.04,1.309426,446101,21878
1173.79,1.308619,451929,22205
1177.34,1.308160,456026,22430
1180.9,1.315139,461306,22328
1184.44,1.308672,467657,22975
1187.99,1.312458,473969,23083
1191.52,1.308181,479856,23601
1195.06,1.315317,487372,23580
1199.76,1.307086,497347,24523
1203.29,1.319637,504311,24158
1206.81,1.318977,511507,24540
1210.33,1.316130,519078,25067
1213.84,1.320355,527163,25211
1217.35,1.319097,534208,25622
1220.85,1.322570,540472,25716
1225.51,1.320202,549929,26309
1229.01,1.323753,556888,26425
1232.5,1.316986,562180,27095
1235.98,1.314271,567975,27546
1239.46,1.319627,574815,27536
1242.94,1.316522,582782,28118
1246.41,1.316925,591476,28511
1251.03,1.326997,604016,28448
1254.5,1.318979,612289,29375
1257.96,1.317591,619125,29798
1261.41,1.327590,624551,29375
1264.86,1.323005,629900,29941
1268.31,1.331283,634345,29583
1271.75,1.318398,638574,30677
1276.33,1.321314,642499,30659
1279.76,1.324192,645905,30618
1283.19,1.325237,648307,30658
1286.61,1.323745,650446,30865
1290.03,1.321059,652132,31137
1293.44,1.318683,653907,31393
1296.85,1.323603,655963,31137
1301.39,1.319499,657349,31499
1304.8,1.326180,657558,31028
1308.19,1.324731,658515,31177
1311.58,1.329586,658804,30844
1314.97,1.325058,659011,31177
1318.36,1.324822,658272,31159
1321.73,1.326431,658022,31032
1326.23,1.322013,657870,31342
1329.6,1.330523,656482,30669
1332.97,1.325504,654926,30952
1336.33,1.326973,653727,30791
1339.69,1.324789,652497,30888
1343.04,1.324544,649913,30783
1346.39,1.324584,647671,30674
1349.73,1.326814,645338,30407
1354.18,1.324103,641175,30400
1357.52,1.325977,638376,30137
1360.85,1.320879,635805,30370
1364.17,1.318628,633413,30413
1367.49,1.322709,631026,30015
1370.81,1.323618,628050,29811
1374.12,1.322198,625034,29765
1378.54,1.324412,620272,29388
1381.84,1.321995,616892,29391
1385.14,1.324151,613613,29090
1388.43,1.320363,611526,29245
1391.72,1.326319,610663,28806
1395.01,1.317936,610634,29366
1398.29,1.325866,611700,28885
1402.66,1.329008,614051,28787
1405.93,1.324253,616268,29209
1409.2,1.323281,617795,29347
1412.46,1.321440,618872,29523
1415.72,1.326969,619795,29193
1418.98,1.324568,620495,29388
1422.23,1.328648,621087,29141
1426.56,1.324800,621375,29414
1429.8,1.334733,621616,28760
1433.04,1.331063,622129,29028
1436.27,1.329268,621526,29120
1439.5,1.327074,621113,29248
1442.72,1.325991,620921,29312
1445.94,1.329360,620270,29055
1450.23,1.330980,618860,28881
1453.44,1.333590,617697,28654
1456.64,1.332703,616264,28646
1459.85,1.328104,614413,28864
1463.04,1.334569,612307,28340
1466.24,1.334288,610032,28253
1469.43,1.328972,607345,28475
1473.67,1.325629,603789,28527
1476.85,1.328567,601175,28212
1480.02,1.329802,597737,27971
1483.19,1.330780,594479,27756
1486.36,1.334959,591232,27340
1489.52,1.333027,587853,27305
1492.68,1.333783,583875,27073
1496.89,1.340403,578062,26398
1500.03,1.329991,574159,26856
1503.18,1.334570,570285,26395
1506.32,1.333277,565444,26249
1509.45,1.330048,560571,26217
1512.58,1.328344,555821,26097
1515.71,1.330043,550344,25739
1519.87,1.329181,543983,25492
1522.99,1.334084,538764,24964
1526.1,1.329907,533692,24968
1529.21,1.336144,527902,24345
1532.32,1.336912,521886,24025
1535.42,1.325914,515888,24358
1538.51,1.333177,509987,23680
1541.6,1.336139,503936,23240
1545.72,1.338273,494694,22702
1548.8,1.326330,488378,23037
1551.88,1.332512,481832,22407
1554.95,1.329412,474989,22247
1558.02,1.336892,467818,21537
1561.08,1.326747,460730,21712
1564.15,1.336366,454170,20934
1568.22,1.324638,444181,21034
1571.27,1.335099,436947,20199
1574.32,1.334318,429598,19895
1577.36,1.333606,422039,19577
1580.4,1.331544,414375,19313
1583.43,1.327667,406354,19109
1586.46,1.327261,398475,18756
1590.49,1.324899,388982,18409
1593.51,1.332766,380708,17694
1596.53,1.320459,372727,17821
1599.54,1.324996,365060,17273
1602.55,1.320485,357543,17094
1605.55,1.327618,349495,16437
1608.55,1.317736,341154,16414
1612.54,1.324681,330877,15667
1615.53,1.326859,322904,15213
1618.51,1.324760,315116,14918
1621.49,1.326047,307217,14501
1624.47,1.325644,299481,14149
1627.44,1.304511,292112,14489
1630.41,1.313908,284245,13797
1634.36,1.306546,274079,13531
1637.32,1.317201,266916,12858
1640.27,1.311480,259612,12672
1643.22,1.302454,251804,12549
1646.16,1.316090,244348,11801
1649.1,1.299387,236703,11880
1652.04,1.314427,228171,11062
1655.95,1.319035,215408,10333
1658.88,1.286601,204937,10593
1661.8,1.285621,193395,10019
1664.72,1.249178,179728,10126
1667.63,1.244898,163642,9311
1670.54,1.225561,146312,8704
1673.44,1.205376,128451,8005
1677.31,1.177105,105080,6989
1680.21,1.148214,88906,6320
1683.1,1.153689,75033,5267
1685.99,1.138645,63520,4616
1688.87,1.147910,53714,3821
1691.75,1.159096,45653,3165
1694.62,1.140801,39137,2830
1697.49,1.150392,33776,2389
1701.31,1.102924,28175,2223