File: ML/samples/unknown/Column 1_078718_20241121_171850.csv
Method:,Column 1,,
Host Date-Time:,21/11/24 @ 17:18:50,,
Header Version:,1,,
System Temp (C):,35.79,,
Detector Temp (C):,34.49,,
Humidity (%):,1.57,,
Lamp PD:,3799,,
Shift Vector Coefficients:,-10.5391,0.0761263,-0.000134223,,
Pixel to Wavelength Coefficients:,1775.68,-0.916766,-0.000235065,,
Serial Number:,5510004,,
Scan Config Name:,Column 1,,
Scan Config Type:,Slew,,
Section 1,,
Start wavelength (nm):,900,,
End wavelength (nm):,1700,,
Pattern Pixel Width (nm):,   7.03,,,,
Exposure (ms):,  0.635,,,,
Digital Resolution:,228,,
Num Repeats:,6,,
PGA Gain:,64,,
Total Measurement Time in sec:,  2.725,,
Wavelength (nm),Absorbance (AU),Reference Signal (unitless),Sample Signal (unitless)
901.51,1.331649,108485,5055
905.376,1.303493,121306,6031
909.237,1.326414,131909,6221
913.095,1.313759,143299,6958
916.948,1.307446,156982,7734
922.079,1.298520,179937,9049
925.923,1.316293,200504,9679
929.762,1.298773,222660,11191
933.597,1.316892,244426,11783
937.427,1.314552,263972,12794
941.254,1.319291,281845,13512
945.076,1.312054,297271,14491
950.165,1.313035,315605,15350
953.978,1.304285,328029,16279
957.786,1.307365,340470,16777
961.59,1.308135,352317,17330
965.389,1.308457,363056,17845
969.185,1.298804,373162,18754
972.976,1.300544,382632,19153
976.763,1.299768,391202,19617
981.806,1.293382,400190,20365
985.583,1.300333,406088,20337
989.355,1.301032,410162,20508
993.124,1.304672,412868,20471
996.888,1.303346,414263,20603
1000.65,1.297383,415476,20949
1004.4,1.295834,415479,21024
1009.41,1.302855,414358,20631
1013.15,1.301833,412923,20608
1016.89,1.309476,411526,20180
1020.63,1.301993,409066,20408
1024.36,1.303984,406777,20201
1028.09,1.296147,404427,20450
1031.82,1.303361,401911,19988
1036.78,1.298801,398410,20023
1040.49,1.298150,396204,19942
1044.2,1.303124,394236,19617
1047.91,1.294785,392042,19886
1051.61,1.316409,389823,18813
1055.31,1.297103,388234,19588
1059,1.306418,387599,19141
1063.92,1.304422,386688,19184
1067.61,1.299077,386598,19417
1071.29,1.320094,387377,18537
1074.96,1.305791,388536,19215
1078.63,1.310052,389855,19092
1082.3,1.307106,391215,19289
1085.96,1.300782,393215,19672
1090.84,1.309049,396270,19451
1094.49,1.313515,398760,19373
1098.14,1.306970,400987,19777
1101.79,1.312346,403477,19655
1105.43,1.314625,406116,19680
1109.06,1.305119,407701,20194
1112.7,1.313214,409859,19926
1117.53,1.312849,412494,20071
1121.15,1.312129,414909,20222
1124.77,1.313251,416559,20250
1128.38,1.313912,418532,20315
1131.99,1.310498,419956,20545
1135.6,1.316607,421946,20354
1139.2,1.308284,423881,20843
1143.99,1.307041,426786,21046
1147.58,1.312297,428617,20882
1151.17,1.307964,431169,21217
1154.75,1.319841,433579,20760
1158.33,1.308079,436264,21462
1161.91,1.313462,439132,21337
1165.48,1.310708,442389,21632
1169.04,1.310439,446101,21827
1173.79,1.310364,451929,22116
1177.34,1.307116,456026,22484
1180.9,1.308193,461306,22688
1184.44,1.315300,467657,22627
1187.99,1.313494,473969,23028
1191.52,1.318289,479856,23058
1195.06,1.313552,487372,23676
1199.76,1.315021,497347,24079
1203.29,1.313515,504311,24501
1206.81,1.305474,511507,25315
1210.33,1.308829,519078,25492
1213.84,1.319202,527163,25278
1217.35,1.319487,534208,25599
1220.85,1.313727,540472,26245
1225.51,1.315033,549929,26624
1229.01,1.314115,556888,27018
1232.5,1.317965,562180,27034
1235.98,1.321681,567975,27080
1239.46,1.315780,574815,27781
1242.94,1.313628,582782,28306
1246.41,1.311746,591476,28853
1251.03,1.317753,604016,29060
1254.5,1.322229,612289,29156
1257.96,1.319783,619125,29648
1261.41,1.318230,624551,30015
1264.86,1.317456,629900,30326
1268.31,1.323947,634345,30087
1271.75,1.321196,638574,30480
1276.33,1.319590,642499,30781
1279.76,1.322564,645905,30733
1283.19,1.320573,648307,30989
1286.61,1.323914,650446,30853
1290.03,1.328004,652132,30643
1293.44,1.320930,653907,31231
1296.85,1.326865,655963,30904
1301.39,1.327823,657349,30901
1304.8,1.323362,657558,31230
1308.19,1.329099,658515,30865
1311.58,1.328292,658804,30936
1314.97,1.326007,659011,31109
1318.36,1.328433,658272,30901
1321.73,1.327453,658022,30959
1326.23,1.326582,657870,31014
1329.6,1.328700,656482,30798
1332.97,1.322999,654926,31131
1336.33,1.320880,653727,31226
1339.69,1.327511,652497,30695
1343.04,1.332963,649913,30192
1346.39,1.326983,647671,30505
1349.73,1.322324,645338,30723
1354.18,1.318384,641175,30803
1357.52,1.322317,638376,30392
1360.85,1.323633,635805,30178
1364.17,1.320675,633413,30270
1367.49,1.321654,631026,30088
1370.81,1.319919,628050,30066
1374.12,1.324348,625034,29618
1378.54,1.321056,620272,29616
1381.84,1.322069,616892,29386
1385.14,1.327162,613613,28889
1388.43,1.320259,611526,29252
1391.72,1.319186,610663,29283
1395.01,1.323533,610634,28990
1398.29,1.318472,611700,29381
1402.66,1.320360,614051,29366
1405.93,1.321747,616268,29378
1409.2,1.321523,617795,29466
1412.46,1.322383,618872,29459
1415.72,1.327356,619795,29167
1418.98,1.323388,620495,29468
1422.23,1.325337,621087,29364
1426.56,1.329341,621375,29108
1429.8,1.321688,621616,29637
1433.04,1.328512,622129,29199
1436.27,1.328047,621526,29202
1439.5,1.329980,621113,29053
1442.72,1.324881,620921,29387
1445.94,1.327838,620270,29157
1450.23,1.324414,618860,29321
1453.44,1.332395,617697,28733
1456.64,1.336678,616264,28385
1459.85,1.328149,614413,28861
1463.04,1.330725,612307,28592
1466.24,1.330599,610032,28494
1469.43,1.327373,607345,28580
1473.67,1.334426,603789,27955
1476.85,1.337730,601175,27623
1480.02,1.326600,597737,28178
1483.19,1.323857,594479,28202
1486.36,1.334388,591232,27376
1489.52,1.332661,587853,27328
1492.68,1.330396,583875,27285
1496.89,1.330353,578062,27016
1500.03,1.332456,574159,26704
1503.18,1.325823,570285,26932
1506.32,1.328914,565444,26514
1509.45,1.335515,560571,25889
1512.58,1.334664,555821,25720
1515.71,1.331530,550344,25651
1519.87,1.335445,543983,25127
1522.99,1.326873,538764,25382
1526.1,1.327652,533692,25098
1529.21,1.331230,527902,24622
1532.32,1.325266,521886,24678
1535.42,1.330791,515888,24086
1538.51,1.320205,509987,24398
1541.6,1.324650,503936,23863
1545.72,1.334293,494694,22911
1548.8,1.336998,488378,22478
1551.88,1.325380,481832,22778
1554.95,1.318235,474989,22827
1558.02,1.339460,467818,21410
1561.08,1.322408,460730,21930
1564.15,1.329328,454170,21276
1568.22,1.324514,444181,21040
1571.27,1.318789,436947,20972
1574.32,1.321139,429598,20508
1577.36,1.320561,422039,20174
1580.4,1.328050,414375,19469
1583.43,1.326758,406354,19149
1586.46,1.327516,398475,18745
1590.49,1.328952,388982,18238
1593.51,1.318450,380708,18287
1596.53,1.326767,372727,17564
1599.54,1.322965,365060,17354
1602.55,1.310911,357543,17475
1605.55,1.313452,349495,16982
1608.55,1.316811,341154,16449
1612.54,1.317614,330877,15924
1615.53,1.316450,322904,15582
1618.51,1.314745,315116,15266
1621.49,1.308986,307217,15082
1624.47,1.305785,299481,14811
1627.44,1.307096,292112,14403
1630.41,1.318465,284245,13653
1634.36,1.308218,274079,13479
1637.32,1.311764,266916,13020
1640.27,1.302424,259612,12939
1643.22,1.308693,251804,12370
1646.16,1.293852,244348,12421
1649.1,1.315512,236703,11447
1652.04,1.299379,228171,11452
1655.95,1.296035,215408,10895
1658.88,1.280576,204937,10741
1661.8,1.266955,193395,10459
1664.72,1.273613,179728,9572
1667.63,1.250249,163642,9197
1670.54,1.230125,146312,8613
1673.44,1.221852,128451,7707
1677.31,1.171242,105080,7084
1680.21,1.150211,88906,6291
1683.1,1.139733,75033,5439
1685.99,1.130074,63520,4708
1688.87,1.133600,53714,3949
1691.75,1.125062,45653,3423
1694.62,1.161546,39137,2698
1697.49,1.111968,33776,2610
1701.31,1.076584,28175,2362