File: ML/samples/unknown/Column 1_078346_20241121_165732.csv
Method:,Column 1,,
Host Date-Time:,21/11/24 @ 16:57:32,,
Header Version:,1,,
System Temp (C):,34.82,,
Detector Temp (C):,33.26,,
Humidity (%):,2.25,,
Lamp PD:,3801,,
Shift Vector Coefficients:,-10.5391,0.0761263,-0.000134223,,
Pixel to Wavelength Coefficients:,1775.68,-0.916766,-0.000235065,,
Serial Number:,5510004,,
Scan Config Name:,Column 1,,
Scan Config Type:,Slew,,
Section 1,,
Start wavelength (nm):,900,,
End wavelength (nm):,1700,,
Pattern Pixel Width (nm):,   7.03,,,,
Exposure (ms):,  0.635,,,,
Digital Resolution:,228,,
Num Repeats:,6,,
PGA Gain:,64,,
Total Measurement Time in sec:,  2.731,,
Wavelength (nm),Absorbance (AU),Reference Signal (unitless),Sample Signal (unitless)
901.51,1.291155,108485,5549
905.376,1.292753,121306,6182
909.237,1.306493,131909,6513
913.095,1.324565,143299,6787
916.948,1.339363,156982,7186
922.079,1.316301,179937,8686
925.923,1.334107,200504,9290
929.762,1.320782,222660,10638
933.597,1.323091,244426,11616
937.427,1.310262,263972,12921
941.254,1.321740,281845,13436
945.076,1.310797,297271,14533
950.165,1.322879,315605,15006
953.978,1.315226,328029,15874
957.786,1.303576,340470,16924
961.59,1.318970,352317,16903
965.389,1.316762,363056,17507
969.185,1.312877,373162,18156
972.976,1.311521,382632,18675
976.763,1.302545,391202,19492
981.806,1.301301,400190,19997
985.583,1.312965,406088,19754
989.355,1.310906,410162,20047
993.124,1.306288,412868,20395
996.888,1.304359,414263,20555
1000.65,1.314271,415476,20150
1004.4,1.307622,415479,20461
1009.41,1.315391,414358,20044
1013.15,1.296596,412923,20858
1016.89,1.313020,411526,20016
1020.63,1.308511,409066,20104
1024.36,1.312143,406777,19825
1028.09,1.311955,404427,19719
1031.82,1.304405,401911,19940
1036.78,1.311567,398410,19443
1040.49,1.300158,396204,19850
1044.2,1.307149,394236,19436
1047.91,1.308947,392042,19248
1051.61,1.317611,389823,18761
1055.31,1.310180,388234,19007
1059,1.305829,387599,19167
1063.92,1.313619,386688,18782
1067.61,1.305726,386598,19122
1071.29,1.310800,387377,18938
1074.96,1.316060,388536,18766
1078.63,1.312355,389855,18991
1082.3,1.301358,391215,19546
1085.96,1.315100,393215,19034
1090.84,1.314102,396270,19226
1094.49,1.313560,398760,19371
1098.14,1.315284,400987,19402
1101.79,1.318622,403477,19373
1105.43,1.318148,406116,19521
1109.06,1.314357,407701,19769
1112.7,1.310412,409859,20055
1117.53,1.321282,412494,19685
1121.15,1.323839,414909,19684
1124.77,1.327553,416559,19594
1128.38,1.319138,418532,20072
1131.99,1.318046,419956,20191
1135.6,1.317996,421946,20289
1139.2,1.319213,423881,20325
1143.99,1.308136,426786,20993
1147.58,1.317675,428617,20625
1151.17,1.323148,431169,20488
1154.75,1.320134,433579,20746
1158.33,1.313844,436264,21179
1161.91,1.316587,439132,21184
1165.48,1.316000,442389,21370
1169.04,1.323959,446101,21158
1173.79,1.328079,451929,21232
1177.34,1.317991,456026,21928
1180.9,1.320817,461306,22038
1184.44,1.316781,467657,22550
1187.99,1.329319,473969,22204
1191.52,1.323767,479856,22769
1195.06,1.321158,487372,23265
1199.76,1.321581,497347,23718
1203.29,1.314882,504311,24424
1206.81,1.324211,511507,24246
1210.33,1.326687,519078,24465
1213.84,1.320665,527163,25193
1217.35,1.323767,534208,25348
1220.85,1.325756,540472,25528
1225.51,1.328973,549929,25783
1229.01,1.322178,556888,26521
1232.5,1.326269,562180,26522
1235.98,1.323561,567975,26963
1239.46,1.324066,574815,27256
1242.94,1.323717,582782,27656
1246.41,1.329583,591476,27692
1251.03,1.325214,604016,28565
1254.5,1.331061,612289,28569
1257.96,1.330100,619125,28952
1261.41,1.331213,624551,29131
1264.86,1.328024,629900,29597
1268.31,1.334836,634345,29342
1271.75,1.329685,638574,29890
1276.33,1.326975,642499,30262
1279.76,1.325613,645905,30518
1283.19,1.329565,648307,30354
1286.61,1.326908,650446,30641
1290.03,1.325207,652132,30841
1293.44,1.332714,653907,30395
1296.85,1.327878,655963,30832
1301.39,1.328400,657349,30860
1304.8,1.331220,657558,30670
1308.19,1.331286,658515,30710
1311.58,1.328082,658804,30951
1314.97,1.335962,659011,30404
1318.36,1.330687,658272,30741
1321.73,1.326221,658022,31047
1326.23,1.332816,657870,30572
1329.6,1.336742,656482,30233
1332.97,1.338955,654926,30008
1336.33,1.329845,653727,30588
1339.69,1.333451,652497,30278
1343.04,1.335995,649913,29982
1346.39,1.321269,647671,30909
1349.73,1.326286,645338,30444
1354.18,1.331102,641175,29914
1357.52,1.333198,638376,29640
1360.85,1.330465,635805,29707
1364.17,1.329633,633413,29652
1367.49,1.331021,631026,29446
1370.81,1.328437,628050,29482
1374.12,1.326759,625034,29454
1378.54,1.326219,620272,29266
1381.84,1.322927,616892,29328
1385.14,1.323703,613613,29120
1388.43,1.329563,611526,28632
1391.72,1.324588,610663,28921
1395.01,1.326781,610634,28774
1398.29,1.329293,611700,28658
1402.66,1.325058,614051,29050
1405.93,1.329850,616268,28835
1409.2,1.332479,617795,28732
1412.46,1.331666,618872,28836
1415.72,1.333112,619795,28783
1418.98,1.334312,620495,28736
1422.23,1.334424,621087,28756
1426.56,1.332426,621375,28902
1429.8,1.333647,621616,28832
1433.04,1.337590,622129,28595
1436.27,1.333916,621526,28810
1439.5,1.331777,621113,28933
1442.72,1.332830,620921,28854
1445.94,1.334608,620270,28706
1450.23,1.334165,618860,28670
1453.44,1.334425,617697,28599
1456.64,1.343307,616264,27955
1459.85,1.331927,614413,28611
1463.04,1.342534,612307,27825
1466.24,1.339266,610032,27931
1469.43,1.337411,607345,27927
1473.67,1.340338,603789,27577
1476.85,1.339163,601175,27532
1480.02,1.335979,597737,27576
1483.19,1.338101,594479,27292
1486.36,1.331069,591232,27586
1489.52,1.342562,587853,26712
1492.68,1.338818,583875,26761
1496.89,1.337272,578062,26589
1500.03,1.335246,574159,26533
1503.18,1.335377,570285,26346
1506.32,1.337968,565444,25967
1509.45,1.342210,560571,25493
1512.58,1.347551,555821,24968
1515.71,1.347305,550344,24736
1519.87,1.339526,543983,24892
1522.99,1.346615,538764,24254
1526.1,1.332804,533692,24802
1529.21,1.344555,527902,23878
1532.32,1.337618,521886,23986
1535.42,1.337239,515888,23731
1538.51,1.335476,509987,23555
1541.6,1.341933,503936,22932
1545.72,1.334425,494694,22904
1548.8,1.335321,488378,22565
1551.88,1.335019,481832,22278
1554.95,1.341908,474989,21616
1558.02,1.330069,467818,21878
1561.08,1.333683,460730,21368
1564.15,1.332792,454170,21107
1568.22,1.331506,444181,20704
1571.27,1.332377,436947,20326
1574.32,1.331598,429598,20020
1577.36,1.333651,422039,19575
1580.4,1.341139,414375,18891
1583.43,1.334955,406354,18791
1586.46,1.328211,398475,18715
1590.49,1.332035,388982,18109
1593.51,1.329782,380708,17816
1596.53,1.331991,372727,17354
1599.54,1.331379,365060,17021
1602.55,1.323314,357543,16983
1605.55,1.334677,349495,16172
1608.55,1.318584,341154,16382
1612.54,1.322551,330877,15744
1615.53,1.324780,322904,15286
1618.51,1.323568,315116,14959
1621.49,1.326827,307217,14475
1624.47,1.328909,299481,14043
1627.44,1.314578,292112,14157
1630.41,1.317099,284245,13696
1634.36,1.318983,274079,13149
1637.32,1.324834,266916,12634
1640.27,1.312578,259612,12640
1643.22,1.323368,251804,11959
1646.16,1.310169,244348,11963
1649.1,1.308960,236703,11621
1652.04,1.300823,228171,11414
1655.95,1.314270,215408,10447
1658.88,1.312577,204937,9978
1661.8,1.291820,193395,9877
1664.72,1.253661,179728,10022
1667.63,1.252189,163642,9156
1670.54,1.258030,146312,8077
1673.44,1.234198,128451,7491
1677.31,1.222869,105080,6290
1680.21,1.168470,88906,6032
1683.1,1.188705,75033,4859
1685.99,1.226339,63520,3772
1688.87,1.166844,53714,3658
1691.75,1.228427,45653,2698
1694.62,1.131239,39137,2893
1697.49,1.119352,33776,2566
1701.31,1.165885,28175,1923