File: ML/samples/unknown/Column 1_078953_20241121_173009.csv
Method:,Column 1,,
Host Date-Time:,21/11/24 @ 17:30:9,,
Header Version:,1,,
System Temp (C):,37.89,,
Detector Temp (C):,36.76,,
Humidity (%):,0.54,,
Lamp PD:,3795,,
Shift Vector Coefficients:,-10.5391,0.0761263,-0.000134223,,
Pixel to Wavelength Coefficients:,1775.68,-0.916766,-0.000235065,,
Serial Number:,5510004,,
Scan Config Name:,Column 1,,
Scan Config Type:,Slew,,
Section 1,,
Start wavelength (nm):,900,,
End wavelength (nm):,1700,,
Pattern Pixel Width (nm):,   7.03,,,,
Exposure (ms):,  0.635,,,,
Digital Resolution:,228,,
Num Repeats:,6,,
PGA Gain:,64,,
Total Measurement Time in sec:,  2.727,,
Wavelength (nm),Absorbance (AU),Reference Signal (unitless),Sample Signal (unitless)
901.51,1.305881,108485,5364
905.376,1.301123,121306,6064
909.237,1.313078,131909,6415
913.095,1.323607,143299,6802
916.948,1.321426,156982,7489
922.079,1.323053,179937,8552
925.923,1.315575,200504,9695
929.762,1.312132,222660,10852
933.597,1.314466,244426,11849
937.427,1.317310,263972,12713
941.254,1.319998,281845,13490
945.076,1.308502,297271,14610
950.165,1.300597,315605,15796
953.978,1.311765,328029,16001
957.786,1.312468,340470,16581
961.59,1.307859,352317,17341
965.389,1.308116,363056,17859
969.185,1.312089,373162,18189
972.976,1.305883,382632,18919
976.763,1.308083,391202,19245
981.806,1.302868,400190,19925
985.583,1.310663,406088,19859
989.355,1.306659,410162,20244
993.124,1.299233,412868,20729
996.888,1.306987,414263,20431
1000.65,1.307280,415476,20477
1004.4,1.306456,415479,20516
1009.41,1.305283,414358,20516
1013.15,1.302403,412923,20581
1016.89,1.306153,411526,20335
1020.63,1.309527,409066,20057
1024.36,1.300707,406777,20354
1028.09,1.309561,404427,19828
1031.82,1.318393,401911,19308
1036.78,1.296120,398410,20147
1040.49,1.305508,396204,19607
1044.2,1.298806,394236,19813
1047.91,1.300766,392042,19614
1051.61,1.306256,389823,19258
1055.31,1.312448,388234,18908
1059,1.302331,387599,19322
1063.92,1.302704,386688,19260
1067.61,1.316301,386598,18662
1071.29,1.302667,387377,19296
1074.96,1.302324,388536,19369
1078.63,1.316584,389855,18807
1082.3,1.317727,391215,18823
1085.96,1.315808,393215,19003
1090.84,1.316731,396270,19110
1094.49,1.309298,398760,19562
1098.14,1.307014,400987,19775
1101.79,1.315028,403477,19534
1105.43,1.316904,406116,19577
1109.06,1.310138,407701,19962
1112.7,1.319781,409859,19627
1117.53,1.315823,412494,19934
1121.15,1.316207,414909,20033
1124.77,1.314798,416559,20178
1128.38,1.309911,418532,20503
1131.99,1.311747,419956,20486
1135.6,1.308720,421946,20727
1139.2,1.323206,423881,20139
1143.99,1.308198,426786,20990
1147.58,1.311632,428617,20914
1151.17,1.315042,431169,20874
1154.75,1.319068,433579,20797
1158.33,1.312452,436264,21247
1161.91,1.309531,439132,21531
1165.48,1.316773,442389,21332
1169.04,1.320727,446101,21316
1173.79,1.313102,451929,21977
1177.34,1.309984,456026,22336
1180.9,1.313760,461306,22399
1184.44,1.321895,467657,22286
1187.99,1.315820,473969,22905
1191.52,1.312917,479856,23345
1195.06,1.312032,487372,23759
1199.76,1.324337,497347,23568
1203.29,1.316806,504311,24316
1206.81,1.316014,511507,24708
1210.33,1.322606,519078,24696
1213.84,1.318241,527163,25334
1217.35,1.321289,534208,25493
1220.85,1.320918,540472,25814
1225.51,1.314186,549929,26676
1229.01,1.321033,556888,26591
1232.5,1.319978,562180,26909
1235.98,1.318469,567975,27281
1239.46,1.320290,574815,27494
1242.94,1.321399,582782,27804
1246.41,1.315267,591476,28620
1251.03,1.318965,604016,28979
1254.5,1.324154,612289,29027
1257.96,1.327289,619125,29140
1261.41,1.320464,624551,29861
1264.86,1.324618,629900,29830
1268.31,1.327090,634345,29870
1271.75,1.327063,638574,30071
1276.33,1.323587,642499,30499
1279.76,1.321336,645905,30820
1283.19,1.323075,648307,30811
1286.61,1.323168,650446,30906
1290.03,1.327877,652132,30652
1293.44,1.326740,653907,30816
1296.85,1.325294,655963,31016
1301.39,1.327177,657349,30947
1304.8,1.328524,657558,30861
1308.19,1.323882,658515,31238
1311.58,1.317081,658804,31745
1314.97,1.322212,659011,31382
1318.36,1.329643,658272,30815
1321.73,1.330749,658022,30725
1326.23,1.328800,657870,30856
1329.6,1.324169,656482,31121
1332.97,1.329224,654926,30688
1336.33,1.323363,653727,31048
1339.69,1.332563,652497,30340
1343.04,1.329140,649913,30459
1346.39,1.322578,647671,30816
1349.73,1.328703,645338,30275
1354.18,1.331000,641175,29921
1357.52,1.325789,638376,30150
1360.85,1.327566,635805,29906
1364.17,1.321579,633413,30207
1367.49,1.325365,631026,29832
1370.81,1.326981,628050,29581
1374.12,1.329036,625034,29300
1378.54,1.324279,620272,29397
1381.84,1.318917,616892,29600
1385.14,1.322527,613613,29199
1388.43,1.315255,611526,29591
1391.72,1.321819,610663,29106
1395.01,1.328005,610634,28693
1398.29,1.327418,611700,28782
1402.66,1.324073,614051,29116
1405.93,1.330483,616268,28793
1409.2,1.326698,617795,29117
1412.46,1.325891,618872,29222
1415.72,1.331591,619795,28884
1418.98,1.329906,620495,29029
1422.23,1.334968,621087,28720
1426.56,1.324106,621375,29461
1429.8,1.330122,621616,29067
1433.04,1.331782,622129,28980
1436.27,1.327586,621526,29233
1439.5,1.332092,621113,28912
1442.72,1.326184,620921,29299
1445.94,1.324086,620270,29410
1450.23,1.327550,618860,29110
1453.44,1.327360,617697,29068
1456.64,1.332233,616264,28677
1459.85,1.332717,614413,28559
1463.04,1.330072,612307,28635
1466.24,1.333750,610032,28288
1469.43,1.337567,607345,27917
1473.67,1.331592,603789,28138
1476.85,1.329600,601175,28145
1480.02,1.328237,597737,28072
1483.19,1.331406,594479,27716
1486.36,1.331762,591232,27542
1489.52,1.333154,587853,27297
1492.68,1.336681,583875,26893
1496.89,1.328013,578062,27162
1500.03,1.333465,574159,26642
1503.18,1.336946,570285,26251
1506.32,1.330983,565444,26388
1509.45,1.330827,560571,26170
1512.58,1.333618,555821,25782
1515.71,1.331073,550344,25678
1519.87,1.332740,543983,25284
1522.99,1.331275,538764,25126
1526.1,1.331022,533692,24904
1529.21,1.331283,527902,24619
1532.32,1.326870,521886,24587
1535.42,1.325540,515888,24379
1538.51,1.325488,509987,24103
1541.6,1.332066,503936,23459
1545.72,1.332817,494694,22989
1548.8,1.332501,488378,22712
1551.88,1.337502,481832,22151
1554.95,1.332527,474989,22088
1558.02,1.331999,467818,21781
1561.08,1.330665,460730,21517
1564.15,1.331929,454170,21149
1568.22,1.328933,444181,20827
1571.27,1.330479,436947,20415
1574.32,1.332315,429598,19987
1577.36,1.326783,422039,19887
1580.4,1.322046,414375,19740
1583.43,1.331616,406354,18936
1586.46,1.325505,398475,18832
1590.49,1.323674,388982,18461
1593.51,1.334857,380708,17609
1596.53,1.329471,372727,17455
1599.54,1.323340,365060,17339
1602.55,1.327425,357543,16823
1605.55,1.314887,349495,16926
1608.55,1.318875,341154,16371
1612.54,1.323656,330877,15704
1615.53,1.317511,322904,15544
1618.51,1.331301,315116,14695
1621.49,1.313589,307217,14923
1624.47,1.322554,299481,14250
1627.44,1.314977,292112,14144
1630.41,1.314633,284245,13774
1634.36,1.315299,274079,13261
1637.32,1.302099,266916,13313
1640.27,1.316131,259612,12537
1643.22,1.304361,251804,12494
1646.16,1.317491,244348,11763
1649.1,1.300412,236703,11852
1652.04,1.292980,228171,11622
1655.95,1.295596,215408,10906
1658.88,1.281709,204937,10713
1661.8,1.287097,193395,9985
1664.72,1.256793,179728,9950
1667.63,1.244805,163642,9313
1670.54,1.217552,146312,8866
1673.44,1.207170,128451,7972
1677.31,1.175307,105080,7018
1680.21,1.142209,88906,6408
1683.1,1.118236,75033,5715
1685.99,1.135177,63520,4653
1688.87,1.113717,53714,4134
1691.75,1.135593,45653,3341
1694.62,1.122324,39137,2953
1697.49,1.102748,33776,2666
1701.31,1.113004,28175,2172