File: ML/samples/unknown/Column 1_078166_20241121_164842.csv
Method:,Column 1,,
Host Date-Time:,21/11/24 @ 16:48:42,,
Header Version:,1,,
System Temp (C):,33.41,,
Detector Temp (C):,29.76,,
Humidity (%):,3.33,,
Lamp PD:,3804,,
Shift Vector Coefficients:,-10.5391,0.0761263,-0.000134223,,
Pixel to Wavelength Coefficients:,1775.68,-0.916766,-0.000235065,,
Serial Number:,5510004,,
Scan Config Name:,Column 1,,
Scan Config Type:,Slew,,
Section 1,,
Start wavelength (nm):,900,,
End wavelength (nm):,1700,,
Pattern Pixel Width (nm):,   7.03,,,,
Exposure (ms):,  0.635,,,,
Digital Resolution:,228,,
Num Repeats:,6,,
PGA Gain:,64,,
Total Measurement Time in sec:,  2.726,,
Wavelength (nm),Absorbance (AU),Reference Signal (unitless),Sample Signal (unitless)
901.51,1.300570,108485,5430
905.376,1.315688,121306,5864
909.237,1.335229,131909,6096
913.095,1.329003,143299,6718
916.948,1.313610,156982,7625
922.079,1.318004,179937,8652
925.923,1.321211,200504,9570
929.762,1.324884,222660,10538
933.597,1.322045,244426,11644
937.427,1.312013,263972,12869
941.254,1.304876,281845,13968
945.076,1.316452,297271,14345
950.165,1.310131,315605,15453
953.978,1.309329,328029,16091
957.786,1.319598,340470,16311
961.59,1.314344,352317,17084
965.389,1.308847,363056,17829
969.185,1.303296,373162,18561
972.976,1.310615,382632,18714
976.763,1.307362,391202,19277
981.806,1.301084,400190,20007
985.583,1.303871,406088,20172
989.355,1.312817,410162,19959
993.124,1.305288,412868,20442
996.888,1.306583,414263,20450
1000.65,1.306284,415476,20524
1004.4,1.305315,415479,20570
1009.41,1.307980,414358,20389
1013.15,1.307753,412923,20329
1016.89,1.313020,411526,20016
1020.63,1.314405,409066,19833
1024.36,1.307979,406777,20016
1028.09,1.306397,404427,19973
1031.82,1.313161,401911,19542
1036.78,1.309228,398410,19548
1040.49,1.312429,396204,19297
1044.2,1.311709,394236,19233
1047.91,1.315609,392042,18955
1051.61,1.309925,389823,19096
1055.31,1.311370,388234,18955
1059,1.317960,387599,18639
1063.92,1.319860,386688,18514
1067.61,1.311764,386598,18858
1071.29,1.314115,387377,18794
1074.96,1.312625,388536,18915
1078.63,1.310940,389855,19053
1082.3,1.315150,391215,18935
1085.96,1.312416,393215,19152
1090.84,1.316594,396270,19116
1094.49,1.312574,398760,19415
1098.14,1.325338,400987,18958
1101.79,1.315428,403477,19516
1105.43,1.321207,406116,19384
1109.06,1.309399,407701,19996
1112.7,1.317662,409859,19723
1117.53,1.318270,412494,19822
1121.15,1.313376,414909,20164
1124.77,1.323670,416559,19770
1128.38,1.321438,418532,19966
1131.99,1.320721,419956,20067
1135.6,1.318789,421946,20252
1139.2,1.319406,423881,20316
1143.99,1.315122,426786,20658
1147.58,1.326245,428617,20222
1151.17,1.317881,431169,20738
1154.75,1.321749,433579,20669
1158.33,1.320518,436264,20856
1161.91,1.315686,439132,21228
1165.48,1.317731,442389,21285
1169.04,1.314196,446101,21639
1173.79,1.317232,451929,21769
1177.34,1.310490,456026,22310
1180.9,1.316893,461306,22238
1184.44,1.323477,467657,22205
1187.99,1.320069,473969,22682
1191.52,1.315586,479856,23202
1195.06,1.317644,487372,23454
1199.76,1.319463,497347,23834
1203.29,1.325702,504311,23823
1206.81,1.318889,511507,24545
1210.33,1.321657,519078,24750
1213.84,1.325257,527163,24928
1217.35,1.324796,534208,25288
1220.85,1.320413,540472,25844
1225.51,1.318571,549929,26408
1229.01,1.320658,556888,26614
1232.5,1.326187,562180,26527
1235.98,1.319011,567975,27247
1239.46,1.327441,574815,27045
1242.94,1.322165,582782,27755
1246.41,1.323973,591476,28052
1251.03,1.327807,604016,28395
1254.5,1.329271,612289,28687
1257.96,1.330490,619125,28926
1261.41,1.328834,624551,29291
1264.86,1.327027,629900,29665
1268.31,1.326567,634345,29906
1271.75,1.328438,638574,29976
1276.33,1.330650,642499,30007
1279.76,1.327552,645905,30382
1283.19,1.331443,648307,30223
1286.61,1.327561,650446,30595
1290.03,1.328770,652132,30589
1293.44,1.335495,653907,30201
1296.85,1.331754,655963,30558
1301.39,1.330403,657349,30718
1304.8,1.331390,657558,30658
1308.19,1.332603,658515,30617
1311.58,1.327913,658804,30963
1314.97,1.334735,659011,30490
1318.36,1.335432,658272,30407
1321.73,1.332051,658022,30633
1326.23,1.335024,657870,30417
1329.6,1.334764,656482,30371
1332.97,1.337236,654926,30127
1336.33,1.329023,653727,30646
1339.69,1.329070,652497,30585
1343.04,1.331255,649913,30311
1346.39,1.328981,647671,30365
1349.73,1.335469,645338,29807
1354.18,1.333052,641175,29780
1357.52,1.325631,638376,30161
1360.85,1.326043,635805,30011
1364.17,1.335620,633413,29246
1367.49,1.331626,631026,29405
1370.81,1.334027,628050,29105
1374.12,1.333206,625034,29020
1378.54,1.324900,620272,29355
1381.84,1.332524,616892,28687
1385.14,1.327914,613613,28839
1388.43,1.332852,611526,28416
1391.72,1.334814,610663,28248
1395.01,1.327279,610634,28741
1398.29,1.331983,611700,28481
1402.66,1.329234,614051,28772
1405.93,1.331328,616268,28737
1409.2,1.331935,617795,28768
1412.46,1.332948,618872,28751
1415.72,1.329012,619795,29056
1418.98,1.336008,620495,28624
1422.23,1.329573,621087,29079
1426.56,1.328447,621375,29168
1429.8,1.331694,621616,28962
1433.04,1.335968,622129,28702
1436.27,1.333374,621526,28846
1439.5,1.328681,621113,29140
1442.72,1.331073,620921,28971
1445.94,1.332480,620270,28847
1450.23,1.335849,618860,28559
1453.44,1.335778,617697,28510
1456.64,1.334587,616264,28522
1459.85,1.336904,614413,28285
1463.04,1.340308,612307,27968
1466.24,1.338381,610032,27988
1469.43,1.337209,607345,27940
1473.67,1.333758,603789,27998
1476.85,1.331920,601175,27995
1480.02,1.333717,597737,27720
1483.19,1.331563,594479,27706
1486.36,1.335245,591232,27322
1489.52,1.336364,587853,27096
1492.68,1.345506,583875,26352
1496.89,1.328509,578062,27131
1500.03,1.339043,574159,26302
1503.18,1.328719,570285,26753
1506.32,1.338688,565444,25924
1509.45,1.342926,560571,25451
1512.58,1.335543,555821,25668
1515.71,1.340234,550344,25142
1519.87,1.339700,543983,24882
1522.99,1.336929,538764,24801
1526.1,1.339101,533692,24445
1529.21,1.342035,527902,24017
1532.32,1.339105,521886,23904
1535.42,1.340048,515888,23578
1538.51,1.332536,509987,23715
1541.6,1.337187,503936,23184
1545.72,1.341036,494694,22558
1548.8,1.336747,488378,22491
1551.88,1.332493,481832,22408
1554.95,1.336140,474989,21905
1558.02,1.328464,467818,21959
1561.08,1.333114,460730,21396
1564.15,1.337613,454170,20874
1568.22,1.338164,444181,20389
1571.27,1.329290,436947,20471
1574.32,1.335608,429598,19836
1577.36,1.337439,422039,19405
1580.4,1.336428,414375,19097
1583.43,1.346406,406354,18302
1586.46,1.326382,398475,18794
1590.49,1.349680,388982,17388
1593.51,1.331345,380708,17752
1596.53,1.330966,372727,17395
1599.54,1.318929,365060,17516
1602.55,1.328071,357543,16798
1605.55,1.331973,349495,16273
1608.55,1.326772,341154,16076
1612.54,1.319966,330877,15838
1615.53,1.332895,322904,15003
1618.51,1.307803,315116,15512
1621.49,1.317037,307217,14805
1624.47,1.327427,299481,14091
1627.44,1.319328,292112,14003
1630.41,1.328928,284245,13328
1634.36,1.321467,274079,13074
1637.32,1.321444,266916,12733
1640.27,1.309394,259612,12733
1643.22,1.309150,251804,12357
1646.16,1.316274,244348,11796
1649.1,1.300156,236703,11859
1652.04,1.322231,228171,10865
1655.95,1.300965,215408,10772
1658.88,1.287792,204937,10564
1661.8,1.296640,193395,9768
1664.72,1.276572,179728,9507
1667.63,1.295078,163642,8295
1670.54,1.287506,146312,7547
1673.44,1.273174,128451,6848
1677.31,1.245037,105080,5977
1680.21,1.282226,88906,4642
1683.1,1.248912,75033,4230
1685.99,1.232484,63520,3719
1688.87,1.290439,53714,2752
1691.75,1.281981,45653,2385
1694.62,1.231049,39137,2299
1697.49,1.257231,33776,1868
1701.31,1.223522,28175,1684