File: ML/samples/unknown/Column 1_078116_20241121_164615.csv
Method:,Column 1,,
Host Date-Time:,21/11/24 @ 16:46:15,,
Header Version:,1,,
System Temp (C):,32.64,,
Detector Temp (C):,28.11,,
Humidity (%):,4.01,,
Lamp PD:,3807,,
Shift Vector Coefficients:,-10.5391,0.0761263,-0.000134223,,
Pixel to Wavelength Coefficients:,1775.68,-0.916766,-0.000235065,,
Serial Number:,5510004,,
Scan Config Name:,Column 1,,
Scan Config Type:,Slew,,
Section 1,,
Start wavelength (nm):,900,,
End wavelength (nm):,1700,,
Pattern Pixel Width (nm):,   7.03,,,,
Exposure (ms):,  0.635,,,,
Digital Resolution:,228,,
Num Repeats:,6,,
PGA Gain:,64,,
Total Measurement Time in sec:,  2.723,,
Wavelength (nm),Absorbance (AU),Reference Signal (unitless),Sample Signal (unitless)
901.51,1.287414,108485,5597
905.376,1.298695,121306,6098
909.237,1.312672,131909,6421
913.095,1.310092,143299,7017
916.948,1.319401,156982,7524
922.079,1.335310,179937,8314
925.923,1.315128,200504,9705
929.762,1.298114,222660,11208
933.597,1.302928,244426,12168
937.427,1.324961,263972,12491
941.254,1.320675,281845,13469
945.076,1.314669,297271,14404
950.165,1.326278,315605,14889
953.978,1.309788,328029,16074
957.786,1.306485,340470,16811
961.59,1.309088,352317,17292
965.389,1.308554,363056,17841
969.185,1.306796,373162,18412
972.976,1.307424,382632,18852
976.763,1.309303,391202,19191
981.806,1.307888,400190,19696
985.583,1.307851,406088,19988
989.355,1.311491,410162,20020
993.124,1.317919,412868,19856
996.888,1.304295,414263,20558
1000.65,1.308214,415476,20433
1004.4,1.306732,415479,20503
1009.41,1.310715,414358,20261
1013.15,1.310819,412923,20186
1016.89,1.311180,411526,20101
1020.63,1.311263,409066,19977
1024.36,1.304909,406777,20158
1028.09,1.306723,404427,19958
1031.82,1.303013,401911,20004
1036.78,1.305776,398410,19704
1040.49,1.314776,396204,19193
1044.2,1.311890,394236,19225
1047.91,1.321398,392042,18704
1051.61,1.305040,389823,19312
1055.31,1.311255,388234,18960
1059,1.321634,387599,18482
1063.92,1.312995,386688,18809
1067.61,1.318378,386598,18573
1071.29,1.308193,387377,19052
1074.96,1.312441,388536,18923
1078.63,1.309256,389855,19127
1082.3,1.308030,391215,19248
1085.96,1.312892,393215,19131
1090.84,1.317777,396270,19064
1094.49,1.311926,398760,19444
1098.14,1.319829,400987,19200
1101.79,1.320306,403477,19298
1105.43,1.318371,406116,19511
1109.06,1.322406,407701,19406
1112.7,1.328091,409859,19255
1117.53,1.312849,412494,20071
1121.15,1.307727,414909,20428
1124.77,1.327044,416559,19617
1128.38,1.311482,418532,20429
1131.99,1.314938,419956,20336
1135.6,1.314585,421946,20449
1139.2,1.318146,423881,20375
1143.99,1.318435,426786,20501
1147.58,1.314968,428617,20754
1151.17,1.323148,431169,20488
1154.75,1.320616,433579,20723
1158.33,1.323192,436264,20728
1161.91,1.317079,439132,21160
1165.48,1.317282,442389,21307
1169.04,1.312733,446101,21712
1173.79,1.319231,451929,21669
1177.34,1.310257,456026,22322
1180.9,1.319597,461306,22100
1184.44,1.324671,467657,22144
1187.99,1.324224,473969,22466
1191.52,1.315080,479856,23229
1195.06,1.322447,487372,23196
1199.76,1.324153,497347,23578
1203.29,1.318363,504311,24229
1206.81,1.326582,511507,24114
1210.33,1.323187,519078,24663
1213.84,1.325118,527163,24936
1217.35,1.318945,534208,25631
1220.85,1.319038,540472,25926
1225.51,1.319724,549929,26338
1229.01,1.315467,556888,26934
1232.5,1.322454,562180,26756
1235.98,1.322290,567975,27042
1239.46,1.325646,574815,27157
1242.94,1.318426,582782,27995
1246.41,1.324826,591476,27997
1251.03,1.327960,604016,28385
1254.5,1.334557,612289,28340
1257.96,1.323608,619125,29388
1261.41,1.325834,624551,29494
1264.86,1.328479,629900,29566
1268.31,1.327279,634345,29857
1271.75,1.328727,638574,29956
1276.33,1.330853,642499,29993
1279.76,1.325712,645905,30511
1283.19,1.322596,648307,30845
1286.61,1.326597,650446,30663
1290.03,1.331305,652132,30411
1293.44,1.332057,653907,30441
1296.85,1.330931,655963,30616
1301.39,1.329231,657349,30801
1304.8,1.330414,657558,30727
1308.19,1.329944,658515,30805
1311.58,1.328320,658804,30934
1314.97,1.328092,659011,30960
1318.36,1.328784,658272,30876
1321.73,1.336597,658022,30314
1326.23,1.332490,657870,30595
1329.6,1.331729,656482,30584
1332.97,1.334291,654926,30332
1336.33,1.327721,653727,30738
1339.69,1.331962,652497,30382
1343.04,1.332561,649913,30220
1346.39,1.330974,647671,30226
1349.73,1.330817,645338,30128
1354.18,1.324932,641175,30342
1357.52,1.332818,638376,29666
1360.85,1.322096,635805,30285
1364.17,1.326088,633413,29895
1367.49,1.333773,631026,29260
1370.81,1.336361,628050,28949
1374.12,1.333311,625034,29013
1378.54,1.328197,620272,29133
1381.84,1.327063,616892,29050
1385.14,1.322408,613613,29207
1388.43,1.324826,611526,28946
1391.72,1.324078,610663,28955
1395.01,1.327718,610634,28712
1398.29,1.329474,611700,28646
1402.66,1.328812,614051,28800
1405.93,1.326160,616268,29081
1409.2,1.324585,617795,29259
1412.46,1.332239,618872,28798
1415.72,1.329925,619795,28995
1418.98,1.329532,620495,29054
1422.23,1.337288,621087,28567
1426.56,1.335502,621375,28698
1429.8,1.326299,621616,29324
1433.04,1.339173,622129,28491
1436.27,1.333434,621526,28842
1439.5,1.336410,621113,28626
1442.72,1.340652,620921,28339
1445.94,1.333641,620270,28770
1450.23,1.338136,618860,28409
1453.44,1.333196,617697,28680
1456.64,1.336448,616264,28400
1459.85,1.339229,614413,28134
1463.04,1.330710,612307,28593
1466.24,1.341605,610032,27781
1469.43,1.337971,607345,27891
1473.67,1.338280,603789,27708
1476.85,1.340142,601175,27470
1480.02,1.335397,597737,27613
1483.19,1.335531,594479,27454
1486.36,1.328573,591232,27745
1489.52,1.339307,587853,26913
1492.68,1.336600,583875,26898
1496.89,1.341128,578062,26354
1500.03,1.335426,574159,26522
1503.18,1.335971,570285,26310
1506.32,1.340905,565444,25792
1509.45,1.333891,560571,25986
1512.58,1.338974,555821,25466
1515.71,1.334060,550344,25502
1519.87,1.333272,543983,25253
1522.99,1.332868,538764,25034
1526.1,1.336108,533692,24614
1529.21,1.343792,527902,23920
1532.32,1.338923,521886,23914
1535.42,1.345367,515888,23291
1538.51,1.338213,509987,23407
1541.6,1.329077,503936,23621
1545.72,1.331496,494694,23059
1548.8,1.333956,488378,22636
1551.88,1.333735,481832,22344
1554.95,1.339704,474989,21726
1558.02,1.336589,467818,21552
1561.08,1.337869,460730,21163
1564.15,1.341731,454170,20677
1568.22,1.347421,444181,19959
1571.27,1.337038,436947,20109
1574.32,1.339059,429598,19679
1577.36,1.335073,422039,19511
1580.4,1.336724,414375,19084
1583.43,1.328804,406354,19059
1586.46,1.331472,398475,18575
1590.49,1.334971,388982,17987
1593.51,1.330099,380708,17803
1596.53,1.332016,372727,17353
1599.54,1.332478,365060,16978
1602.55,1.329469,357543,16744
1605.55,1.323333,349495,16600
1608.55,1.333415,341154,15832
1612.54,1.317315,330877,15935
1615.53,1.324524,322904,15295
1618.51,1.331124,315116,14701
1621.49,1.317918,307217,14775
1624.47,1.330614,299481,13988
1627.44,1.330640,292112,13643
1630.41,1.326588,284245,13400
1634.36,1.318653,274079,13159
1637.32,1.322981,266916,12688
1640.27,1.317311,259612,12503
1643.22,1.335520,251804,11629
1646.16,1.327878,244348,11485
1649.1,1.325917,236703,11176
1652.04,1.326448,228171,10760
1655.95,1.321734,215408,10269
1658.88,1.313448,204937,9958
1661.8,1.319740,193395,9262
1664.72,1.315096,179728,8700
1667.63,1.291689,163642,8360
1670.54,1.274803,146312,7771
1673.44,1.266253,128451,6958
1677.31,1.302189,105080,5240
1680.21,1.290157,88906,4558
1683.1,1.315585,75033,3628
1685.99,1.271815,63520,3397
1688.87,1.282774,53714,2801
1691.75,1.204624,45653,2850
1694.62,1.258536,39137,2158
1697.49,1.195564,33776,2153
1701.31,1.212823,28175,1726