File: ML/samples/unknown/Column 1_078369_20241121_165840.csv
Method:,Column 1,,
Host Date-Time:,21/11/24 @ 16:58:40,,
Header Version:,1,,
System Temp (C):,34.98,,
Detector Temp (C):,33.41,,
Humidity (%):,1.96,,
Lamp PD:,3801,,
Shift Vector Coefficients:,-10.5391,0.0761263,-0.000134223,,
Pixel to Wavelength Coefficients:,1775.68,-0.916766,-0.000235065,,
Serial Number:,5510004,,
Scan Config Name:,Column 1,,
Scan Config Type:,Slew,,
Section 1,,
Start wavelength (nm):,900,,
End wavelength (nm):,1700,,
Pattern Pixel Width (nm):,   7.03,,,,
Exposure (ms):,  0.635,,,,
Digital Resolution:,228,,
Num Repeats:,6,,
PGA Gain:,64,,
Total Measurement Time in sec:,  2.706,,
Wavelength (nm),Absorbance (AU),Reference Signal (unitless),Sample Signal (unitless)
901.51,1.334061,108485,5027
905.376,1.324214,121306,5750
909.237,1.344882,131909,5962
913.095,1.319792,143299,6862
916.948,1.324861,156982,7430
922.079,1.314753,179937,8717
925.923,1.332009,200504,9335
929.762,1.332366,222660,10358
933.597,1.334148,244426,11324
937.427,1.321049,263972,12604
941.254,1.310824,281845,13778
945.076,1.309693,297271,14570
950.165,1.328618,315605,14809
953.978,1.320511,328029,15682
957.786,1.306175,340470,16823
961.59,1.314395,352317,17082
965.389,1.314190,363056,17611
969.185,1.312877,373162,18156
972.976,1.300794,382632,19142
976.763,1.309100,391202,19200
981.806,1.313637,400190,19437
985.583,1.305640,406088,20090
989.355,1.297237,410162,20688
993.124,1.312162,412868,20121
996.888,1.305480,414263,20502
1000.65,1.308320,415476,20428
1004.4,1.303776,415479,20643
1009.41,1.301636,414358,20689
1013.15,1.305091,412923,20454
1016.89,1.305449,411526,20368
1020.63,1.306378,409066,20203
1024.36,1.316746,406777,19616
1028.09,1.308795,404427,19863
1031.82,1.306216,401911,19857
1036.78,1.307963,398410,19605
1040.49,1.311799,396204,19325
1044.2,1.315588,394236,19062
1047.91,1.313460,392042,19049
1051.61,1.309880,389823,19098
1055.31,1.309632,388234,19031
1059,1.306600,387599,19133
1063.92,1.311336,386688,18881
1067.61,1.319900,386598,18508
1071.29,1.312178,387377,18878
1074.96,1.305994,388536,19206
1078.63,1.313133,389855,18957
1082.3,1.306881,391215,19299
1085.96,1.315922,393215,18998
1090.84,1.317891,396270,19059
1094.49,1.321661,398760,19013
1098.14,1.315866,400987,19376
1101.79,1.315873,403477,19496
1105.43,1.307902,406116,19987
1109.06,1.316626,407701,19666
1112.7,1.322578,409859,19501
1117.53,1.323805,412494,19571
1121.15,1.317031,414909,19995
1124.77,1.317996,416559,20030
1128.38,1.323749,418532,19860
1131.99,1.310223,419956,20558
1135.6,1.319798,421946,20205
1139.2,1.316062,423881,20473
1143.99,1.319347,426786,20458
1147.58,1.324060,428617,20324
1151.17,1.323042,431169,20493
1154.75,1.312745,433579,21102
1158.33,1.318545,436264,20951
1161.91,1.313828,439132,21319
1165.48,1.304370,442389,21950
1169.04,1.308930,446101,21903
1173.79,1.317052,451929,21778
1177.34,1.316093,456026,22024
1180.9,1.318674,461306,22147
1184.44,1.313003,467657,22747
1187.99,1.312100,473969,23102
1191.52,1.317142,479856,23119
1195.06,1.317847,487372,23443
1199.76,1.315761,497347,24038
1203.29,1.326688,504311,23769
1206.81,1.316313,511507,24691
1210.33,1.327398,519078,24425
1213.84,1.323883,527163,25007
1217.35,1.326051,534208,25215
1220.85,1.325739,540472,25529
1225.51,1.322984,549929,26141
1229.01,1.325482,556888,26320
1232.5,1.325010,562180,26599
1235.98,1.321969,567975,27062
1239.46,1.327441,574815,27045
1242.94,1.324047,582782,27635
1246.41,1.316346,591476,28549
1251.03,1.319130,604016,28968
1254.5,1.327247,612289,28821
1257.96,1.328543,619125,29056
1261.41,1.329249,624551,29263
1264.86,1.328523,629900,29563
1268.31,1.326683,634345,29898
1271.75,1.327945,638574,30010
1276.33,1.324913,642499,30406
1279.76,1.331242,645905,30125
1283.19,1.326926,648307,30539
1286.61,1.329966,650446,30426
1290.03,1.325404,652132,30827
1293.44,1.330704,653907,30536
1296.85,1.332423,655963,30511
1301.39,1.334109,657349,30457
1304.8,1.330145,657558,30746
1308.19,1.331159,658515,30719
1311.58,1.331392,658804,30716
1314.97,1.329483,659011,30861
1318.36,1.334690,658272,30459
1321.73,1.330904,658022,30714
1326.23,1.337070,657870,30274
1329.6,1.336627,656482,30241
1332.97,1.334692,654926,30304
1336.33,1.332852,653727,30377
1339.69,1.332649,652497,30334
1343.04,1.331284,649913,30309
1346.39,1.333192,647671,30072
1349.73,1.329838,645338,30196
1354.18,1.332891,641175,29791
1357.52,1.333697,638376,29606
1360.85,1.327754,635805,29893
1364.17,1.327136,633413,29823
1367.49,1.327949,631026,29655
1370.81,1.334549,628050,29070
1374.12,1.323454,625034,29679
1378.54,1.325507,620272,29314
1381.84,1.328141,616892,28978
1385.14,1.330240,613613,28685
1388.43,1.326962,611526,28804
1391.72,1.324333,610663,28938
1395.01,1.328672,610634,28649
1398.29,1.333878,611700,28357
1402.66,1.330474,614051,28690
1405.93,1.334057,616268,28557
1409.2,1.335862,617795,28509
1412.46,1.330718,618872,28899
1415.72,1.329955,619795,28993
1418.98,1.335250,620495,28674
1422.23,1.325470,621087,29355
1426.56,1.323841,621375,29479
1429.8,1.337354,621616,28587
1433.04,1.331932,622129,28970
1436.27,1.336077,621526,28667
1439.5,1.330713,621113,29004
1442.72,1.333162,620921,28832
1445.94,1.334396,620270,28720
1450.23,1.335181,618860,28603
1453.44,1.340265,617697,28217
1456.64,1.337168,616264,28353
1459.85,1.335907,614413,28350
1463.04,1.340836,612307,27934
1466.24,1.332662,610032,28359
1469.43,1.335611,607345,28043
1473.67,1.337654,603789,27748
1476.85,1.330728,601175,28072
1480.02,1.331467,597737,27864
1483.19,1.335389,594479,27463
1486.36,1.337796,591232,27162
1489.52,1.339775,587853,26884
1492.68,1.341847,583875,26575
1496.89,1.334310,578062,26771
1500.03,1.340764,574159,26198
1503.18,1.338786,570285,26140
1506.32,1.336099,565444,26079
1509.45,1.333273,560571,26023
1512.58,1.330731,555821,25954
1515.71,1.335783,550344,25401
1519.87,1.332911,543983,25274
1522.99,1.331137,538764,25134
1526.1,1.339954,533692,24397
1529.21,1.331812,527902,24589
1532.32,1.337202,521886,24009
1535.42,1.334248,515888,23895
1538.51,1.329870,509987,23861
1541.6,1.336756,503936,23207
1545.72,1.338368,494694,22697
1548.8,1.334821,488378,22591
1551.88,1.331486,481832,22460
1554.95,1.338008,474989,21811
1558.02,1.332797,467818,21741
1561.08,1.336681,460730,21221
1564.15,1.336968,454170,20905
1568.22,1.335108,444181,20533
1571.27,1.323620,436947,20740
1574.32,1.335608,429598,19836
1577.36,1.330358,422039,19724
1580.4,1.344415,414375,18749
1583.43,1.338995,406354,18617
1586.46,1.331332,398475,18581
1590.49,1.334464,388982,18008
1593.51,1.326987,380708,17931
1596.53,1.319801,372727,17848
1599.54,1.330131,365060,17070
1602.55,1.325262,357543,16907
1605.55,1.318339,349495,16792
1608.55,1.329102,341154,15990
1612.54,1.336682,330877,15240
1615.53,1.318882,322904,15495
1618.51,1.344260,315116,14263
1621.49,1.321282,307217,14661
1624.47,1.320002,299481,14334
1627.44,1.321474,292112,13934
1630.41,1.313185,284245,13820
1634.36,1.305424,274079,13566
1637.32,1.306163,266916,13189
1640.27,1.322834,259612,12345
1643.22,1.311016,251804,12304
1646.16,1.309190,244348,11990
1649.1,1.329390,236703,11087
1652.04,1.302118,228171,11380
1655.95,1.283927,215408,11203
1658.88,1.291549,204937,10473
1661.8,1.290459,193395,9908
1664.72,1.269369,179728,9666
1667.63,1.279548,163642,8597
1670.54,1.267763,146312,7898
1673.44,1.232173,128451,7526
1677.31,1.215815,105080,6393
1680.21,1.189112,88906,5752
1683.1,1.150567,75033,5305
1685.99,1.159853,63520,4396
1688.87,1.154207,53714,3766
1691.75,1.157999,45653,3173
1694.62,1.187241,39137,2543
1697.49,1.134858,33776,2476
1701.31,1.127438,28175,2101