File: ML/samples/unknown/Column 1_078380_20241121_165950.csv
Method:,Column 1,,
Host Date-Time:,21/11/24 @ 16:59:50,,
Header Version:,1,,
System Temp (C):,34.62,,
Detector Temp (C):,33.95,,
Humidity (%):,1.86,,
Lamp PD:,3803,,
Shift Vector Coefficients:,-10.5391,0.0761263,-0.000134223,,
Pixel to Wavelength Coefficients:,1775.68,-0.916766,-0.000235065,,
Serial Number:,5510004,,
Scan Config Name:,Column 1,,
Scan Config Type:,Slew,,
Section 1,,
Start wavelength (nm):,900,,
End wavelength (nm):,1700,,
Pattern Pixel Width (nm):,   7.03,,,,
Exposure (ms):,  0.635,,,,
Digital Resolution:,228,,
Num Repeats:,6,,
PGA Gain:,64,,
Total Measurement Time in sec:,  2.732,,
Wavelength (nm),Absorbance (AU),Reference Signal (unitless),Sample Signal (unitless)
901.51,1.317533,108485,5222
905.376,1.317618,121306,5838
909.237,1.343573,131909,5980
913.095,1.355801,143299,6316
916.948,1.329622,156982,7349
922.079,1.314007,179937,8732
925.923,1.334061,200504,9291
929.762,1.324884,222660,10538
933.597,1.318553,244426,11738
937.427,1.330419,263972,12335
941.254,1.330787,281845,13159
945.076,1.322151,297271,14158
950.165,1.319879,315605,15110
953.978,1.318053,328029,15771
957.786,1.314490,340470,16504
961.59,1.307059,352317,17373
965.389,1.312393,363056,17684
969.185,1.319287,373162,17890
972.976,1.313152,382632,18605
976.763,1.316998,391202,18854
981.806,1.322599,400190,19040
985.583,1.307525,406088,20003
989.355,1.326095,410162,19358
993.124,1.308230,412868,20304
996.888,1.308754,414263,20348
1000.65,1.310986,415476,20303
1004.4,1.314597,415479,20135
1009.41,1.303466,414358,20602
1013.15,1.307049,412923,20362
1016.89,1.311698,411526,20077
1020.63,1.316754,409066,19726
1024.36,1.313504,406777,19763
1028.09,1.313677,404427,19641
1031.82,1.317449,401911,19350
1036.78,1.305886,398410,19699
1040.49,1.316885,396204,19100
1044.2,1.318032,394236,18955
1047.91,1.320262,392042,18753
1051.61,1.306911,389823,19229
1055.31,1.310866,388234,18977
1059,1.308944,387599,19030
1063.92,1.318970,386688,18552
1067.61,1.310798,386598,18900
1071.29,1.312776,387377,18852
1074.96,1.316361,388536,18753
1078.63,1.321414,389855,18599
1082.3,1.313982,391215,18986
1085.96,1.313369,393215,19110
1090.84,1.314599,396270,19204
1094.49,1.322095,398760,18994
1098.14,1.314635,400987,19431
1101.79,1.321433,403477,19248
1105.43,1.313809,406116,19717
1109.06,1.316935,407701,19652
1112.7,1.322399,409859,19509
1117.53,1.325494,412494,19495
1121.15,1.309623,414909,20339
1124.77,1.320780,416559,19902
1128.38,1.329340,418532,19606
1131.99,1.314810,419956,20342
1135.6,1.317932,421946,20292
1139.2,1.315363,423881,20506
1143.99,1.316976,426786,20570
1147.58,1.333675,428617,19879
1151.17,1.325017,431169,20400
1154.75,1.324447,433579,20541
1158.33,1.326241,436264,20583
1161.91,1.319013,439132,21066
1165.48,1.320802,442389,21135
1169.04,1.324143,446101,21149
1173.79,1.318570,451929,21702
1177.34,1.322610,456026,21696
1180.9,1.323109,461306,21922
1184.44,1.324005,467657,22178
1187.99,1.319571,473969,22708
1191.52,1.321940,479856,22865
1195.06,1.321270,487372,23259
1199.76,1.322149,497347,23687
1203.29,1.321349,504311,24063
1206.81,1.325898,511507,24152
1210.33,1.323099,519078,24668
1213.84,1.331381,527163,24579
1217.35,1.324058,534208,25331
1220.85,1.327512,540472,25425
1225.51,1.327527,549929,25869
1229.01,1.324559,556888,26376
1232.5,1.333202,562180,26102
1235.98,1.323497,567975,26967
1239.46,1.325039,574815,27195
1242.94,1.325542,582782,27540
1246.41,1.322027,591476,28178
1251.03,1.325640,604016,28537
1254.5,1.328258,612289,28754
1257.96,1.326901,619125,29166
1261.41,1.327960,624551,29350
1264.86,1.330142,629900,29453
1268.31,1.328328,634345,29785
1271.75,1.326832,638574,30087
1276.33,1.330317,642499,30030
1279.76,1.337558,645905,29690
1283.19,1.330854,648307,30264
1286.61,1.328655,650446,30518
1290.03,1.334084,652132,30217
1293.44,1.331715,653907,30465
1296.85,1.331044,655963,30608
1301.39,1.336052,657349,30321
1304.8,1.335060,657558,30400
1308.19,1.336164,658515,30367
1311.58,1.331137,658804,30734
1314.97,1.338670,659011,30215
1318.36,1.336204,658272,30353
1321.73,1.336798,658022,30300
1326.23,1.331554,657870,30661
1329.6,1.341784,656482,29884
1332.97,1.332405,654926,30464
1336.33,1.336815,653727,30101
1339.69,1.333208,652497,30295
1343.04,1.338158,649913,29833
1346.39,1.331837,647671,30166
1349.73,1.329637,645338,30210
1354.18,1.327632,641175,30154
1357.52,1.328100,638376,29990
1360.85,1.331622,635805,29628
1364.17,1.328580,633413,29724
1367.49,1.330417,631026,29487
1370.81,1.328894,628050,29451
1374.12,1.328532,625034,29334
1378.54,1.329945,620272,29016
1381.84,1.327242,616892,29038
1385.14,1.330452,613613,28671
1388.43,1.326766,611526,28817
1391.72,1.331155,610663,28487
1395.01,1.329430,610634,28599
1398.29,1.329005,611700,28677
1402.66,1.328887,614051,28795
1405.93,1.333373,616268,28602
1409.2,1.331633,617795,28788
1412.46,1.331997,618872,28814
1415.72,1.334608,619795,28684
1418.98,1.340093,620495,28356
1422.23,1.330141,621087,29041
1426.56,1.335835,621375,28676
1429.8,1.340418,621616,28386
1433.04,1.340226,622129,28422
1436.27,1.335532,621526,28703
1439.5,1.333793,621113,28799
1442.72,1.336003,620921,28644
1445.94,1.338926,620270,28422
1450.23,1.334150,618860,28671
1453.44,1.333742,617697,28644
1456.64,1.331461,616264,28728
1459.85,1.332125,614413,28598
1463.04,1.338170,612307,28106
1466.24,1.336106,610032,28135
1469.43,1.337411,607345,27927
1473.67,1.333030,603789,28045
1476.85,1.337856,601175,27615
1480.02,1.334171,597737,27691
1483.19,1.343787,594479,26937
1486.36,1.333485,591232,27433
1489.52,1.331486,587853,27402
1492.68,1.336858,583875,26882
1496.89,1.345517,578062,26089
1500.03,1.332098,574159,26726
1503.18,1.340634,570285,26029
1506.32,1.335267,565444,26129
1509.45,1.331940,560571,26103
1512.58,1.339811,555821,25417
1515.71,1.337068,550344,25326
1519.87,1.331162,543983,25376
1522.99,1.339458,538764,24657
1526.1,1.345815,533692,24070
1529.21,1.334470,527902,24439
1532.32,1.341894,521886,23751
1535.42,1.334703,515888,23870
1538.51,1.339980,509987,23312
1541.6,1.341214,503936,22970
1545.72,1.333952,494694,22929
1548.8,1.340276,488378,22309
1551.88,1.342690,481832,21888
1554.95,1.333176,474989,22055
1558.02,1.335462,467818,21608
1561.08,1.336435,460730,21233
1564.15,1.342993,454170,20617
1568.22,1.345966,444181,20026
1571.27,1.334304,436947,20236
1574.32,1.339987,429598,19637
1577.36,1.339166,422039,19328
1580.4,1.332196,414375,19284
1583.43,1.333893,406354,18837
1586.46,1.331987,398475,18553
1590.49,1.334705,388982,17998
1593.51,1.335425,380708,17586
1596.53,1.341658,372727,16972
1599.54,1.328379,365060,17139
1602.55,1.336687,357543,16468
1605.55,1.333096,349495,16231
1608.55,1.323355,341154,16203
1612.54,1.327294,330877,15573
1615.53,1.334548,322904,14946
1618.51,1.323975,315116,14945
1621.49,1.328390,307217,14423
1624.47,1.325920,299481,14140
1627.44,1.322066,292112,13915
1630.41,1.314948,284245,13764
1634.36,1.330225,274079,12813
1637.32,1.325660,266916,12610
1640.27,1.321569,259612,12381
1643.22,1.309220,251804,12355
1646.16,1.329507,244348,11442
1649.1,1.307133,236703,11670
1652.04,1.319919,228171,10923
1655.95,1.290647,215408,11031
1658.88,1.303830,204937,10181
1661.8,1.283675,193395,10064
1664.72,1.289555,179728,9227
1667.63,1.277783,163642,8632
1670.54,1.233517,146312,8546
1673.44,1.216643,128451,7800
1677.31,1.182860,105080,6897
1680.21,1.225558,88906,5289
1683.1,1.188527,75033,4861
1685.99,1.191081,63520,4091
1688.87,1.188134,53714,3483
1691.75,1.174316,45653,3056
1694.62,1.186218,39137,2549
1697.49,1.229755,33776,1990
1701.31,1.292709,28175,1436