File: ML/samples/unknown/Column 1_078577_20241121_170932.csv
Method:,Column 1,,
Host Date-Time:,21/11/24 @ 17:9:32,,
Header Version:,1,,
System Temp (C):,36.36,,
Detector Temp (C):,34.63,,
Humidity (%):,1.27,,
Lamp PD:,3798,,
Shift Vector Coefficients:,-10.5391,0.0761263,-0.000134223,,
Pixel to Wavelength Coefficients:,1775.68,-0.916766,-0.000235065,,
Serial Number:,5510004,,
Scan Config Name:,Column 1,,
Scan Config Type:,Slew,,
Section 1,,
Start wavelength (nm):,900,,
End wavelength (nm):,1700,,
Pattern Pixel Width (nm):,   7.03,,,,
Exposure (ms):,  0.635,,,,
Digital Resolution:,228,,
Num Repeats:,6,,
PGA Gain:,64,,
Total Measurement Time in sec:,  2.727,,
Wavelength (nm),Absorbance (AU),Reference Signal (unitless),Sample Signal (unitless)
901.51,1.284938,108485,5629
905.376,1.310242,121306,5938
909.237,1.282749,131909,6879
913.095,1.305474,143299,7092
916.948,1.307502,156982,7733
922.079,1.332966,179937,8359
925.923,1.311119,200504,9795
929.762,1.322009,222660,10608
933.597,1.326733,244426,11519
937.427,1.326075,263972,12459
941.254,1.318680,281845,13531
945.076,1.311904,297271,14496
950.165,1.311482,315605,15405
953.978,1.304151,328029,16284
957.786,1.307857,340470,16758
961.59,1.312669,352317,17150
965.389,1.323714,363056,17229
969.185,1.300916,373162,18663
972.976,1.296864,382632,19316
976.763,1.309938,391202,19163
981.806,1.309567,400190,19620
985.583,1.303376,406088,20195
989.355,1.309025,410162,20134
993.124,1.302239,412868,20586
996.888,1.294933,414263,21006
1000.65,1.301947,415476,20730
1004.4,1.300736,415479,20788
1009.41,1.305961,414358,20484
1013.15,1.305643,412923,20428
1016.89,1.297295,411526,20754
1020.63,1.300294,409066,20488
1024.36,1.303704,406777,20214
1028.09,1.307529,404427,19921
1031.82,1.311852,401911,19601
1036.78,1.298519,398410,20036
1040.49,1.308508,396204,19472
1044.2,1.310694,394236,19278
1047.91,1.297985,392042,19740
1051.61,1.304142,389823,19352
1055.31,1.305724,388234,19203
1059,1.299887,387599,19431
1063.92,1.309981,386688,18940
1067.61,1.310545,386598,18911
1071.29,1.302824,387377,19289
1074.96,1.314235,388536,18845
1078.63,1.320830,389855,18624
1082.3,1.308979,391215,19206
1085.96,1.302906,393215,19576
1090.84,1.306800,396270,19552
1094.49,1.311770,398760,19451
1098.14,1.313073,400987,19501
1101.79,1.311595,403477,19689
1105.43,1.317592,406116,19546
1109.06,1.313764,407701,19796
1112.7,1.312409,409859,19963
1117.53,1.310862,412494,20163
1121.15,1.318489,414909,19928
1124.77,1.307817,416559,20505
1128.38,1.313207,418532,20348
1131.99,1.316479,419956,20264
1135.6,1.318253,421946,20277
1139.2,1.308409,423881,20837
1143.99,1.311312,426786,20840
1147.58,1.313860,428617,20807
1151.17,1.314107,431169,20919
1154.75,1.307081,433579,21379
1158.33,1.311329,436264,21302
1161.91,1.309995,439132,21508
1165.48,1.305281,442389,21904
1169.04,1.317318,446101,21484
1173.79,1.313201,451929,21972
1177.34,1.311464,456026,22260
1180.9,1.305883,461306,22809
1184.44,1.316223,467657,22579
1187.99,1.308786,473969,23279
1191.52,1.309175,479856,23547
1195.06,1.306637,487372,24056
1199.76,1.315581,497347,24048
1203.29,1.319242,504311,24180
1206.81,1.313525,511507,24850
1210.33,1.312937,519078,25252
1213.84,1.320217,527163,25219
1217.35,1.320643,534208,25531
1220.85,1.321019,540472,25808
1225.51,1.321492,549929,26231
1229.01,1.315903,556888,26907
1232.5,1.318608,562180,26994
1235.98,1.319537,567975,27214
1239.46,1.317315,574815,27683
1242.94,1.321055,582782,27826
1246.41,1.314782,591476,28652
1251.03,1.316708,604016,29130
1254.5,1.325413,612289,28943
1257.96,1.321574,619125,29526
1261.41,1.325040,624551,29548
1264.86,1.322744,629900,29959
1268.31,1.324886,634345,30022
1271.75,1.323210,638574,30339
1276.33,1.318983,642499,30824
1279.76,1.321097,645905,30837
1283.19,1.322300,648307,30866
1286.61,1.324139,650446,30837
1290.03,1.327013,652132,30713
1293.44,1.328208,653907,30712
1296.85,1.326064,655963,30961
1301.39,1.328288,657349,30868
1304.8,1.328454,657558,30866
1308.19,1.321290,658515,31425
1311.58,1.327254,658804,31010
1314.97,1.323404,659011,31296
1318.36,1.327338,658272,30979
1321.73,1.329394,658022,30821
1326.23,1.326344,657870,31031
1329.6,1.324714,656482,31082
1332.97,1.322943,654926,31135
1336.33,1.324567,653727,30962
1339.69,1.324423,652497,30914
1343.04,1.332417,649913,30230
1346.39,1.324768,647671,30661
1349.73,1.327314,645338,30372
1354.18,1.322791,641175,30492
1357.52,1.321047,638376,30481
1360.85,1.319580,635805,30461
1364.17,1.325783,633413,29916
1367.49,1.318963,631026,30275
1370.81,1.320670,628050,30014
1374.12,1.318450,625034,30023
1378.54,1.321672,620272,29574
1381.84,1.321404,616892,29431
1385.14,1.319001,613613,29437
1388.43,1.324511,611526,28967
1391.72,1.314525,610663,29599
1395.01,1.323668,610634,28981
1398.29,1.320591,611700,29238
1402.66,1.322034,614051,29253
1405.93,1.324417,616268,29198
1409.2,1.327549,617795,29060
1412.46,1.318947,618872,29693
1415.72,1.326806,619795,29204
1418.98,1.325293,620495,29339
1422.23,1.321626,621087,29616
1426.56,1.325997,621375,29333
1429.8,1.329525,621616,29107
1433.04,1.329555,622129,29129
1436.27,1.332036,621526,28935
1439.5,1.327832,621113,29197
1442.72,1.332394,620921,28883
1445.94,1.324248,620270,29399
1450.23,1.327207,618860,29133
1453.44,1.321057,617697,29493
1456.64,1.330782,616264,28773
1459.85,1.332839,614413,28551
1463.04,1.329375,612307,28681
1466.24,1.333720,610032,28290
1469.43,1.324586,607345,28764
1473.67,1.326345,603789,28480
1476.85,1.326080,601175,28374
1480.02,1.331607,597737,27855
1483.19,1.329748,594479,27822
1486.36,1.324879,591232,27982
1489.52,1.330631,587853,27456
1492.68,1.329267,583875,27356
1496.89,1.329887,578062,27045
1500.03,1.326416,574159,27078
1503.18,1.326954,570285,26862
1506.32,1.335317,565444,26126
1509.45,1.331924,560571,26104
1512.58,1.326766,555821,26192
1515.71,1.333737,550344,25521
1519.87,1.332379,543983,25305
1522.99,1.336002,538764,24854
1526.1,1.330464,533692,24936
1529.21,1.337430,527902,24273
1532.32,1.327471,521886,24553
1535.42,1.330394,515888,24108
1538.51,1.335605,509987,23548
1541.6,1.327169,503936,23725
1545.72,1.328849,494694,23200
1548.8,1.330726,488378,22805
1551.88,1.326755,481832,22706
1554.95,1.332350,474989,22097
1558.02,1.332039,467818,21779
1561.08,1.331635,460730,21469
1564.15,1.330555,454170,21216
1568.22,1.330898,444181,20733
1571.27,1.327300,436947,20565
1574.32,1.333729,429598,19922
1577.36,1.330292,422039,19727
1580.4,1.331274,414375,19325
1583.43,1.318358,406354,19523
1586.46,1.320734,398475,19040
1590.49,1.323627,388982,18463
1593.51,1.322410,380708,18121
1596.53,1.313712,372727,18100
1599.54,1.323942,365060,17315
1602.55,1.320535,357543,17092
1605.55,1.329101,349495,16381
1608.55,1.318557,341154,16383
1612.54,1.328048,330877,15546
1615.53,1.315782,322904,15606
1618.51,1.317743,315116,15161
1621.49,1.324821,307217,14542
1624.47,1.310354,299481,14656
1627.44,1.322097,292112,13914
1630.41,1.310897,284245,13893
1634.36,1.317993,274079,13179
1637.32,1.316054,266916,12892
1640.27,1.314334,259612,12589
1643.22,1.307361,251804,12408
1646.16,1.301827,244348,12195
1649.1,1.299278,236703,11883
1652.04,1.307185,228171,11248
1655.95,1.297312,215408,10863
1658.88,1.278961,204937,10781
1661.8,1.294113,193395,9825
1664.72,1.274158,179728,9560
1667.63,1.265580,163642,8878
1670.54,1.238989,146312,8439
1673.44,1.210341,128451,7914
1677.31,1.189970,105080,6785
1680.21,1.143974,88906,6382
1683.1,1.155921,75033,5240
1685.99,1.177804,63520,4218
1688.87,1.121561,53714,4060
1691.75,1.145852,45653,3263
1694.62,1.144345,39137,2807
1697.49,1.161066,33776,2331
1701.31,1.097874,28175,2249