File: ML/samples/unknown/Column 1_078950_20241121_173000.csv
Method:,Column 1,,
Host Date-Time:,21/11/24 @ 17:30:0,,
Header Version:,1,,
System Temp (C):,37.78,,
Detector Temp (C):,36.72,,
Humidity (%):,0.48,,
Lamp PD:,3795,,
Shift Vector Coefficients:,-10.5391,0.0761263,-0.000134223,,
Pixel to Wavelength Coefficients:,1775.68,-0.916766,-0.000235065,,
Serial Number:,5510004,,
Scan Config Name:,Column 1,,
Scan Config Type:,Slew,,
Section 1,,
Start wavelength (nm):,900,,
End wavelength (nm):,1700,,
Pattern Pixel Width (nm):,   7.03,,,,
Exposure (ms):,  0.635,,,,
Digital Resolution:,228,,
Num Repeats:,6,,
PGA Gain:,64,,
Total Measurement Time in sec:,  2.729,,
Wavelength (nm),Absorbance (AU),Reference Signal (unitless),Sample Signal (unitless)
901.51,1.343228,108485,4922
905.376,1.301553,121306,6058
909.237,1.327743,131909,6202
913.095,1.349046,143299,6415
916.948,1.337493,156982,7217
922.079,1.316501,179937,8682
925.923,1.332661,200504,9321
929.762,1.330943,222660,10392
933.597,1.322232,244426,11639
937.427,1.318678,263972,12673
941.254,1.319516,281845,13505
945.076,1.308978,297271,14594
950.165,1.301450,315605,15765
953.978,1.317420,328029,15794
957.786,1.323611,340470,16161
961.59,1.311001,352317,17216
965.389,1.310262,363056,17771
969.185,1.307056,373162,18401
972.976,1.303137,382632,19039
976.763,1.312438,391202,19053
981.806,1.298056,400190,20147
985.583,1.314705,406088,19675
989.355,1.303070,410162,20412
993.124,1.316217,412868,19934
996.888,1.305734,414263,20490
1000.65,1.301340,415476,20759
1004.4,1.305441,415479,20564
1009.41,1.308833,414358,20349
1013.15,1.307497,412923,20341
1016.89,1.305470,411526,20367
1020.63,1.294085,409066,20783
1024.36,1.314890,406777,19700
1028.09,1.306636,404427,19962
1031.82,1.310193,401911,19676
1036.78,1.309784,398410,19523
1040.49,1.298695,396204,19917
1044.2,1.304921,394236,19536
1047.91,1.308924,392042,19249
1051.61,1.306414,389823,19251
1055.31,1.308424,388234,19084
1059,1.313578,387599,18828
1063.92,1.308813,386688,18991
1067.61,1.321522,386598,18439
1071.29,1.302509,387377,19303
1074.96,1.309764,388536,19040
1078.63,1.312424,389855,18988
1082.3,1.311792,391215,19082
1085.96,1.306940,393215,19395
1090.84,1.312366,396270,19303
1094.49,1.312149,398760,19434
1098.14,1.310276,400987,19627
1101.79,1.320171,403477,19304
1105.43,1.313171,406116,19746
1109.06,1.317222,407701,19639
1112.7,1.317639,409859,19724
1117.53,1.314127,412494,20012
1121.15,1.325941,414909,19589
1124.77,1.317931,416559,20033
1128.38,1.314468,418532,20289
1131.99,1.310265,419956,20556
1135.6,1.323294,421946,20043
1139.2,1.311988,423881,20666
1143.99,1.315606,426786,20635
1147.58,1.308055,428617,21087
1151.17,1.312801,431169,20982
1154.75,1.314849,433579,21000
1158.33,1.313024,436264,21219
1161.91,1.312060,439132,21406
1165.48,1.314883,442389,21425
1169.04,1.314337,446101,21632
1173.79,1.313280,451929,21968
1177.34,1.317061,456026,21975
1180.9,1.314750,461306,22348
1184.44,1.320961,467657,22334
1187.99,1.316370,473969,22876
1191.52,1.312415,479856,23372
1195.06,1.318125,487372,23428
1199.76,1.313077,497347,24187
1203.29,1.315273,504311,24402
1206.81,1.318924,511507,24543
1210.33,1.321833,519078,24740
1213.84,1.325414,527163,24919
1217.35,1.319997,534208,25569
1220.85,1.319691,540472,25887
1225.51,1.321823,549929,26211
1229.01,1.316743,556888,26855
1232.5,1.327039,562180,26475
1235.98,1.320911,567975,27128
1239.46,1.319501,574815,27544
1242.94,1.311943,582782,28416
1246.41,1.325105,591476,27979
1251.03,1.322184,604016,28765
1254.5,1.320549,612289,29269
1257.96,1.325875,619125,29235
1261.41,1.321731,624551,29774
1264.86,1.322295,629900,29990
1268.31,1.321816,634345,30235
1271.75,1.321310,638574,30472
1276.33,1.325213,642499,30385
1279.76,1.322437,645905,30742
1283.19,1.323061,648307,30812
1286.61,1.325380,650446,30749
1290.03,1.328018,652132,30642
1293.44,1.325024,653907,30938
1296.85,1.326865,655963,30904
1301.39,1.327683,657349,30911
1304.8,1.321835,657558,31340
1308.19,1.325680,658515,31109
1311.58,1.334072,658804,30527
1314.97,1.329075,659011,30890
1318.36,1.326302,658272,31053
1321.73,1.335896,658022,30363
1326.23,1.333044,657870,30556
1329.6,1.330580,656482,30665
1332.97,1.329323,654926,30681
1336.33,1.332223,653727,30421
1339.69,1.330678,652497,30472
1343.04,1.324784,649913,30766
1346.39,1.324244,647671,30698
1349.73,1.324250,645338,30587
1354.18,1.329928,641175,29995
1357.52,1.323992,638376,30275
1360.85,1.325754,635805,30031
1364.17,1.330351,633413,29603
1367.49,1.328125,631026,29643
1370.81,1.327996,628050,29512
1374.12,1.321381,625034,29821
1378.54,1.318410,620272,29797
1381.84,1.327452,616892,29024
1385.14,1.326066,613613,28962
1388.43,1.330581,611526,28565
1391.72,1.327632,610663,28719
1395.01,1.326569,610634,28788
1398.29,1.331663,611700,28502
1402.66,1.326346,614051,28964
1405.93,1.333054,616268,28623
1409.2,1.327414,617795,29069
1412.46,1.325252,618872,29265
1415.72,1.325974,619795,29260
1418.98,1.335492,620495,28658
1422.23,1.331819,621087,28929
1426.56,1.328656,621375,29154
1429.8,1.329182,621616,29130
1433.04,1.336044,622129,28697
1436.27,1.333313,621526,28850
1439.5,1.328487,621113,29153
1442.72,1.328651,620921,29133
1445.94,1.330407,620270,28985
1450.23,1.333015,618860,28746
1453.44,1.332909,617697,28699
1456.64,1.330088,616264,28819
1459.85,1.331503,614413,28639
1463.04,1.334907,612307,28318
1466.24,1.324951,610032,28867
1469.43,1.333248,607345,28196
1473.67,1.338155,603789,27716
1476.85,1.335769,601175,27748
1480.02,1.329290,597737,28004
1483.19,1.330498,594479,27774
1486.36,1.336375,591232,27251
1489.52,1.336572,587853,27083
1492.68,1.335568,583875,26962
1496.89,1.349245,578062,25866
1500.03,1.335377,574159,26525
1503.18,1.338222,570285,26174
1506.32,1.336215,565444,26072
1509.45,1.328708,560571,26298
1512.58,1.331836,555821,25888
1515.71,1.331852,550344,25632
1519.87,1.339473,543983,24895
1522.99,1.339582,538764,24650
1526.1,1.340221,533692,24382
1529.21,1.330138,527902,24684
1532.32,1.326976,521886,24581
1535.42,1.333921,515888,23913
1538.51,1.330253,509987,23840
1541.6,1.326090,503936,23784
1545.72,1.326273,494694,23338
1548.8,1.330231,488378,22831
1551.88,1.324390,481832,22830
1554.95,1.328379,474989,22300
1558.02,1.329078,467818,21928
1561.08,1.330826,460730,21509
1564.15,1.333595,454170,21068
1568.22,1.328308,444181,20857
1571.27,1.333532,436947,20272
1574.32,1.334122,429598,19904
1577.36,1.324670,422039,19984
1580.4,1.333618,414375,19221
1583.43,1.328918,406354,19054
1586.46,1.326636,398475,18783
1590.49,1.329238,388982,18226
1593.51,1.324163,380708,18048
1596.53,1.335282,372727,17223
1599.54,1.320022,365060,17472
1602.55,1.321400,357543,17058
1605.55,1.319841,349495,16734
1608.55,1.329836,341154,15963
1612.54,1.325819,330877,15626
1615.53,1.325974,322904,15244
1618.51,1.316056,315116,15220
1621.49,1.312281,307217,14968
1624.47,1.314074,299481,14531
1627.44,1.306494,292112,14423
1630.41,1.306357,284245,14039
1634.36,1.310544,274079,13407
1637.32,1.315650,266916,12904
1640.27,1.323749,259612,12319
1643.22,1.307186,251804,12413
1646.16,1.324038,244348,11587
1649.1,1.308886,236703,11623
1652.04,1.312351,228171,11115
1655.95,1.279454,215408,11319
1658.88,1.277514,204937,10817
1661.8,1.289583,193395,9928
1664.72,1.280934,179728,9412
1667.63,1.252474,163642,9150
1670.54,1.220649,146312,8803
1673.44,1.218932,128451,7759
1677.31,1.150473,105080,7431
1680.21,1.151871,88906,6267
1683.1,1.151715,75033,5291
1685.99,1.140342,63520,4598
1688.87,1.141256,53714,3880
1691.75,1.130553,45653,3380
1694.62,1.187412,39137,2542
1697.49,1.202068,33776,2121
1701.31,1.154077,28175,1976