File: ML/samples/unknown/Column 1_078374_20241121_165933.csv
Method:,Column 1,,
Host Date-Time:,21/11/24 @ 16:59:33,,
Header Version:,1,,
System Temp (C):,34.62,,
Detector Temp (C):,33.32,,
Humidity (%):,1.66,,
Lamp PD:,3804,,
Shift Vector Coefficients:,-10.5391,0.0761263,-0.000134223,,
Pixel to Wavelength Coefficients:,1775.68,-0.916766,-0.000235065,,
Serial Number:,5510004,,
Scan Config Name:,Column 1,,
Scan Config Type:,Slew,,
Section 1,,
Start wavelength (nm):,900,,
End wavelength (nm):,1700,,
Pattern Pixel Width (nm):,   7.03,,,,
Exposure (ms):,  0.635,,,,
Digital Resolution:,228,,
Num Repeats:,6,,
PGA Gain:,64,,
Total Measurement Time in sec:,  2.704,,
Wavelength (nm),Absorbance (AU),Reference Signal (unitless),Sample Signal (unitless)
901.51,1.296906,108485,5476
905.376,1.344785,121306,5484
909.237,1.319901,131909,6315
913.095,1.321759,143299,6831
916.948,1.311734,156982,7658
922.079,1.314604,179937,8720
925.923,1.320033,200504,9596
929.762,1.334005,222660,10319
933.597,1.330025,244426,11432
937.427,1.331300,263972,12310
941.254,1.322582,281845,13410
945.076,1.331922,297271,13843
950.165,1.306353,315605,15588
953.978,1.309977,328029,16067
957.786,1.318322,340470,16359
961.59,1.314726,352317,17069
965.389,1.307388,363056,17889
969.185,1.308948,373162,18321
972.976,1.312685,382632,18625
976.763,1.311937,391202,19075
981.806,1.310809,400190,19564
985.583,1.308416,406088,19962
989.355,1.308314,410162,20167
993.124,1.316108,412868,19939
996.888,1.309117,414263,20331
1000.65,1.316648,415476,20040
1004.4,1.312553,415479,20230
1009.41,1.312928,414358,20158
1013.15,1.311874,412923,20137
1016.89,1.308358,411526,20232
1020.63,1.308446,409066,20107
1024.36,1.308305,406777,20001
1028.09,1.309496,404427,19831
1031.82,1.310613,401911,19657
1036.78,1.304433,398410,19765
1040.49,1.310543,396204,19381
1044.2,1.312523,394236,19197
1047.91,1.315517,392042,18959
1051.61,1.313648,389823,18933
1055.31,1.301695,388234,19382
1059,1.321892,387599,18471
1063.92,1.302614,386688,19264
1067.61,1.319736,386598,18515
1071.29,1.307260,387377,19093
1074.96,1.315990,388536,18769
1078.63,1.316399,389855,18815
1082.3,1.325667,391215,18482
1085.96,1.317021,393215,18950
1090.84,1.320130,396270,18961
1094.49,1.324020,398760,18910
1098.14,1.315396,400987,19397
1101.79,1.323423,403477,19160
1105.43,1.316638,406116,19589
1109.06,1.322383,407701,19407
1112.7,1.321399,409859,19554
1117.53,1.321680,412494,19667
1121.15,1.320893,414909,19818
1124.77,1.322529,416559,19822
1128.38,1.324253,418532,19837
1131.99,1.322369,419956,19991
1135.6,1.322428,421946,20083
1139.2,1.312745,423881,20630
1143.99,1.317187,426786,20560
1147.58,1.320930,428617,20471
1151.17,1.331171,431169,20113
1154.75,1.326885,433579,20426
1158.33,1.326578,436264,20567
1161.91,1.315359,439132,21244
1165.48,1.315228,442389,21408
1169.04,1.326635,446101,21028
1173.79,1.317471,451929,21757
1177.34,1.323672,456026,21643
1180.9,1.317128,461306,22226
1184.44,1.319912,467657,22388
1187.99,1.318482,473969,22765
1191.52,1.316522,479856,23152
1195.06,1.320132,487372,23320
1199.76,1.323324,497347,23623
1203.29,1.321872,504311,24034
1206.81,1.330635,511507,23890
1210.33,1.317779,519078,24972
1213.84,1.325101,527163,24937
1217.35,1.330709,534208,24946
1220.85,1.321895,540472,25756
1225.51,1.325150,549929,26011
1229.01,1.330210,556888,26035
1232.5,1.319946,562180,26911
1235.98,1.327639,567975,26711
1239.46,1.323939,574815,27264
1242.94,1.325558,582782,27539
1246.41,1.329473,591476,27699
1251.03,1.328434,604016,28354
1254.5,1.326931,612289,28842
1257.96,1.329800,619125,28972
1261.41,1.324570,624551,29580
1264.86,1.325493,629900,29770
1268.31,1.332975,634345,29468
1271.75,1.321510,638574,30458
1276.33,1.325113,642499,30392
1279.76,1.327895,645905,30358
1283.19,1.332105,648307,30177
1286.61,1.331382,650446,30327
1290.03,1.336592,652132,30043
1293.44,1.332300,653907,30424
1296.85,1.331499,655963,30576
1301.39,1.330092,657349,30740
1304.8,1.332326,657558,30592
1308.19,1.332022,658515,30658
1311.58,1.332028,658804,30671
1314.97,1.333498,659011,30577
1318.36,1.332202,658272,30634
1321.73,1.331668,658022,30660
1326.23,1.328055,657870,30909
1329.6,1.334835,656482,30366
1332.97,1.333219,654926,30407
1336.33,1.330840,653727,30518
1339.69,1.334687,652497,30192
1343.04,1.330697,649913,30350
1346.39,1.330916,647671,30230
1349.73,1.332840,645338,29988
1354.18,1.331262,641175,29903
1357.52,1.327970,638376,29999
1360.85,1.334357,635805,29442
1364.17,1.328156,633413,29753
1367.49,1.326400,631026,29761
1370.81,1.323443,628050,29823
1374.12,1.333625,625034,28992
1378.54,1.331609,620272,28905
1381.84,1.329191,616892,28908
1385.14,1.336354,613613,28284
1388.43,1.323688,611526,29022
1391.72,1.328344,610663,28672
1395.01,1.331134,610634,28487
1398.29,1.330780,611700,28560
1402.66,1.332325,614051,28568
1405.93,1.328016,616268,28957
1409.2,1.327923,617795,29035
1412.46,1.334977,618872,28617
1415.72,1.332735,619795,28808
1418.98,1.332397,620495,28863
1422.23,1.330515,621087,29016
1426.56,1.335426,621375,28703
1429.8,1.332384,621616,28916
1433.04,1.334126,622129,28824
1436.27,1.335441,621526,28709
1439.5,1.333070,621113,28847
1442.72,1.333900,620921,28783
1445.94,1.337660,620270,28505
1450.23,1.335956,618860,28552
1453.44,1.330615,617697,28851
1456.64,1.330872,616264,28767
1459.85,1.331093,614413,28666
1463.04,1.335413,612307,28285
1466.24,1.333290,610032,28318
1469.43,1.330683,607345,28363
1473.67,1.337028,603789,27788
1476.85,1.335785,601175,27747
1480.02,1.336578,597737,27538
1483.19,1.338260,594479,27282
1486.36,1.338452,591232,27121
1489.52,1.338742,587853,26948
1492.68,1.334506,583875,27028
1496.89,1.338597,578062,26508
1500.03,1.334788,574159,26561
1503.18,1.342926,570285,25892
1506.32,1.335916,565444,26090
1509.45,1.341257,560571,25549
1512.58,1.339725,555821,25422
1515.71,1.337977,550344,25273
1519.87,1.330923,543983,25390
1522.99,1.346973,538764,24234
1526.1,1.339936,533692,24398
1529.21,1.328908,527902,24754
1532.32,1.334641,521886,24151
1535.42,1.342635,515888,23438
1538.51,1.338325,509987,23401
1541.6,1.339064,503936,23084
1545.72,1.334160,494694,22918
1548.8,1.340899,488378,22277
1551.88,1.335644,481832,22246
1554.95,1.338187,474989,21802
1558.02,1.333337,467818,21714
1561.08,1.335781,460730,21265
1564.15,1.329043,454170,21290
1568.22,1.329685,444181,20791
1571.27,1.329693,436947,20452
1574.32,1.334144,429598,19903
1577.36,1.334006,422039,19559
1580.4,1.328809,414375,19435
1583.43,1.336297,406354,18733
1586.46,1.332479,398475,18532
1590.49,1.327099,388982,18316
1593.51,1.340317,380708,17389
1596.53,1.320337,372727,17826
1599.54,1.328582,365060,17131
1602.55,1.319393,357543,17137
1605.55,1.329897,349495,16351
1608.55,1.339520,341154,15611
1612.54,1.323546,330877,15708
1615.53,1.316896,322904,15566
1618.51,1.331390,315116,14692
1621.49,1.329747,307217,14378
1624.47,1.322707,299481,14245
1627.44,1.324602,292112,13834
1630.41,1.309648,284245,13933
1634.36,1.321168,274079,13083
1637.32,1.307119,266916,13160
1640.27,1.329999,259612,12143
1643.22,1.316486,251804,12150
1646.16,1.320603,244348,11679
1649.1,1.324482,236703,11213
1652.04,1.297714,228171,11496
1655.95,1.303432,215408,10711
1658.88,1.293961,204937,10415
1661.8,1.285058,193395,10032
1664.72,1.287255,179728,9276
1667.63,1.269856,163642,8791
1670.54,1.260618,146312,8029
1673.44,1.256380,128451,7118
1677.31,1.211826,105080,6452
1680.21,1.190019,88906,5740
1683.1,1.219154,75033,4530
1685.99,1.163623,63520,4358
1688.87,1.254416,53714,2990
1691.75,1.188178,45653,2960
1694.62,1.146828,39137,2791
1697.49,1.201863,33776,2122
1701.31,1.130550,28175,2086