File: ML/samples/unknown/Column 1_078083_20241121_164438.csv
Method:,Column 1,,
Host Date-Time:,21/11/24 @ 16:44:38,,
Header Version:,1,,
System Temp (C):,31.88,,
Detector Temp (C):,26.81,,
Humidity (%):,4.79,,
Lamp PD:,3808,,
Shift Vector Coefficients:,-10.5391,0.0761263,-0.000134223,,
Pixel to Wavelength Coefficients:,1775.68,-0.916766,-0.000235065,,
Serial Number:,5510004,,
Scan Config Name:,Column 1,,
Scan Config Type:,Slew,,
Section 1,,
Start wavelength (nm):,900,,
End wavelength (nm):,1700,,
Pattern Pixel Width (nm):,   7.03,,,,
Exposure (ms):,  0.635,,,,
Digital Resolution:,228,,
Num Repeats:,6,,
PGA Gain:,64,,
Total Measurement Time in sec:,  2.729,,
Wavelength (nm),Absorbance (AU),Reference Signal (unitless),Sample Signal (unitless)
901.51,1.330962,108485,5063
905.376,1.323008,121306,5766
909.237,1.340750,131909,6019
913.095,1.310711,143299,7007
916.948,1.325856,156982,7413
922.079,1.318556,179937,8641
925.923,1.324537,200504,9497
929.762,1.323485,222660,10572
933.597,1.318368,244426,11743
937.427,1.299047,263972,13259
941.254,1.311518,281845,13756
945.076,1.314820,297271,14399
950.165,1.309205,315605,15486
953.978,1.320649,328029,15677
957.786,1.315517,340470,16465
961.59,1.314955,352317,17060
965.389,1.297879,363056,18285
969.185,1.314243,373162,18099
972.976,1.314320,382632,18555
976.763,1.310981,391202,19117
981.806,1.313972,400190,19422
985.583,1.312943,406088,19755
989.355,1.303112,410162,20410
993.124,1.316369,412868,19927
996.888,1.309844,414263,20297
1000.65,1.315825,415476,20078
1004.4,1.304450,415479,20611
1009.41,1.306258,414358,20470
1013.15,1.312133,412923,20125
1016.89,1.314063,411526,19968
1020.63,1.315413,409066,19787
1024.36,1.311224,406777,19867
1028.09,1.305658,404427,20007
1031.82,1.312894,401911,19554
1036.78,1.314368,398410,19318
1040.49,1.313015,396204,19271
1044.2,1.308761,394236,19364
1047.91,1.314145,392042,19019
1051.61,1.309175,389823,19129
1055.31,1.313759,388234,18851
1059,1.319571,387599,18570
1063.92,1.306532,386688,19091
1067.61,1.313587,386598,18779
1071.29,1.311167,387377,18922
1074.96,1.307240,388536,19151
1078.63,1.321600,389855,18591
1082.3,1.309318,391215,19191
1085.96,1.318260,393215,18896
1090.84,1.323787,396270,18802
1094.49,1.318656,398760,19145
1098.14,1.310077,400987,19636
1101.79,1.318398,403477,19383
1105.43,1.313721,406116,19721
1109.06,1.319929,407701,19517
1112.7,1.323693,409859,19451
1117.53,1.320004,412494,19743
1121.15,1.326384,414909,19569
1124.77,1.322025,416559,19845
1128.38,1.320677,418532,20001
1131.99,1.319144,419956,20140
1135.6,1.322688,421946,20071
1139.2,1.318146,423881,20375
1143.99,1.328442,426786,20034
1147.58,1.322290,428617,20407
1151.17,1.314003,431169,20924
1154.75,1.329915,433579,20284
1158.33,1.319894,436264,20886
1161.91,1.322573,439132,20894
1165.48,1.318957,442389,21225
1169.04,1.317581,446101,21471
1173.79,1.316434,451929,21809
1177.34,1.316488,456026,22004
1180.9,1.320384,461306,22060
1184.44,1.326224,467657,22065
1187.99,1.315706,473969,22911
1191.52,1.317837,479856,23082
1195.06,1.320449,487372,23303
1199.76,1.327017,497347,23423
1203.29,1.329216,504311,23631
1206.81,1.322460,511507,24344
1210.33,1.331866,519078,24175
1213.84,1.318773,527163,25303
1217.35,1.323321,534208,25374
1220.85,1.327000,540472,25455
1225.51,1.347557,549929,24703
1229.01,1.324460,556888,26382
1232.5,1.327745,562180,26432
1235.98,1.317562,567975,27338
1239.46,1.327168,574815,27062
1242.94,1.328009,582782,27384
1246.41,1.322937,591476,28119
1251.03,1.330091,604016,28246
1254.5,1.326570,612289,28866
1257.96,1.335640,619125,28585
1261.41,1.327339,624551,29392
1264.86,1.331412,629900,29367
1268.31,1.328415,634345,29779
1271.75,1.328351,638574,29982
1276.33,1.329393,642499,30094
1279.76,1.326795,645905,30435
1283.19,1.327282,648307,30514
1286.61,1.335193,650446,30062
1290.03,1.327565,652132,30674
1293.44,1.336301,653907,30145
1296.85,1.330690,655963,30633
1301.39,1.328217,657349,30873
1304.8,1.328229,657558,30882
1308.19,1.333896,658515,30526
1311.58,1.338735,658804,30201
1314.97,1.332151,659011,30672
1318.36,1.332244,658272,30631
1321.73,1.333357,658022,30541
1326.23,1.334524,657870,30452
1329.6,1.333464,656482,30462
1332.97,1.338001,654926,30074
1336.33,1.325860,653727,30870
1339.69,1.330749,652497,30467
1343.04,1.328798,649913,30483
1346.39,1.328752,647671,30381
1349.73,1.330903,645338,30122
1354.18,1.328093,641175,30122
1357.52,1.331648,638376,29746
1360.85,1.331460,635805,29639
1364.17,1.337898,633413,29093
1367.49,1.331493,631026,29414
1370.81,1.332894,628050,29181
1374.12,1.330521,625034,29200
1378.54,1.331729,620272,28897
1381.84,1.334010,616892,28589
1385.14,1.332836,613613,28514
1388.43,1.321136,611526,29193
1391.72,1.332560,610663,28395
1395.01,1.328005,610634,28693
1398.29,1.325581,611700,28904
1402.66,1.330398,614051,28695
1405.93,1.331510,616268,28725
1409.2,1.333523,617795,28663
1412.46,1.326545,618872,29178
1415.72,1.333112,619795,28783
1418.98,1.331931,620495,28894
1422.23,1.335392,621087,28692
1426.56,1.334973,621375,28733
1429.8,1.332114,621616,28934
1433.04,1.334895,622129,28773
1436.27,1.332862,621526,28880
1439.5,1.335894,621113,28660
1442.72,1.338283,620921,28494
1445.94,1.335229,620270,28665
1450.23,1.342021,618860,28156
1453.44,1.331972,617697,28761
1456.64,1.334648,616264,28518
1459.85,1.341194,614413,28007
1463.04,1.334830,612307,28323
1466.24,1.333106,610032,28330
1469.43,1.340658,607345,27719
1473.67,1.337403,603789,27764
1476.85,1.337007,601175,27669
1480.02,1.342037,597737,27194
1483.19,1.343384,594479,26962
1486.36,1.334229,591232,27386
1489.52,1.339953,587853,26873
1492.68,1.335262,583875,26981
1496.89,1.341342,578062,26341
1500.03,1.337083,574159,26421
1503.18,1.344186,570285,25817
1506.32,1.339207,565444,25893
1509.45,1.343182,560571,25436
1512.58,1.344190,555821,25162
1515.71,1.340079,550344,25151
1519.87,1.338584,543983,24946
1522.99,1.342463,538764,24487
1526.1,1.345184,533692,24105
1529.21,1.335377,527902,24388
1532.32,1.334335,521886,24168
1535.42,1.338834,515888,23644
1538.51,1.337564,509987,23442
1541.6,1.338613,503936,23108
1545.72,1.341980,494694,22509
1548.8,1.340841,488378,22280
1551.88,1.333443,481832,22359
1554.95,1.340264,474989,21698
1558.02,1.343762,467818,21199
1561.08,1.335577,460730,21275
1564.15,1.337446,454170,20882
1568.22,1.336930,444181,20447
1571.27,1.342078,436947,19877
1574.32,1.339479,429598,19660
1577.36,1.340020,422039,19290
1580.4,1.338115,414375,19023
1583.43,1.339929,406354,18577
1586.46,1.337191,398475,18332
1590.49,1.335478,388982,17966
1593.51,1.333897,380708,17648
1596.53,1.336747,372727,17165
1599.54,1.338090,365060,16760
1602.55,1.339253,357543,16371
1605.55,1.330827,349495,16316
1608.55,1.329048,341154,15992
1612.54,1.338023,330877,15193
1615.53,1.332664,322904,15011
1618.51,1.333315,315116,14627
1621.49,1.328390,307217,14423
1624.47,1.328230,299481,14065
1627.44,1.339808,292112,13358
1630.41,1.330037,284245,13294
1634.36,1.328736,274079,12857
1637.32,1.317505,266916,12849
1640.27,1.330428,259612,12131
1643.22,1.326392,251804,11876
1646.16,1.329165,244348,11451
1649.1,1.326384,236703,11164
1652.04,1.333323,228171,10591
1655.95,1.311081,215408,10524
1658.88,1.313623,204937,9954
1661.8,1.312948,193395,9408
1664.72,1.318957,179728,8623
1667.63,1.314512,163642,7932
1670.54,1.323608,146312,6945
1673.44,1.300054,128451,6437
1677.31,1.314632,105080,5092
1680.21,1.341583,88906,4049
1683.1,1.284745,75033,3895
1685.99,1.281119,63520,3325
1688.87,1.354424,53714,2375
1691.75,1.365224,45653,1969
1694.62,1.368573,39137,1675
1697.49,1.201454,33776,2124
1701.31,1.318887,28175,1352