File: ML/samples/unknown/Column 1_078932_20241121_172908.csv
Method:,Column 1,,
Host Date-Time:,21/11/24 @ 17:29:8,,
Header Version:,1,,
System Temp (C):,37.35,,
Detector Temp (C):,36.46,,
Humidity (%):,0.68,,
Lamp PD:,3796,,
Shift Vector Coefficients:,-10.5391,0.0761263,-0.000134223,,
Pixel to Wavelength Coefficients:,1775.68,-0.916766,-0.000235065,,
Serial Number:,5510004,,
Scan Config Name:,Column 1,,
Scan Config Type:,Slew,,
Section 1,,
Start wavelength (nm):,900,,
End wavelength (nm):,1700,,
Pattern Pixel Width (nm):,   7.03,,,,
Exposure (ms):,  0.635,,,,
Digital Resolution:,228,,
Num Repeats:,6,,
PGA Gain:,64,,
Total Measurement Time in sec:,  2.726,,
Wavelength (nm),Absorbance (AU),Reference Signal (unitless),Sample Signal (unitless)
901.51,1.313806,108485,5267
905.376,1.298909,121306,6095
909.237,1.301851,131909,6583
913.095,1.320046,143299,6858
916.948,1.337493,156982,7217
922.079,1.305633,179937,8902
925.923,1.322711,200504,9537
929.762,1.328401,222660,10453
933.597,1.321672,244426,11654
937.427,1.327926,263972,12406
941.254,1.310509,281845,13788
945.076,1.320100,297271,14225
950.165,1.309597,315605,15472
953.978,1.303245,328029,16318
957.786,1.304475,340470,16889
961.59,1.316153,352317,17013
965.389,1.315820,363056,17545
969.185,1.312017,373162,18192
972.976,1.306274,382632,18902
976.763,1.300988,391202,19562
981.806,1.307690,400190,19705
985.583,1.304841,406088,20127
989.355,1.302517,410162,20438
993.124,1.299736,412868,20705
996.888,1.306073,414263,20474
1000.65,1.302764,415476,20691
1004.4,1.309345,415479,20380
1009.41,1.304712,414358,20543
1013.15,1.305898,412923,20416
1016.89,1.300678,411526,20593
1020.63,1.300909,409066,20459
1024.36,1.308109,406777,20010
1028.09,1.306810,404427,19954
1031.82,1.303404,401911,19986
1036.78,1.310095,398410,19509
1040.49,1.300049,396204,19855
1044.2,1.309929,394236,19312
1047.91,1.298646,392042,19710
1051.61,1.311041,389823,19047
1055.31,1.311255,388234,18960
1059,1.311232,387599,18930
1063.92,1.305101,386688,19154
1067.61,1.298005,386598,19465
1071.29,1.311029,387377,18928
1074.96,1.307716,388536,19130
1078.63,1.313248,389855,18952
1082.3,1.307962,391215,19251
1085.96,1.307030,393215,19391
1090.84,1.307156,396270,19536
1094.49,1.311792,398760,19450
1098.14,1.312895,400987,19509
1101.79,1.307381,403477,19881
1105.43,1.310627,406116,19862
1109.06,1.306476,407701,20131
1112.7,1.311822,409859,19990
1117.53,1.318424,412494,19815
1121.15,1.307387,414909,20444
1124.77,1.301655,416559,20798
1128.38,1.317174,418532,20163
1131.99,1.310455,419956,20547
1135.6,1.316436,421946,20362
1139.2,1.311777,423881,20676
1143.99,1.316280,426786,20603
1147.58,1.319554,428617,20536
1151.17,1.315479,431169,20853
1154.75,1.311101,433579,21182
1158.33,1.318213,436264,20967
1161.91,1.307157,439132,21649
1165.48,1.311833,442389,21576
1169.04,1.317925,446101,21454
1173.79,1.315102,451929,21876
1177.34,1.313420,456026,22160
1180.9,1.302091,461306,23009
1184.44,1.311288,467657,22837
1187.99,1.315270,473969,22934
1191.52,1.314912,479856,23238
1195.06,1.319667,487372,23345
1199.76,1.323545,497347,23611
1203.29,1.318506,504311,24221
1206.81,1.313630,511507,24844
1210.33,1.317623,519078,24981
1213.84,1.318361,527163,25327
1217.35,1.323715,534208,25351
1220.85,1.313462,540472,26261
1225.51,1.309522,549929,26964
1229.01,1.318785,556888,26729
1232.5,1.316074,562180,27152
1235.98,1.317880,567975,27318
1239.46,1.324736,574815,27214
1242.94,1.324393,582782,27613
1246.41,1.316072,591476,28567
1251.03,1.320918,604016,28849
1254.5,1.330560,612289,28602
1257.96,1.317009,619125,29838
1261.41,1.319215,624551,29947
1264.86,1.321095,629900,30073
1268.31,1.322462,634345,30190
1271.75,1.322081,638574,30418
1276.33,1.320098,642499,30745
1279.76,1.321731,645905,30792
1283.19,1.319887,648307,31038
1286.61,1.321962,650446,30992
1290.03,1.327013,652132,30713
1293.44,1.327671,653907,30750
1296.85,1.322599,655963,31209
1301.39,1.325748,657349,31049
1304.8,1.328482,657558,30864
1308.19,1.328087,658515,30937
1311.58,1.321896,658804,31395
1314.97,1.329947,659011,30828
1318.36,1.319929,658272,31512
1321.73,1.328760,658022,30866
1326.23,1.327409,657870,30955
1329.6,1.322276,656482,31257
1332.97,1.332933,654926,30427
1336.33,1.327368,653727,30763
1339.69,1.328120,652497,30652
1343.04,1.326609,649913,30637
1346.39,1.324499,647671,30680
1349.73,1.326814,645338,30407
1354.18,1.324732,641175,30356
1357.52,1.325588,638376,30164
1360.85,1.327682,635805,29898
1364.17,1.325087,633413,29964
1367.49,1.318906,631026,30279
1370.81,1.320656,628050,30015
1374.12,1.322621,625034,29736
1378.54,1.329975,620272,29014
1381.84,1.317745,616892,29680
1385.14,1.319725,613613,29388
1388.43,1.320274,611526,29251
1391.72,1.322133,610663,29085
1395.01,1.328156,610634,28683
1398.29,1.329732,611700,28629
1402.66,1.325313,614051,29033
1405.93,1.323510,616268,29259
1409.2,1.324051,617795,29295
1412.46,1.330147,618872,28937
1415.72,1.328131,619795,29115
1418.98,1.329966,620495,29025
1422.23,1.325071,621087,29382
1426.56,1.325583,621375,29361
1429.8,1.324865,621616,29421
1433.04,1.331423,622129,29004
1436.27,1.329910,621526,29077
1439.5,1.325459,621113,29357
1442.72,1.333780,620921,28791
1445.94,1.329928,620270,29017
1450.23,1.328686,618860,29034
1453.44,1.328572,617697,28987
1456.64,1.325054,616264,29155
1459.85,1.336107,614413,28337
1463.04,1.331013,612307,28573
1466.24,1.331087,610032,28462
1469.43,1.334189,607345,28135
1473.67,1.335343,603789,27896
1476.85,1.328937,601175,28188
1480.02,1.328825,597737,28034
1483.19,1.327429,594479,27971
1486.36,1.334928,591232,27342
1489.52,1.329715,587853,27514
1492.68,1.332966,583875,27124
1496.89,1.338663,578062,26504
1500.03,1.335803,574159,26499
1503.18,1.333223,570285,26477
1506.32,1.330555,565444,26414
1509.45,1.329137,560571,26272
1512.58,1.334934,555821,25704
1515.71,1.335903,550344,25394
1519.87,1.326718,543983,25637
1522.99,1.333146,538764,25018
1526.1,1.329246,533692,25006
1529.21,1.336786,527902,24309
1532.32,1.330382,521886,24389
1535.42,1.336033,515888,23797
1538.51,1.330781,509987,23811
1541.6,1.332881,503936,23415
1545.72,1.336154,494694,22813
1548.8,1.328560,488378,22919
1551.88,1.332667,481832,22399
1554.95,1.331584,474989,22136
1558.02,1.331700,467818,21796
1561.08,1.330402,460730,21530
1564.15,1.325528,454170,21463
1568.22,1.328183,444181,20863
1571.27,1.334991,436947,20204
1574.32,1.327603,429598,20205
1577.36,1.327570,422039,19851
1580.4,1.320575,414375,19807
1583.43,1.322763,406354,19326
1586.46,1.331987,398475,18553
1590.49,1.323016,388982,18489
1593.51,1.321763,380708,18148
1596.53,1.320508,372727,17819
1599.54,1.321241,365060,17423
1602.55,1.308433,357543,17575
1605.55,1.319245,349495,16757
1608.55,1.308832,341154,16754
1612.54,1.318433,330877,15894
1615.53,1.318882,322904,15495
1618.51,1.317056,315116,15185
1621.49,1.325120,307217,14532
1624.47,1.316682,299481,14444
1627.44,1.307127,292112,14402
1630.41,1.305430,284245,14069
1634.36,1.318686,274079,13158
1637.32,1.318588,266916,12817
1640.27,1.300315,259612,13002
1643.22,1.308728,251804,12369
1646.16,1.287328,244348,12609
1649.1,1.312751,236703,11520
1652.04,1.298621,228171,11472
1655.95,1.306606,215408,10633
1658.88,1.276551,204937,10841
1661.8,1.280579,193395,10136
1664.72,1.257098,179728,9943
1667.63,1.242526,163642,9362
1670.54,1.203716,146312,9153
1673.44,1.198968,128451,8124
1677.31,1.160284,105080,7265
1680.21,1.139843,88906,6443
1683.1,1.092064,75033,6070
1685.99,1.089756,63520,5166
1688.87,1.100678,53714,4260
1691.75,1.138200,45653,3321
1694.62,1.085407,39137,3215
1697.49,1.114973,33776,2592
1701.31,1.108232,28175,2196