File: ML/samples/unknown/Column 1_078568_20241121_170905.csv
Method:,Column 1,,
Host Date-Time:,21/11/24 @ 17:9:5,,
Header Version:,1,,
System Temp (C):,36.14,,
Detector Temp (C):,34.51,,
Humidity (%):,1.08,,
Lamp PD:,3798,,
Shift Vector Coefficients:,-10.5391,0.0761263,-0.000134223,,
Pixel to Wavelength Coefficients:,1775.68,-0.916766,-0.000235065,,
Serial Number:,5510004,,
Scan Config Name:,Column 1,,
Scan Config Type:,Slew,,
Section 1,,
Start wavelength (nm):,900,,
End wavelength (nm):,1700,,
Pattern Pixel Width (nm):,   7.03,,,,
Exposure (ms):,  0.635,,,,
Digital Resolution:,228,,
Num Repeats:,6,,
PGA Gain:,64,,
Total Measurement Time in sec:,  2.726,,
Wavelength (nm),Absorbance (AU),Reference Signal (unitless),Sample Signal (unitless)
901.51,1.332595,108485,5044
905.376,1.323686,121306,5757
909.237,1.313484,131909,6409
913.095,1.325078,143299,6779
916.948,1.292163,156982,8011
922.079,1.302134,179937,8974
925.923,1.325086,200504,9485
929.762,1.313214,222660,10825
933.597,1.314686,244426,11843
937.427,1.321187,263972,12600
941.254,1.328188,281845,13238
945.076,1.310528,297271,14542
950.165,1.317700,315605,15186
953.978,1.309896,328029,16070
957.786,1.303704,340470,16919
961.59,1.316076,352317,17016
965.389,1.310408,363056,17765
969.185,1.303553,373162,18550
972.976,1.309687,382632,18754
976.763,1.307114,391202,19288
981.806,1.305316,400190,19813
985.583,1.299800,406088,20362
989.355,1.302645,410162,20432
993.124,1.307888,412868,20320
996.888,1.308861,414263,20343
1000.65,1.302869,415476,20686
1004.4,1.306520,415479,20513
1009.41,1.307682,414358,20403
1013.15,1.305898,412923,20416
1016.89,1.303216,411526,20473
1020.63,1.303635,409066,20331
1024.36,1.305318,406777,20139
1028.09,1.305658,404427,20007
1031.82,1.303861,401911,19965
1036.78,1.308739,398410,19570
1040.49,1.308285,396204,19482
1044.2,1.306591,394236,19461
1047.91,1.307730,392042,19302
1051.61,1.309948,389823,19095
1055.31,1.302054,388234,19366
1059,1.307895,387599,19076
1063.92,1.310233,386688,18929
1067.61,1.303642,386598,19214
1071.29,1.306623,387377,19121
1074.96,1.310015,388536,19029
1078.63,1.312470,389855,18986
1082.3,1.309069,391215,19202
1085.96,1.309433,393215,19284
1090.84,1.314170,396270,19223
1094.49,1.310833,398760,19493
1098.14,1.315060,400987,19412
1101.79,1.307686,403477,19867
1105.43,1.304936,406116,20124
1109.06,1.313348,407701,19815
1112.7,1.315071,409859,19841
1117.53,1.316565,412494,19900
1121.15,1.314908,414909,20093
1124.77,1.312266,416559,20296
1128.38,1.317454,418532,20150
1131.99,1.323065,419956,19959
1135.6,1.325924,421946,19922
1139.2,1.314622,423881,20541
1143.99,1.310043,426786,20901
1147.58,1.318772,428617,20573
1151.17,1.320233,431169,20626
1154.75,1.322295,433579,20643
1158.33,1.318752,436264,20941
1161.91,1.317244,439132,21152
1165.48,1.311170,442389,21609
1169.04,1.320687,446101,21318
1173.79,1.314448,451929,21909
1177.34,1.315227,456026,22068
1180.9,1.314401,461306,22366
1184.44,1.311745,467657,22813
1187.99,1.317777,473969,22802
1191.52,1.316147,479856,23172
1195.06,1.319555,487372,23351
1199.76,1.315617,497347,24046
1203.29,1.319404,504311,24171
1206.81,1.318694,511507,24556
1210.33,1.317241,519078,25003
1213.84,1.323241,527163,25044
1217.35,1.327259,534208,25145
1220.85,1.317015,540472,26047
1225.51,1.318637,549929,26404
1229.01,1.317552,556888,26805
1232.5,1.316522,562180,27124
1235.98,1.320831,567975,27133
1239.46,1.319186,574815,27564
1242.94,1.316290,582782,28133
1246.41,1.314964,591476,28640
1251.03,1.319700,604016,28930
1254.5,1.314756,612289,29662
1257.96,1.321633,619125,29522
1261.41,1.327147,624551,29405
1264.86,1.326647,629900,29691
1268.31,1.322750,634345,30170
1271.75,1.326789,638574,30090
1276.33,1.316385,642499,31009
1279.76,1.321829,645905,30785
1283.19,1.325010,648307,30674
1286.61,1.323464,650446,30885
1290.03,1.327042,652132,30711
1293.44,1.326430,653907,30838
1296.85,1.321668,655963,31276
1301.39,1.329316,657349,30795
1304.8,1.326853,657558,30980
1308.19,1.324383,658515,31202
1311.58,1.330149,658804,30804
1314.97,1.327951,659011,30970
1318.36,1.326722,658272,31023
1321.73,1.327468,658022,30958
1326.23,1.329434,657870,30811
1329.6,1.330495,656482,30671
1332.97,1.323599,654926,31088
1336.33,1.322357,653727,31120
1339.69,1.333394,652497,30282
1343.04,1.337315,649913,29891
1346.39,1.326912,647671,30510
1349.73,1.329536,645338,30217
1354.18,1.328237,641175,30112
1357.52,1.328593,638376,29956
1360.85,1.324613,635805,30110
1364.17,1.329487,633413,29662
1367.49,1.323230,631026,29979
1370.81,1.325282,628050,29697
1374.12,1.320494,625034,29882
1378.54,1.325566,620272,29310
1381.84,1.317102,616892,29724
1385.14,1.320597,613613,29329
1388.43,1.327475,611526,28770
1391.72,1.323538,610663,28991
1395.01,1.322441,610634,29063
1398.29,1.327629,611700,28768
1402.66,1.318721,614051,29477
1405.93,1.326459,616268,29061
1409.2,1.330277,617795,28878
1412.46,1.324807,618872,29295
1415.72,1.329431,619795,29028
1418.98,1.329577,620495,29051
1422.23,1.326893,621087,29259
1426.56,1.326412,621375,29305
1429.8,1.327991,621616,29210
1433.04,1.336771,622129,28649
1436.27,1.328151,621526,29195
1439.5,1.327684,621113,29207
1442.72,1.331388,620921,28950
1445.94,1.332872,620270,28821
1450.23,1.327491,618860,29114
1453.44,1.329322,617697,28937
1456.64,1.330691,616264,28779
1459.85,1.330246,614413,28722
1463.04,1.334003,612307,28377
1466.24,1.333351,610032,28314
1469.43,1.328027,607345,28537
1473.67,1.335826,603789,27865
1476.85,1.327660,601175,28271
1480.02,1.334721,597737,27656
1483.19,1.330623,594479,27766
1486.36,1.334642,591232,27360
1489.52,1.327856,587853,27632
1492.68,1.332774,583875,27136
1496.89,1.332400,578062,26889
1500.03,1.335066,574159,26544
1503.18,1.334669,570285,26389
1506.32,1.332913,565444,26271
1509.45,1.333457,560571,26012
1512.58,1.329678,555821,26017
1515.71,1.333532,550344,25533
1519.87,1.331916,543983,25332
1522.99,1.333389,538764,25004
1526.1,1.333768,533692,24747
1529.21,1.330120,527902,24685
1532.32,1.334569,521886,24155
1535.42,1.330863,515888,24082
1538.51,1.335679,509987,23544
1541.6,1.339554,503936,23058
1545.72,1.321425,494694,23600
1548.8,1.332004,488378,22738
1551.88,1.327962,481832,22643
1554.95,1.334064,474989,22010
1558.02,1.333317,467818,21715
1561.08,1.333825,460730,21361
1564.15,1.333884,454170,21054
1568.22,1.337526,444181,20419
1571.27,1.332847,436947,20304
1574.32,1.328830,429598,20148
1577.36,1.328030,422039,19830
1580.4,1.324517,414375,19628
1583.43,1.327508,406354,19116
1586.46,1.323710,398475,18910
1590.49,1.326270,388982,18351
1593.51,1.326382,380708,17956
1596.53,1.319509,372727,17860
1599.54,1.325978,365060,17234
1602.55,1.331601,357543,16662
1605.55,1.320672,349495,16702
1608.55,1.334101,341154,15807
1612.54,1.316498,330877,15965
1615.53,1.321948,322904,15386
1618.51,1.315485,315116,15240
1621.49,1.321726,307217,14646
1624.47,1.320942,299481,14303
1627.44,1.325985,292112,13790
1630.41,1.316750,284245,13707
1634.36,1.322965,274079,13029
1637.32,1.326073,266916,12598
1640.27,1.324596,259612,12295
1643.22,1.318349,251804,12098
1646.16,1.327349,244348,11499
1649.1,1.314602,236703,11471
1652.04,1.304875,228171,11308
1655.95,1.306933,215408,10625
1658.88,1.287176,204937,10579
1661.8,1.276824,193395,10224
1664.72,1.264988,179728,9764
1667.63,1.252284,163642,9154
1670.54,1.232350,146312,8569
1673.44,1.214145,128451,7845
1677.31,1.192023,105080,6753
1680.21,1.183412,88906,5828
1683.1,1.154845,75033,5253
1685.99,1.179661,63520,4200
1688.87,1.198609,53714,3400
1691.75,1.178313,45653,3028
1694.62,1.198486,39137,2478
1697.49,1.133806,33776,2482
1701.31,1.154297,28175,1975