File: ML/samples/unknown/Column 1_078448_20241121_170311.csv
Method:,Column 1,,
Host Date-Time:,21/11/24 @ 17:3:11,,
Header Version:,1,,
System Temp (C):,34.61,,
Detector Temp (C):,33.75,,
Humidity (%):,1.95,,
Lamp PD:,3801,,
Shift Vector Coefficients:,-10.5391,0.0761263,-0.000134223,,
Pixel to Wavelength Coefficients:,1775.68,-0.916766,-0.000235065,,
Serial Number:,5510004,,
Scan Config Name:,Column 1,,
Scan Config Type:,Slew,,
Section 1,,
Start wavelength (nm):,900,,
End wavelength (nm):,1700,,
Pattern Pixel Width (nm):,   7.03,,,,
Exposure (ms):,  0.635,,,,
Digital Resolution:,228,,
Num Repeats:,6,,
PGA Gain:,64,,
Total Measurement Time in sec:,  2.907,,
Wavelength (nm),Absorbance (AU),Reference Signal (unitless),Sample Signal (unitless)
901.51,1.296748,108485,5478
905.376,1.310608,121306,5933
909.237,1.303106,131909,6564
913.095,1.305230,143299,7096
916.948,1.341301,156982,7154
922.079,1.333122,179937,8356
925.923,1.322939,200504,9532
929.762,1.311333,222660,10872
933.597,1.314979,244426,11835
937.427,1.315843,263972,12756
941.254,1.320804,281845,13465
945.076,1.310947,297271,14528
950.165,1.323168,315605,14996
953.978,1.322788,328029,15600
957.786,1.316785,340470,16417
961.59,1.311784,352317,17185
965.389,1.309578,363056,17799
969.185,1.309826,373162,18284
972.976,1.305929,382632,18917
976.763,1.316583,391202,18872
981.806,1.310587,400190,19574
985.583,1.315280,406088,19649
989.355,1.311296,410162,20029
993.124,1.307845,412868,20322
996.888,1.311280,414263,20230
1000.65,1.303058,415476,20677
1004.4,1.305737,415479,20550
1009.41,1.313510,414358,20131
1013.15,1.305664,412923,20427
1016.89,1.317469,411526,19812
1020.63,1.301887,409066,20413
1024.36,1.300963,406777,20342
1028.09,1.310219,404427,19798
1031.82,1.309708,401911,19698
1036.78,1.312238,398410,19413
1040.49,1.318686,396204,19021
1044.2,1.304232,394236,19567
1047.91,1.312800,392042,19078
1051.61,1.310107,389823,19088
1055.31,1.312402,388234,18910
1059,1.318007,387599,18637
1063.92,1.313180,386688,18801
1067.61,1.313726,386598,18773
1071.29,1.311948,387377,18888
1074.96,1.321556,388536,18530
1078.63,1.309711,389855,19107
1082.3,1.308866,391215,19211
1085.96,1.316746,393215,18962
1090.84,1.317003,396270,19098
1094.49,1.309898,398760,19535
1098.14,1.311340,400987,19579
1101.79,1.310296,403477,19748
1105.43,1.309884,406116,19896
1109.06,1.310769,407701,19933
1112.7,1.316408,409859,19780
1117.53,1.317307,412494,19866
1121.15,1.316945,414909,19999
1124.77,1.317974,416559,20031
1128.38,1.316055,418532,20215
1131.99,1.320613,419956,20072
1135.6,1.315861,421946,20389
1139.2,1.320733,423881,20254
1143.99,1.315606,426786,20635
1147.58,1.318877,428617,20568
1151.17,1.320211,431169,20627
1154.75,1.319047,433579,20798
1158.33,1.323611,436264,20708
1161.91,1.320479,439132,20995
1165.48,1.321090,442389,21121
1169.04,1.315885,446101,21555
1173.79,1.312944,451929,21985
1177.34,1.310218,456026,22324
1180.9,1.318694,461306,22146
1184.44,1.327327,467657,22009
1187.99,1.318940,473969,22741
1191.52,1.324130,479856,22750
1195.06,1.316867,487372,23496
1199.76,1.319116,497347,23853
1203.29,1.319817,504311,24148
1206.81,1.320679,511507,24444
1210.33,1.324421,519078,24593
1213.84,1.327686,527163,24789
1217.35,1.329423,534208,25020
1220.85,1.344939,540472,24425
1225.51,1.326487,549929,25931
1229.01,1.327384,556888,26205
1232.5,1.322795,562180,26735
1235.98,1.319665,567975,27206
1239.46,1.324034,574815,27258
1242.94,1.320899,582782,27836
1246.41,1.324438,591476,28022
1251.03,1.325260,604016,28562
1254.5,1.329014,612289,28704
1257.96,1.327080,619125,29154
1261.41,1.329012,624551,29279
1264.86,1.330408,629900,29435
1268.31,1.328912,634345,29745
1271.75,1.328829,638574,29949
1276.33,1.328326,642499,30168
1279.76,1.330766,645905,30158
1283.19,1.326485,648307,30570
1286.61,1.335121,650446,30067
1290.03,1.331862,652132,30372
1293.44,1.326528,653907,30831
1296.85,1.323156,655963,31169
1301.39,1.333211,657349,30520
1304.8,1.333236,657558,30528
1308.19,1.325261,658515,31139
1311.58,1.334015,658804,30531
1314.97,1.327083,659011,31032
1318.36,1.329516,658272,30824
1321.73,1.331753,658022,30654
1326.23,1.330818,657870,30713
1329.6,1.331913,656482,30571
1332.97,1.326360,654926,30891
1336.33,1.331752,653727,30454
1339.69,1.325126,652497,30864
1343.04,1.326170,649913,30668
1346.39,1.328895,647671,30371
1349.73,1.334261,645338,29890
1354.18,1.328078,641175,30123
1357.52,1.332057,638376,29718
1360.85,1.332678,635805,29556
1364.17,1.325900,633413,29908
1367.49,1.332750,631026,29329
1370.81,1.329056,628050,29440
1374.12,1.327231,625034,29422
1378.54,1.327676,620272,29168
1381.84,1.325854,616892,29131
1385.14,1.325122,613613,29025
1388.43,1.327113,611526,28794
1391.72,1.331155,610663,28487
1395.01,1.326630,610634,28784
1398.29,1.323482,611700,29044
1402.66,1.324864,614051,29063
1405.93,1.328406,616268,28931
1409.2,1.332796,617795,28711
1412.46,1.330928,618872,28885
1415.72,1.327654,619795,29147
1418.98,1.334599,620495,28717
1422.23,1.333458,621087,28820
1426.56,1.335048,621375,28728
1429.8,1.334296,621616,28789
1433.04,1.329063,622129,29162
1436.27,1.333374,621526,28846
1439.5,1.333160,621113,28841
1442.72,1.330938,620921,28980
1445.94,1.336215,620270,28600
1450.23,1.332125,618860,28805
1453.44,1.331458,617697,28795
1456.64,1.334648,616264,28518
1459.85,1.333220,614413,28526
1463.04,1.334110,612307,28370
1466.24,1.332356,610032,28379
1469.43,1.337629,607345,27913
1473.67,1.335499,603789,27886
1476.85,1.329075,601175,28179
1480.02,1.331950,597737,27833
1483.19,1.338133,594479,27290
1486.36,1.331085,591232,27585
1489.52,1.348224,587853,26366
1492.68,1.339532,583875,26717
1496.89,1.333597,578062,26815
1500.03,1.339787,574159,26257
1503.18,1.338820,570285,26138
1506.32,1.339358,565444,25884
1509.45,1.338275,560571,25725
1512.58,1.333500,555821,25789
1515.71,1.340424,550344,25131
1519.87,1.338497,543983,24951
1522.99,1.342215,538764,24501
1526.1,1.339367,533692,24430
1529.21,1.343248,527902,23950
1532.32,1.341967,521886,23747
1535.42,1.336764,515888,23757
1538.51,1.334831,509987,23590
1541.6,1.328967,503936,23627
1545.72,1.333327,494694,22962
1548.8,1.335494,488378,22556
1551.88,1.340611,481832,21993
1554.95,1.340284,474989,21697
1558.02,1.335040,467818,21629
1561.08,1.343217,460730,20904
1564.15,1.332957,454170,21099
1568.22,1.340235,444181,20292
1571.27,1.335766,436947,20168
1574.32,1.336507,429598,19795
1577.36,1.328556,422039,19806
1580.4,1.329525,414375,19403
1583.43,1.342438,406354,18470
1586.46,1.332081,398475,18549
1590.49,1.336640,388982,17918
1593.51,1.333331,380708,17671
1596.53,1.330093,372727,17430
1599.54,1.336719,365060,16813
1602.55,1.328097,357543,16797
1605.55,1.328279,349495,16412
1608.55,1.325720,341154,16115
1612.54,1.325402,330877,15641
1615.53,1.323248,322904,15340
1618.51,1.329796,315116,14746
1621.49,1.330775,307217,14344
1624.47,1.324540,299481,14185
1627.44,1.328164,292112,13721
1630.41,1.320889,284245,13577
1634.36,1.329920,274079,12822
1637.32,1.312131,266916,13009
1640.27,1.328428,259612,12187
1643.22,1.320256,251804,12045
1646.16,1.316790,244348,11782
1649.1,1.309633,236703,11603
1652.04,1.311843,228171,11128
1655.95,1.301086,215408,10769
1658.88,1.308763,204937,10066
1661.8,1.287315,193395,9980
1664.72,1.279552,179728,9442
1667.63,1.254090,163642,9116
1670.54,1.240897,146312,8402
1673.44,1.217256,128451,7789
1677.31,1.225362,105080,6254
1680.21,1.175950,88906,5929
1683.1,1.208173,75033,4646
1685.99,1.188541,63520,4115
1688.87,1.185647,53714,3503
1691.75,1.127735,45653,3402
1694.62,1.114310,39137,3008
1697.49,1.219830,33776,2036
1701.31,1.214841,28175,1718