File: ML/samples/unknown/Column 1_078416_20241121_170136.csv
Method:,Column 1,,
Host Date-Time:,21/11/24 @ 17:1:36,,
Header Version:,1,,
System Temp (C):,34.75,,
Detector Temp (C):,33.72,,
Humidity (%):,2.16,,
Lamp PD:,3801,,
Shift Vector Coefficients:,-10.5391,0.0761263,-0.000134223,,
Pixel to Wavelength Coefficients:,1775.68,-0.916766,-0.000235065,,
Serial Number:,5510004,,
Scan Config Name:,Column 1,,
Scan Config Type:,Slew,,
Section 1,,
Start wavelength (nm):,900,,
End wavelength (nm):,1700,,
Pattern Pixel Width (nm):,   7.03,,,,
Exposure (ms):,  0.635,,,,
Digital Resolution:,228,,
Num Repeats:,6,,
PGA Gain:,64,,
Total Measurement Time in sec:,  2.724,,
Wavelength (nm),Absorbance (AU),Reference Signal (unitless),Sample Signal (unitless)
901.51,1.301451,108485,5419
905.376,1.339198,121306,5555
909.237,1.303106,131909,6564
913.095,1.322841,143299,6814
916.948,1.299820,156982,7871
922.079,1.343484,179937,8159
925.923,1.308510,200504,9854
929.762,1.309380,222660,10921
933.597,1.316265,244426,11800
937.427,1.328978,263972,12376
941.254,1.322225,281845,13421
945.076,1.310917,297271,14529
950.165,1.317929,315605,15178
953.978,1.313397,328029,15941
957.786,1.313019,340470,16560
961.59,1.314217,352317,17089
965.389,1.317954,363056,17459
969.185,1.308901,373162,18323
972.976,1.308554,382632,18803
976.763,1.308987,391202,19205
981.806,1.309103,400190,19641
985.583,1.303333,406088,20197
989.355,1.305609,410162,20293
993.124,1.299275,412868,20727
996.888,1.303177,414263,20611
1000.65,1.303626,415476,20650
1004.4,1.305991,415479,20538
1009.41,1.302014,414358,20671
1013.15,1.306771,412923,20375
1016.89,1.305556,411526,20363
1020.63,1.307885,409066,20133
1024.36,1.314075,406777,19737
1028.09,1.310307,404427,19794
1031.82,1.303969,401911,19960
1036.78,1.303797,398410,19794
1040.49,1.301276,396204,19799
1044.2,1.311732,394236,19232
1047.91,1.298888,392042,19699
1051.61,1.309221,389823,19127
1055.31,1.311393,388234,18954
1059,1.310361,387599,18968
1063.92,1.312718,386688,18821
1067.61,1.310086,386598,18931
1071.29,1.324356,387377,18356
1074.96,1.306651,388536,19177
1078.63,1.311578,389855,19025
1082.3,1.312794,391215,19038
1085.96,1.317847,393215,18914
1090.84,1.309474,396270,19432
1094.49,1.314839,398760,19314
1098.14,1.312717,400987,19517
1101.79,1.322359,403477,19207
1105.43,1.309993,406116,19891
1109.06,1.318906,407701,19563
1112.7,1.323224,409859,19472
1117.53,1.315061,412494,19969
1121.15,1.317205,414909,19987
1124.77,1.321107,416559,19887
1128.38,1.312759,418532,20369
1131.99,1.321393,419956,20036
1135.6,1.307006,421946,20809
1139.2,1.320905,423881,20246
1143.99,1.328182,426786,20046
1147.58,1.316351,428617,20688
1151.17,1.318950,431169,20687
1154.75,1.312354,433579,21121
1158.33,1.311431,436264,21297
1161.91,1.322761,439132,20885
1165.48,1.322593,442389,21048
1169.04,1.308593,446101,21920
1173.79,1.320436,451929,21609
1177.34,1.310159,456026,22327
1180.9,1.318517,461306,22155
1184.44,1.310661,467657,22870
1187.99,1.311950,473969,23110
1191.52,1.318026,479856,23072
1195.06,1.317959,487372,23437
1199.76,1.320996,497347,23750
1203.29,1.315950,504311,24364
1206.81,1.320413,511507,24459
1210.33,1.316321,519078,25056
1213.84,1.324770,527163,24956
1217.35,1.322381,534208,25429
1220.85,1.321575,540472,25775
1225.51,1.322636,549929,26162
1229.01,1.323063,556888,26467
1232.5,1.323364,562180,26700
1235.98,1.317658,567975,27332
1239.46,1.322079,574815,27381
1242.94,1.324928,582782,27579
1246.41,1.323586,591476,28077
1251.03,1.321958,604016,28780
1254.5,1.329999,612289,28639
1257.96,1.325311,619125,29273
1261.41,1.327767,624551,29363
1264.86,1.324269,629900,29854
1268.31,1.328795,634345,29753
1271.75,1.321724,638574,30443
1276.33,1.328787,642499,30136
1279.76,1.328554,645905,30312
1283.19,1.324232,648307,30729
1286.61,1.329111,650446,30486
1290.03,1.325235,652132,30839
1293.44,1.326557,653907,30829
1296.85,1.334349,655963,30376
1301.39,1.330064,657349,30742
1304.8,1.335289,657558,30384
1308.19,1.326015,658515,31085
1311.58,1.331363,658804,30718
1314.97,1.322974,659011,31327
1318.36,1.329474,658272,30827
1321.73,1.327622,658022,30947
1326.23,1.333499,657870,30524
1329.6,1.333964,656482,30427
1332.97,1.335323,654926,30260
1336.33,1.333409,653727,30338
1339.69,1.326635,652497,30757
1343.04,1.323755,649913,30839
1346.39,1.323566,647671,30746
1349.73,1.336344,645338,29747
1354.18,1.330232,641175,29974
1357.52,1.327854,638376,30007
1360.85,1.325451,635805,30052
1364.17,1.323438,633413,30078
1367.49,1.325904,631026,29795
1370.81,1.327996,628050,29512
1374.12,1.327335,625034,29415
1378.54,1.325048,620272,29345
1381.84,1.336723,616892,28411
1385.14,1.331195,613613,28622
1388.43,1.327143,611526,28792
1391.72,1.326183,610663,28815
1395.01,1.322889,610634,29033
1398.29,1.324680,611700,28964
1402.66,1.329793,614051,28735
1405.93,1.329428,616268,28863
1409.2,1.332599,617795,28724
1412.46,1.335144,618872,28606
1415.72,1.334336,619795,28702
1418.98,1.325101,620495,29352
1422.23,1.329722,621087,29069
1426.56,1.326294,621375,29313
1429.8,1.323421,621616,29519
1433.04,1.328245,622129,29217
1436.27,1.331946,621526,28941
1439.5,1.335274,621113,28701
1442.72,1.323509,620921,29480
1445.94,1.335108,620270,28673
1450.23,1.337816,618860,28430
1453.44,1.331881,617697,28767
1456.64,1.335166,616264,28484
1459.85,1.331730,614413,28624
1463.04,1.327894,612307,28779
1466.24,1.330279,610032,28515
1469.43,1.335147,607345,28073
1473.67,1.337122,603789,27782
1476.85,1.333817,601175,27873
1480.02,1.334375,597737,27678
1483.19,1.325647,594479,28086
1486.36,1.337812,591232,27161
1489.52,1.342530,587853,26714
1492.68,1.339906,583875,26694
1496.89,1.329422,578062,27074
1500.03,1.338400,574159,26341
1503.18,1.339285,570285,26110
1506.32,1.342169,565444,25717
1509.45,1.329319,560571,26261
1512.58,1.337425,555821,25557
1515.71,1.337325,550344,25311
1519.87,1.331196,543983,25374
1522.99,1.342339,538764,24494
1526.1,1.340613,533692,24360
1529.21,1.342071,527902,24015
1532.32,1.337908,521886,23970
1535.42,1.333595,515888,23931
1538.51,1.333287,509987,23674
1541.6,1.338575,503936,23110
1545.72,1.331082,494694,23081
1548.8,1.344344,488378,22101
1551.88,1.335097,481832,22274
1554.95,1.324405,474989,22505
1558.02,1.341290,467818,21320
1561.08,1.328009,460730,21649
1564.15,1.338571,454170,20828
1568.22,1.345207,444181,20061
1571.27,1.333939,436947,20253
1574.32,1.331924,429598,20005
1577.36,1.335162,422039,19507
1580.4,1.325936,414375,19564
1583.43,1.327939,406354,19097
1586.46,1.327145,398475,18761
1590.49,1.333524,388982,18047
1593.51,1.336538,380708,17541
1596.53,1.336292,372727,17183
1599.54,1.326558,365060,17211
1602.55,1.324825,357543,16924
1605.55,1.315092,349495,16918
1608.55,1.328234,341154,16022
1612.54,1.322689,330877,15739
1615.53,1.330010,322904,15103
1618.51,1.321107,315116,15044
1621.49,1.318359,307217,14760
1624.47,1.327397,299481,14092
1627.44,1.320291,292112,13972
1630.41,1.304874,284245,14087
1634.36,1.319413,274079,13136
1637.32,1.320422,266916,12763
1640.27,1.310795,259612,12692
1643.22,1.319823,251804,12057
1646.16,1.309915,244348,11970
1649.1,1.322241,236703,11271
1652.04,1.304606,228171,11315
1655.95,1.293729,215408,10953
1658.88,1.282846,204937,10685
1661.8,1.290415,193395,9909
1664.72,1.264988,179728,9764
1667.63,1.260812,163642,8976
1670.54,1.231995,146312,8576
1673.44,1.219716,128451,7745
1677.31,1.210616,105080,6470
1680.21,1.172012,88906,5983
1683.1,1.177152,75033,4990
1685.99,1.152117,63520,4475
1688.87,1.157913,53714,3734
1691.75,1.207529,45653,2831
1694.62,1.185707,39137,2552
1697.49,1.144434,33776,2422
1701.31,1.215853,28175,1714