File: ML/samples/unknown/Column 1_078156_20241121_164813.csv
Method:,Column 1,,
Host Date-Time:,21/11/24 @ 16:48:13,,
Header Version:,1,,
System Temp (C):,33.31,,
Detector Temp (C):,29.41,,
Humidity (%):,3.22,,
Lamp PD:,3805,,
Shift Vector Coefficients:,-10.5391,0.0761263,-0.000134223,,
Pixel to Wavelength Coefficients:,1775.68,-0.916766,-0.000235065,,
Serial Number:,5510004,,
Scan Config Name:,Column 1,,
Scan Config Type:,Slew,,
Section 1,,
Start wavelength (nm):,900,,
End wavelength (nm):,1700,,
Pattern Pixel Width (nm):,   7.03,,,,
Exposure (ms):,  0.635,,,,
Digital Resolution:,228,,
Num Repeats:,6,,
PGA Gain:,64,,
Total Measurement Time in sec:,  2.729,,
Wavelength (nm),Absorbance (AU),Reference Signal (unitless),Sample Signal (unitless)
901.51,1.317200,108485,5226
905.376,1.326259,121306,5723
909.237,1.308699,131909,6480
913.095,1.352649,143299,6362
916.948,1.319401,156982,7524
922.079,1.333018,179937,8358
925.923,1.312095,200504,9773
929.762,1.329191,222660,10434
933.597,1.326582,244426,11523
937.427,1.314144,263972,12806
941.254,1.323197,281845,13391
945.076,1.321721,297271,14172
950.165,1.312922,315605,15354
953.978,1.322287,328029,15618
957.786,1.316917,340470,16412
961.59,1.320437,352317,16846
965.389,1.306975,363056,17906
969.185,1.315541,373162,18045
972.976,1.316408,382632,18466
976.763,1.316882,391202,18859
981.806,1.317475,400190,19266
985.583,1.312833,406088,19760
989.355,1.311340,410162,20027
993.124,1.309622,412868,20239
996.888,1.309181,414263,20328
1000.65,1.312958,415476,20211
1004.4,1.312489,415479,20233
1009.41,1.301049,414358,20717
1013.15,1.308972,412923,20272
1016.89,1.313237,411526,20006
1020.63,1.307518,409066,20150
1024.36,1.313240,406777,19775
1028.09,1.317809,404427,19455
1031.82,1.312206,401911,19585
1036.78,1.317278,398410,19189
1040.49,1.316954,396204,19097
1044.2,1.309030,394236,19352
1047.91,1.318828,392042,18815
1051.61,1.309993,389823,19093
1055.31,1.316602,388234,18728
1059,1.324014,387599,18381
1063.92,1.315984,386688,18680
1067.61,1.315743,386598,18686
1071.29,1.321267,387377,18487
1074.96,1.314373,388536,18839
1078.63,1.322911,389855,18535
1082.3,1.319113,391215,18763
1085.96,1.319711,393215,18833
1090.84,1.315618,396270,19159
1094.49,1.321227,398760,19032
1098.14,1.315194,400987,19406
1101.79,1.314517,403477,19557
1105.43,1.321207,406116,19384
1109.06,1.317532,407701,19625
1112.7,1.321866,409859,19533
1117.53,1.319499,412494,19766
1121.15,1.318555,414909,19925
1124.77,1.330288,416559,19471
1128.38,1.315261,418532,20252
1131.99,1.321414,419956,20035
1135.6,1.327934,421946,19830
1139.2,1.320048,423881,20286
1143.99,1.326366,426786,20130
1147.58,1.329198,428617,20085
1151.17,1.333683,431169,19997
1154.75,1.322969,433579,20611
1158.33,1.322355,436264,20768
1161.91,1.315543,439132,21235
1165.48,1.330212,442389,20682
1169.04,1.314156,446101,21641
1173.79,1.314249,451929,21919
1177.34,1.316113,456026,22023
1180.9,1.320265,461306,22066
1184.44,1.322305,467657,22265
1187.99,1.319284,473969,22723
1191.52,1.316447,479856,23156
1195.06,1.322747,487372,23180
1199.76,1.321343,497347,23731
1203.29,1.323212,504311,23960
1206.81,1.324606,511507,24224
1210.33,1.322641,519078,24694
1213.84,1.323901,527163,25006
1217.35,1.331127,534208,24922
1220.85,1.327290,540472,25438
1225.51,1.326102,549929,25954
1229.01,1.329743,556888,26063
1232.5,1.324260,562180,26645
1235.98,1.323513,567975,26966
1239.46,1.321809,574815,27398
1242.94,1.324928,582782,27579
1246.41,1.324857,591476,27995
1251.03,1.324106,604016,28638
1254.5,1.326660,612289,28860
1257.96,1.327408,619125,29132
1261.41,1.325687,624551,29504
1264.86,1.326398,629900,29708
1268.31,1.327090,634345,29870
1271.75,1.324199,638574,30270
1276.33,1.329826,642499,30064
1279.76,1.326981,645905,30422
1283.19,1.329164,648307,30382
1286.61,1.329638,650446,30449
1290.03,1.331091,652132,30426
1293.44,1.336243,653907,30149
1296.85,1.327483,655963,30860
1301.39,1.331040,657349,30673
1304.8,1.326839,657558,30981
1308.19,1.335521,658515,30412
1311.58,1.335255,658804,30444
1314.97,1.329187,659011,30882
1318.36,1.328180,658272,30919
1321.73,1.328802,658022,30863
1326.23,1.331710,657870,30650
1329.6,1.336268,656482,30266
1332.97,1.336157,654926,30202
1336.33,1.334025,653727,30295
1339.69,1.331177,652497,30437
1343.04,1.337199,649913,29899
1346.39,1.334161,647671,30005
1349.73,1.332463,645338,30014
1354.18,1.331436,641175,29891
1357.52,1.330103,638376,29852
1360.85,1.333193,635805,29521
1364.17,1.331777,633413,29506
1367.49,1.335886,631026,29118
1370.81,1.335536,628050,29004
1374.12,1.327615,625034,29396
1378.54,1.329287,620272,29060
1381.84,1.328651,616892,28944
1385.14,1.325766,613613,28982
1388.43,1.334107,611526,28334
1391.72,1.332055,610663,28428
1395.01,1.330494,610634,28529
1398.29,1.319893,611700,29285
1402.66,1.333710,614051,28477
1405.93,1.332418,616268,28665
1409.2,1.334235,617795,28616
1412.46,1.330628,618872,28905
1415.72,1.335973,619795,28594
1418.98,1.333542,620495,28787
1422.23,1.336195,621087,28639
1426.56,1.334761,621375,28747
1429.8,1.339745,621616,28430
1433.04,1.334850,622129,28776
1436.27,1.335759,621526,28688
1439.5,1.331012,621113,28984
1442.72,1.337917,620921,28518
1445.94,1.336017,620270,28613
1450.23,1.336793,618860,28497
1453.44,1.337794,617697,28378
1456.64,1.339780,616264,28183
1459.85,1.344275,614413,27809
1463.04,1.336936,612307,28186
1466.24,1.335104,610032,28200
1469.43,1.340752,607345,27713
1473.67,1.340874,603789,27543
1476.85,1.336349,601175,27711
1480.02,1.335947,597737,27578
1483.19,1.342660,594479,27007
1486.36,1.335118,591232,27330
1489.52,1.337150,587853,27047
1492.68,1.338072,583875,26807
1496.89,1.343541,578062,26208
1500.03,1.336623,574159,26449
1503.18,1.344809,570285,25780
1506.32,1.338336,565444,25945
1509.45,1.343148,560571,25438
1512.58,1.339401,555821,25441
1515.71,1.340165,550344,25146
1519.87,1.346526,543983,24494
1522.99,1.342002,538764,24513
1526.1,1.339474,533692,24424
1529.21,1.345593,527902,23821
1532.32,1.338325,521886,23947
1535.42,1.337789,515888,23701
1538.51,1.340464,509987,23286
1541.6,1.332325,503936,23445
1545.72,1.336783,494694,22780
1548.8,1.345623,488378,22036
1551.88,1.339133,481832,22068
1554.95,1.343136,474989,21555
1558.02,1.342657,467818,21253
1561.08,1.343259,460730,20902
1564.15,1.343119,454170,20611
1568.22,1.343371,444181,20146
1571.27,1.344774,436947,19754
1574.32,1.344768,429598,19422
1577.36,1.344478,422039,19093
1580.4,1.338983,414375,18985
1583.43,1.335440,406354,18770
1586.46,1.332362,398475,18537
1590.49,1.332635,388982,18084
1593.51,1.342170,380708,17315
1596.53,1.333345,372727,17300
1599.54,1.329394,365060,17099
1602.55,1.342689,357543,16242
1605.55,1.332561,349495,16251
1608.55,1.323435,341154,16200
1612.54,1.339512,330877,15141
1615.53,1.330010,322904,15103
1618.51,1.324033,315116,14943
1621.49,1.330109,307217,14366
1624.47,1.322737,299481,14244
1627.44,1.324288,292112,13844
1630.41,1.322395,284245,13530
1634.36,1.331651,274079,12771
1637.32,1.327143,266916,12567
1640.27,1.318632,259612,12465
1643.22,1.335595,251804,11627
1646.16,1.330647,244348,11412
1649.1,1.315626,236703,11444
1652.04,1.317381,228171,10987
1655.95,1.314187,215408,10449
1658.88,1.291011,204937,10486
1661.8,1.299853,193395,9696
1664.72,1.295479,179728,9102
1667.63,1.293250,163642,8330
1670.54,1.285038,146312,7590
1673.44,1.290512,128451,6580
1677.31,1.269164,105080,5654
1680.21,1.253449,88906,4960
1683.1,1.244621,75033,4272
1685.99,1.277995,63520,3349
1688.87,1.301143,53714,2685
1691.75,1.257724,45653,2522
1694.62,1.273273,39137,2086
1697.49,1.255144,33776,1877
1701.31,1.407682,28175,1102