File: ML/samples/unknown/Column 1_078688_20241121_171723.csv
Method:,Column 1,,
Host Date-Time:,21/11/24 @ 17:17:23,,
Header Version:,1,,
System Temp (C):,34.72,,
Detector Temp (C):,34.74,,
Humidity (%):,1.56,,
Lamp PD:,3801,,
Shift Vector Coefficients:,-10.5391,0.0761263,-0.000134223,,
Pixel to Wavelength Coefficients:,1775.68,-0.916766,-0.000235065,,
Serial Number:,5510004,,
Scan Config Name:,Column 1,,
Scan Config Type:,Slew,,
Section 1,,
Start wavelength (nm):,900,,
End wavelength (nm):,1700,,
Pattern Pixel Width (nm):,   7.03,,,,
Exposure (ms):,  0.635,,,,
Digital Resolution:,228,,
Num Repeats:,6,,
PGA Gain:,64,,
Total Measurement Time in sec:,  2.726,,
Wavelength (nm),Absorbance (AU),Reference Signal (unitless),Sample Signal (unitless)
901.51,1.310521,108485,5307
905.376,1.304719,121306,6014
909.237,1.301653,131909,6586
913.095,1.313884,143299,6956
916.948,1.303477,156982,7805
922.079,1.309652,179937,8820
925.923,1.332335,200504,9328
929.762,1.325833,222660,10515
933.597,1.314356,244426,11852
937.427,1.309489,263972,12944
941.254,1.313480,281845,13694
945.076,1.311635,297271,14505
950.165,1.304158,315605,15667
953.978,1.313179,328029,15949
957.786,1.317288,340470,16398
961.59,1.301668,352317,17590
965.389,1.305595,363056,17963
969.185,1.312614,373162,18167
972.976,1.300159,382632,19170
976.763,1.313076,391202,19025
981.806,1.300607,400190,20029
985.583,1.293826,406088,20644
989.355,1.310235,410162,20078
993.124,1.291611,412868,21096
996.888,1.304507,414263,20548
1000.65,1.297714,415476,20933
1004.4,1.317020,415479,20023
1009.41,1.307192,414358,20426
1013.15,1.306708,412923,20378
1016.89,1.307736,411526,20261
1020.63,1.309181,409066,20073
1024.36,1.304500,406777,20177
1028.09,1.314850,404427,19588
1031.82,1.301107,401911,20092
1036.78,1.303051,398410,19828
1040.49,1.299634,396204,19874
1044.2,1.306011,394236,19487
1047.91,1.305777,392042,19389
1051.61,1.301903,389823,19452
1055.31,1.302547,388234,19344
1059,1.310407,387599,18966
1063.92,1.313549,386688,18785
1067.61,1.314305,386598,18748
1071.29,1.307692,387377,19074
1074.96,1.306447,388536,19186
1078.63,1.312150,389855,19000
1082.3,1.318558,391215,18787
1085.96,1.319134,393215,18858
1090.84,1.308648,396270,19469
1094.49,1.310388,398760,19513
1098.14,1.314590,400987,19433
1101.79,1.307927,403477,19856
1105.43,1.316394,406116,19600
1109.06,1.307254,407701,20095
1112.7,1.313323,409859,19921
1117.53,1.312178,412494,20102
1121.15,1.314282,414909,20122
1124.77,1.314089,416559,20211
1128.38,1.311801,418532,20414
1131.99,1.313020,419956,20426
1135.6,1.311790,421946,20581
1139.2,1.311882,423881,20671
1143.99,1.316069,426786,20613
1147.58,1.316981,428617,20658
1151.17,1.322957,431169,20497
1154.75,1.317275,433579,20883
1158.33,1.315549,436264,21096
1161.91,1.315706,439132,21227
1165.48,1.313669,442389,21485
1169.04,1.315261,446101,21586
1173.79,1.298566,451929,22725
1177.34,1.315877,456026,22035
1180.9,1.312405,461306,22469
1184.44,1.317803,467657,22497
1187.99,1.310693,473969,23177
1191.52,1.313531,479856,23312
1195.06,1.324343,487372,23095
1199.76,1.312557,497347,24216
1203.29,1.317360,504311,24285
1206.81,1.319491,511507,24511
1210.33,1.315853,519078,25083
1213.84,1.316308,527163,25447
1217.35,1.322723,534208,25409
1220.85,1.318820,540472,25939
1225.51,1.318752,549929,26397
1229.01,1.319208,556888,26703
1232.5,1.317403,562180,27069
1235.98,1.319026,567975,27246
1239.46,1.315265,574815,27814
1242.94,1.316244,582782,28136
1246.41,1.319859,591476,28319
1251.03,1.315383,604016,29219
1254.5,1.319733,612289,29324
1257.96,1.317154,619125,29828
1261.41,1.323324,624551,29665
1264.86,1.318173,629900,30276
1268.31,1.325885,634345,29953
1271.75,1.322466,638574,30391
1276.33,1.318111,642499,30886
1279.76,1.323412,645905,30673
1283.19,1.320447,648307,30998
1286.61,1.324562,650446,30807
1290.03,1.321226,652132,31125
1293.44,1.326768,653907,30814
1296.85,1.327652,655963,30848
1301.39,1.330078,657349,30741
1304.8,1.321309,657558,31378
1308.19,1.328706,658515,30893
1311.58,1.327647,658804,30982
1314.97,1.327727,659011,30986
1318.36,1.326190,658272,31061
1321.73,1.333542,658022,30528
1326.23,1.331285,657870,30680
1329.6,1.323026,656482,31203
1332.97,1.327839,654926,30786
1336.33,1.328513,653727,30682
1339.69,1.329113,652497,30582
1343.04,1.327176,649913,30597
1346.39,1.323283,647671,30766
1349.73,1.323300,645338,30654
1354.18,1.325262,641175,30319
1357.52,1.326438,638376,30105
1360.85,1.325191,635805,30070
1364.17,1.324624,633413,29996
1367.49,1.320890,631026,30141
1370.81,1.324172,628050,29773
1374.12,1.328917,625034,29308
1378.54,1.322245,620272,29535
1381.84,1.326839,616892,29065
1385.14,1.323330,613613,29145
1388.43,1.325592,611526,28895
1391.72,1.323134,610663,29018
1395.01,1.323338,610634,29003
1398.29,1.325716,611700,28895
1402.66,1.317912,614051,29532
1405.93,1.327087,616268,29019
1409.2,1.326757,617795,29113
1412.46,1.324570,618872,29311
1415.72,1.325751,619795,29275
1418.98,1.328338,620495,29134
1422.23,1.322375,621087,29565
1426.56,1.330567,621375,29026
1429.8,1.327916,621616,29215
1433.04,1.325725,622129,29387
1436.27,1.327066,621526,29268
1439.5,1.333808,621113,28798
1442.72,1.327832,620921,29188
1445.94,1.328867,620270,29088
1450.23,1.326210,618860,29200
1453.44,1.328557,617697,28988
1456.64,1.336831,616264,28375
1459.85,1.330957,614413,28675
1463.04,1.331120,612307,28566
1466.24,1.324620,610032,28889
1469.43,1.331526,607345,28308
1473.67,1.338688,603789,27682
1476.85,1.329553,601175,28148
1480.02,1.327943,597737,28091
1483.19,1.333432,594479,27587
1486.36,1.332662,591232,27485
1489.52,1.335035,587853,27179
1492.68,1.333511,583875,27090
1496.89,1.330997,578062,26976
1500.03,1.341926,574159,26128
1503.18,1.328752,570285,26751
1506.32,1.333641,565444,26227
1509.45,1.329568,560571,26246
1512.58,1.332105,555821,25872
1515.71,1.329705,550344,25759
1519.87,1.333410,543983,25245
1522.99,1.323091,538764,25604
1526.1,1.333487,533692,24763
1529.21,1.328049,527902,24803
1532.32,1.330221,521886,24398
1535.42,1.326913,515888,24302
1538.51,1.326462,509987,24049
1541.6,1.332640,503936,23428
1545.72,1.331911,494694,23037
1548.8,1.330878,488378,22797
1551.88,1.332454,481832,22410
1554.95,1.334044,474989,22011
1558.02,1.318242,467818,22482
1561.08,1.325648,460730,21767
1564.15,1.323248,454170,21576
1568.22,1.325341,444181,21000
1571.27,1.321969,436947,20819
1574.32,1.322688,429598,20435
1577.36,1.339525,422039,19312
1580.4,1.333392,414375,19231
1583.43,1.335903,406354,18750
1586.46,1.325735,398475,18822
1590.49,1.327336,388982,18306
1593.51,1.323009,380708,18096
1596.53,1.319607,372727,17856
1599.54,1.334632,365060,16894
1602.55,1.327967,357543,16802
1605.55,1.317486,349495,16825
1608.55,1.322124,341154,16249
1612.54,1.314489,330877,16039
1615.53,1.313174,322904,15700
1618.51,1.322379,315116,15000
1621.49,1.317184,307217,14800
1624.47,1.318278,299481,14391
1627.44,1.317935,292112,14048
1630.41,1.323874,284245,13484
1634.36,1.319115,274079,13145
1637.32,1.321273,266916,12738
1640.27,1.305557,259612,12846
1643.22,1.290843,251804,12889
1646.16,1.333357,244348,11341
1649.1,1.314489,236703,11474
1652.04,1.317856,228171,10975
1655.95,1.285403,215408,11165
1658.88,1.286437,204937,10597
1661.8,1.275891,193395,10246
1664.72,1.280980,179728,9411
1667.63,1.252664,163642,9146
1670.54,1.217503,146312,8867
1673.44,1.208097,128451,7955
1677.31,1.185893,105080,6849
1680.21,1.168254,88906,6035
1683.1,1.163024,75033,5155
1685.99,1.140814,63520,4593
1688.87,1.157100,53714,3741
1691.75,1.150670,45653,3227
1694.62,1.118080,39137,2982
1697.49,1.106347,33776,2644
1701.31,1.216614,28175,1711