File: ML/samples/unknown/Column 1_078784_20241121_172201.csv
Method:,Column 1,,
Host Date-Time:,21/11/24 @ 17:22:1,,
Header Version:,1,,
System Temp (C):,36.64,,
Detector Temp (C):,35.17,,
Humidity (%):,0.83,,
Lamp PD:,3797,,
Shift Vector Coefficients:,-10.5391,0.0761263,-0.000134223,,
Pixel to Wavelength Coefficients:,1775.68,-0.916766,-0.000235065,,
Serial Number:,5510004,,
Scan Config Name:,Column 1,,
Scan Config Type:,Slew,,
Section 1,,
Start wavelength (nm):,900,,
End wavelength (nm):,1700,,
Pattern Pixel Width (nm):,   7.03,,,,
Exposure (ms):,  0.635,,,,
Digital Resolution:,228,,
Num Repeats:,6,,
PGA Gain:,64,,
Total Measurement Time in sec:,  2.724,,
Wavelength (nm),Absorbance (AU),Reference Signal (unitless),Sample Signal (unitless)
901.51,1.327885,108485,5099
905.376,1.347884,121306,5445
909.237,1.306093,131909,6519
913.095,1.319729,143299,6863
916.948,1.306941,156982,7743
922.079,1.334736,179937,8325
925.923,1.337439,200504,9219
929.762,1.334468,222660,10308
933.597,1.322568,244426,11630
937.427,1.320086,263972,12632
941.254,1.324074,281845,13364
945.076,1.320253,297271,14220
950.165,1.309513,315605,15475
953.978,1.315445,328029,15866
957.786,1.310586,340470,16653
961.59,1.322245,352317,16776
965.389,1.314732,363056,17589
969.185,1.307954,373162,18363
972.976,1.306802,382632,18879
976.763,1.305316,391202,19368
981.806,1.306194,400190,19773
985.583,1.303011,406088,20212
989.355,1.315064,410162,19856
993.124,1.314412,412868,20017
996.888,1.309502,414263,20313
1000.65,1.303416,415476,20660
1004.4,1.307643,415479,20460
1009.41,1.301657,414358,20688
1013.15,1.305197,412923,20449
1016.89,1.302771,411526,20494
1020.63,1.316512,409066,19737
1024.36,1.306744,406777,20073
1028.09,1.309058,404427,19851
1031.82,1.305823,401911,19875
1036.78,1.305335,398410,19724
1040.49,1.306084,396204,19581
1044.2,1.309929,394236,19312
1047.91,1.310144,392042,19195
1051.61,1.310608,389823,19066
1055.31,1.307856,388234,19109
1059,1.309629,387599,19000
1063.92,1.309958,386688,18941
1067.61,1.311327,386598,18877
1071.29,1.305761,387377,19159
1074.96,1.312395,388536,18925
1078.63,1.307127,389855,19221
1082.3,1.319298,391215,18755
1085.96,1.319157,393215,18857
1090.84,1.315120,396270,19181
1094.49,1.316868,398760,19224
1098.14,1.297585,400987,20209
1101.79,1.313651,403477,19596
1105.43,1.311459,406116,19824
1109.06,1.312778,407701,19841
1112.7,1.319338,409859,19647
1117.53,1.307494,412494,20320
1121.15,1.318141,414909,19944
1124.77,1.320235,416559,19927
1128.38,1.314297,418532,20297
1131.99,1.320332,419956,20085
1135.6,1.307611,421946,20780
1139.2,1.321506,423881,20218
1143.99,1.322222,426786,20323
1147.58,1.319638,428617,20532
1151.17,1.321033,431169,20588
1154.75,1.310876,433579,21193
1158.33,1.314644,436264,21140
1161.91,1.315522,439132,21236
1165.48,1.313750,442389,21481
1169.04,1.312493,446101,21724
1173.79,1.320415,451929,21610
1177.34,1.306614,456026,22510
1180.9,1.314013,461306,22386
1184.44,1.313443,467657,22724
1187.99,1.323664,473969,22495
1191.52,1.324722,479856,22719
1195.06,1.317773,487372,23447
1199.76,1.320064,497347,23801
1203.29,1.322469,504311,24001
1206.81,1.325377,511507,24181
1210.33,1.320851,519078,24796
1213.84,1.320786,527163,25186
1217.35,1.320524,534208,25538
1220.85,1.317566,540472,26014
1225.51,1.322337,549929,26180
1229.01,1.317633,556888,26800
1232.5,1.323136,562180,26714
1235.98,1.317817,567975,27322
1239.46,1.320385,574815,27488
1242.94,1.317357,582782,28064
1246.41,1.321642,591476,28203
1251.03,1.326326,604016,28492
1254.5,1.318860,612289,29383
1257.96,1.320575,619125,29594
1261.41,1.322694,624551,29708
1264.86,1.327643,629900,29623
1268.31,1.326161,634345,29934
1271.75,1.322638,638574,30379
1276.33,1.319886,642499,30760
1279.76,1.327195,645905,30407
1283.19,1.326414,648307,30575
1286.61,1.328499,650446,30529
1290.03,1.325376,652132,30829
1293.44,1.324617,653907,30967
1296.85,1.322474,655963,31218
1301.39,1.331351,657349,30651
1304.8,1.328285,657558,30878
1308.19,1.324383,658515,31202
1311.58,1.324518,658804,31206
1314.97,1.324668,659011,31205
1318.36,1.325729,658272,31094
1321.73,1.332775,658022,30582
1326.23,1.335424,657870,30389
1329.6,1.324756,656482,31079
1332.97,1.332391,654926,30465
1336.33,1.330926,653727,30512
1339.69,1.322629,652497,31042
1343.04,1.331699,649913,30280
1346.39,1.325505,647671,30609
1349.73,1.329809,645338,30198
1354.18,1.325720,641175,30287
1357.52,1.322904,638376,30351
1360.85,1.333900,635805,29473
1364.17,1.324797,633413,29984
1367.49,1.328697,631026,29604
1370.81,1.327540,628050,29543
1374.12,1.326656,625034,29461
1378.54,1.325359,620272,29324
1381.84,1.324886,616892,29196
1385.14,1.323435,613613,29138
1388.43,1.323822,611526,29013
1391.72,1.328738,610663,28646
1395.01,1.327990,610634,28694
1398.29,1.325701,611700,28896
1402.66,1.327126,614051,28912
1405.93,1.323792,616268,29240
1409.2,1.333174,617795,28686
1412.46,1.327991,618872,29081
1415.72,1.326761,619795,29207
1418.98,1.330940,620495,28960
1422.23,1.331699,621087,28937
1426.56,1.329386,621375,29105
1429.8,1.335005,621616,28742
1433.04,1.325799,622129,29382
1436.27,1.327200,621526,29259
1439.5,1.330608,621113,29011
1442.72,1.323097,620921,29508
1445.94,1.332299,620270,28859
1450.23,1.329344,618860,28990
1453.44,1.334045,617697,28624
1456.64,1.332339,616264,28670
1459.85,1.329173,614413,28793
1463.04,1.336535,612307,28212
1466.24,1.329032,610032,28597
1469.43,1.328636,607345,28497
1473.67,1.330421,603789,28214
1476.85,1.333848,601175,27871
1480.02,1.329600,597737,27984
1483.19,1.331845,594479,27688
1486.36,1.333437,591232,27436
1489.52,1.335963,587853,27121
1492.68,1.334281,583875,27042
1496.89,1.331770,578062,26928
1500.03,1.341461,574159,26156
1503.18,1.331423,570285,26587
1506.32,1.330079,565444,26443
1509.45,1.333691,560571,25998
1512.58,1.331149,555821,25929
1515.71,1.330617,550344,25705
1519.87,1.333823,543983,25221
1522.99,1.336369,538764,24833
1526.1,1.335544,533692,24646
1529.21,1.327192,527902,24852
1532.32,1.330275,521886,24395
1535.42,1.336179,515888,23789
1538.51,1.334003,509987,23635
1541.6,1.334759,503936,23314
1545.72,1.337527,494694,22741
1548.8,1.333592,488378,22655
1551.88,1.321924,481832,22960
1554.95,1.341587,474989,21632
1558.02,1.334278,467818,21667
1561.08,1.331048,460730,21498
1564.15,1.328065,454170,21338
1568.22,1.326542,444181,20942
1571.27,1.326962,436947,20581
1574.32,1.334209,429598,19900
1577.36,1.330137,422039,19734
1580.4,1.329928,414375,19385
1583.43,1.330860,406354,18969
1586.46,1.330328,398475,18624
1590.49,1.320370,388982,18602
1593.51,1.325996,380708,17972
1596.53,1.328427,372727,17497
1599.54,1.324896,365060,17277
1602.55,1.320993,357543,17074
1605.55,1.331067,349495,16307
1608.55,1.328396,341154,16016
1612.54,1.324875,330877,15660
1615.53,1.312842,322904,15712
1618.51,1.309036,315116,15468
1621.49,1.319626,307217,14717
1624.47,1.315751,299481,14475
1627.44,1.323129,292112,13881
1630.41,1.322427,284245,13529
1634.36,1.320936,274079,13090
1637.32,1.315751,266916,12901
1640.27,1.306538,259612,12817
1643.22,1.315059,251804,12190
1646.16,1.311223,244348,11934
1649.1,1.309933,236703,11595
1652.04,1.292121,228171,11645
1655.95,1.304528,215408,10684
1658.88,1.298615,204937,10304
1661.8,1.270834,193395,10366
1664.72,1.278862,179728,9457
1667.63,1.242294,163642,9367
1670.54,1.247355,146312,8278
1673.44,1.205756,128451,7998
1677.31,1.194474,105080,6715
1680.21,1.176536,88906,5921
1683.1,1.165898,75033,5121
1685.99,1.128693,63520,4723
1688.87,1.130423,53714,3978
1691.75,1.224741,45653,2721
1694.62,1.185027,39137,2556
1697.49,1.185200,33776,2205
1701.31,1.218649,28175,1703