File: ML/samples/unknown/Column 1_078137_20241121_164717.csv
Method:,Column 1,,
Host Date-Time:,21/11/24 @ 16:47:17,,
Header Version:,1,,
System Temp (C):,33.04,,
Detector Temp (C):,28.84,,
Humidity (%):,3.47,,
Lamp PD:,3806,,
Shift Vector Coefficients:,-10.5391,0.0761263,-0.000134223,,
Pixel to Wavelength Coefficients:,1775.68,-0.916766,-0.000235065,,
Serial Number:,5510004,,
Scan Config Name:,Column 1,,
Scan Config Type:,Slew,,
Section 1,,
Start wavelength (nm):,900,,
End wavelength (nm):,1700,,
Pattern Pixel Width (nm):,   7.03,,,,
Exposure (ms):,  0.635,,,,
Digital Resolution:,228,,
Num Repeats:,6,,
PGA Gain:,64,,
Total Measurement Time in sec:,  2.701,,
Wavelength (nm),Absorbance (AU),Reference Signal (unitless),Sample Signal (unitless)
901.51,1.328993,108485,5086
905.376,1.315540,121306,5866
909.237,1.304830,131909,6538
913.095,1.341996,143299,6520
916.948,1.306716,156982,7747
922.079,1.334684,179937,8326
925.923,1.337204,200504,9224
929.762,1.316557,222660,10742
933.597,1.311107,244426,11941
937.427,1.319570,263972,12647
941.254,1.327598,281845,13256
945.076,1.315605,297271,14373
950.165,1.320253,315605,15097
953.978,1.310464,328029,16049
957.786,1.317606,340470,16386
961.59,1.322426,352317,16769
965.389,1.313032,363056,17658
969.185,1.319433,373162,17884
972.976,1.308531,382632,18804
976.763,1.302857,391202,19478
981.806,1.313257,400190,19454
985.583,1.311144,406088,19837
989.355,1.308013,410162,20181
993.124,1.313134,412868,20076
996.888,1.311516,414263,20219
1000.65,1.306094,415476,20533
1004.4,1.308323,415479,20428
1009.41,1.316150,414358,20009
1013.15,1.311616,412923,20149
1016.89,1.317973,411526,19789
1020.63,1.312243,409066,19932
1024.36,1.311115,406777,19872
1028.09,1.310109,404427,19803
1031.82,1.310767,401911,19650
1036.78,1.310207,398410,19504
1040.49,1.317819,396204,19059
1044.2,1.308201,394236,19389
1047.91,1.313597,392042,19043
1051.61,1.314773,389823,18884
1055.31,1.312724,388234,18896
1059,1.315613,387599,18740
1063.92,1.313804,386688,18774
1067.61,1.313818,386598,18769
1071.29,1.320165,387377,18534
1074.96,1.311914,388536,18946
1078.63,1.314924,389855,18879
1082.3,1.308278,391215,19237
1085.96,1.322696,393215,18704
1090.84,1.319901,396270,18971
1094.49,1.318997,398760,19130
1098.14,1.322165,400987,19097
1101.79,1.313629,403477,19597
1105.43,1.314162,406116,19701
1109.06,1.323638,407701,19351
1112.7,1.317067,409859,19750
1117.53,1.322409,412494,19634
1121.15,1.326273,414909,19574
1124.77,1.323538,416559,19776
1128.38,1.324318,418532,19834
1131.99,1.316500,419956,20263
1135.6,1.327431,421946,19853
1139.2,1.315850,423881,20483
1143.99,1.322821,426786,20295
1147.58,1.321227,428617,20457
1151.17,1.322407,431169,20523
1154.75,1.322359,433579,20640
1158.33,1.321811,436264,20794
1161.91,1.322158,439132,20914
1165.48,1.312196,442389,21558
1169.04,1.317177,446101,21491
1173.79,1.310344,451929,22117
1177.34,1.318585,456026,21898
1180.9,1.316269,461306,22270
1184.44,1.326263,467657,22063
1187.99,1.325773,473969,22386
1191.52,1.321446,479856,22891
1195.06,1.322560,487372,23190
1199.76,1.322186,497347,23685
1203.29,1.324773,504311,23874
1206.81,1.327773,511507,24048
1210.33,1.322729,519078,24689
1213.84,1.325432,527163,24918
1217.35,1.327431,534208,25135
1220.85,1.326012,540472,25513
1225.51,1.327628,549929,25863
1229.01,1.331798,556888,25940
1232.5,1.323559,562180,26688
1235.98,1.326097,567975,26806
1239.46,1.323700,574815,27279
1242.94,1.330825,582782,27207
1246.41,1.327986,591476,27794
1251.03,1.327409,604016,28421
1254.5,1.324828,612289,28982
1257.96,1.325163,619125,29283
1261.41,1.333185,624551,28999
1264.86,1.334008,629900,29192
1268.31,1.328095,634345,29801
1271.75,1.328945,638574,29941
1276.33,1.330303,642499,30031
1279.76,1.326154,645905,30480
1283.19,1.327182,648307,30521
1286.61,1.332701,650446,30235
1290.03,1.332349,652132,30338
1293.44,1.329738,653907,30604
1296.85,1.338500,655963,30087
1301.39,1.336970,657349,30257
1304.8,1.329553,657558,30788
1308.19,1.328537,658515,30905
1311.58,1.329557,658804,30846
1314.97,1.331415,659011,30724
1318.36,1.333977,658272,30509
1321.73,1.332221,658022,30621
1326.23,1.337027,657870,30277
1329.6,1.333194,656482,30481
1332.97,1.332633,654926,30448
1336.33,1.337841,653727,30030
1339.69,1.327214,652497,30716
1343.04,1.332776,649913,30205
1346.39,1.338466,647671,29709
1349.73,1.332275,645338,30027
1354.18,1.333475,641175,29751
1357.52,1.330380,638376,29833
1360.85,1.324974,635805,30085
1364.17,1.332911,633413,29429
1367.49,1.330004,631026,29515
1370.81,1.331631,628050,29266
1374.12,1.333461,625034,29003
1378.54,1.334564,620272,28709
1381.84,1.327661,616892,29010
1385.14,1.331483,613613,28603
1388.43,1.331281,611526,28519
1391.72,1.329056,610663,28625
1395.01,1.328687,610634,28648
1398.29,1.329414,611700,28650
1402.66,1.333542,614051,28488
1405.93,1.332281,616268,28674
1409.2,1.336686,617795,28455
1412.46,1.325980,618872,29216
1415.72,1.331801,619795,28870
1418.98,1.336828,620495,28570
1422.23,1.326003,621087,29319
1426.56,1.339287,621375,28449
1429.8,1.336216,621616,28662
1433.04,1.338472,622129,28537
1436.27,1.332321,621526,28916
1439.5,1.340955,621113,28328
1442.72,1.327520,620921,29209
1445.94,1.334593,620270,28707
1450.23,1.332200,618860,28800
1453.44,1.333772,617697,28642
1456.64,1.340504,616264,28136
1459.85,1.337258,614413,28262
1463.04,1.330118,612307,28632
1466.24,1.340933,610032,27824
1469.43,1.340172,607345,27750
1473.67,1.341442,603789,27507
1476.85,1.338737,601175,27559
1480.02,1.342357,597737,27174
1483.19,1.338913,594479,27241
1486.36,1.341102,591232,26956
1489.52,1.340923,587853,26813
1492.68,1.339613,583875,26712
1496.89,1.337142,578062,26597
1500.03,1.336623,574159,26449
1503.18,1.343867,570285,25836
1506.32,1.342034,565444,25725
1509.45,1.335364,560571,25898
1512.58,1.335137,555821,25692
1515.71,1.340355,550344,25135
1519.87,1.345994,543983,24524
1522.99,1.337473,538764,24770
1526.1,1.344679,533692,24133
1529.21,1.338290,527902,24225
1532.32,1.332488,521886,24271
1535.42,1.344846,515888,23319
1538.51,1.335919,509987,23531
1541.6,1.341990,503936,22929
1545.72,1.335146,494694,22866
1548.8,1.339362,488378,22356
1551.88,1.337816,481832,22135
1554.95,1.341466,474989,21638
1558.02,1.341820,467818,21294
1561.08,1.333927,460730,21356
1564.15,1.338529,454170,20830
1568.22,1.334727,444181,20551
1571.27,1.335637,436947,20174
1574.32,1.333969,429598,19911
1577.36,1.338223,422039,19370
1580.4,1.334432,414375,19185
1583.43,1.336529,406354,18723
1586.46,1.339662,398475,18228
1590.49,1.327360,388982,18305
1593.51,1.332840,380708,17691
1596.53,1.330842,372727,17400
1599.54,1.332094,365060,16993
1602.55,1.332985,357543,16609
1605.55,1.335645,349495,16136
1608.55,1.328505,341154,16012
1612.54,1.333926,330877,15337
1615.53,1.321891,322904,15388
1618.51,1.319522,315116,15099
1621.49,1.324135,307217,14565
1624.47,1.331111,299481,13972
1627.44,1.321723,292112,13926
1630.41,1.328667,284245,13336
1634.36,1.330666,274079,12800
1637.32,1.320830,266916,12751
1640.27,1.322025,259612,12368
1643.22,1.338218,251804,11557
1646.16,1.314914,244348,11833
1649.1,1.314489,236703,11474
1652.04,1.311999,228171,11124
1655.95,1.305464,215408,10661
1658.88,1.318714,204937,9838
1661.8,1.306715,193395,9544
1664.72,1.283572,179728,9355
1667.63,1.284425,163642,8501
1670.54,1.290856,146312,7489
1673.44,1.297095,128451,6481
1677.31,1.275977,105080,5566
1680.21,1.289110,88906,4569
1683.1,1.232491,75033,4393
1685.99,1.263458,63520,3463
1688.87,1.249362,53714,3025
1691.75,1.267124,45653,2468
1694.62,1.305907,39137,1935
1697.49,1.243276,33776,1929
1701.31,1.327320,28175,1326