File: ML/samples/unknown/Column 1_078275_20241121_165405.csv
Method:,Column 1,,
Host Date-Time:,21/11/24 @ 16:54:5,,
Header Version:,1,,
System Temp (C):,34.36,,
Detector Temp (C):,32.22,,
Humidity (%):,2.4,,
Lamp PD:,3802,,
Shift Vector Coefficients:,-10.5391,0.0761263,-0.000134223,,
Pixel to Wavelength Coefficients:,1775.68,-0.916766,-0.000235065,,
Serial Number:,5510004,,
Scan Config Name:,Column 1,,
Scan Config Type:,Slew,,
Section 1,,
Start wavelength (nm):,900,,
End wavelength (nm):,1700,,
Pattern Pixel Width (nm):,   7.03,,,,
Exposure (ms):,  0.635,,,,
Digital Resolution:,228,,
Num Repeats:,6,,
PGA Gain:,64,,
Total Measurement Time in sec:,  2.726,,
Wavelength (nm),Absorbance (AU),Reference Signal (unitless),Sample Signal (unitless)
901.51,1.307666,108485,5342
905.376,1.324970,121306,5740
909.237,1.345612,131909,5952
913.095,1.331857,143299,6674
916.948,1.316467,156982,7575
922.079,1.326622,179937,8482
925.923,1.322120,200504,9550
929.762,1.327405,222660,10477
933.597,1.323128,244426,11615
937.427,1.316457,263972,12738
941.254,1.335700,281845,13011
945.076,1.317210,297271,14320
950.165,1.321175,315605,15065
953.978,1.305086,328029,16249
957.786,1.310795,340470,16645
961.59,1.311557,352317,17194
965.389,1.306490,363056,17926
969.185,1.314963,373162,18069
972.976,1.305860,382632,18920
976.763,1.305115,391202,19377
981.806,1.304090,400190,19869
985.583,1.305186,406088,20111
989.355,1.314474,410162,19883
993.124,1.311364,412868,20158
996.888,1.313778,414263,20114
1000.65,1.311221,415476,20292
1004.4,1.321511,415479,19817
1009.41,1.311895,414358,20206
1013.15,1.315274,412923,19980
1016.89,1.305364,411526,20372
1020.63,1.314690,409066,19820
1024.36,1.303296,406777,20233
1028.09,1.308948,404427,19856
1031.82,1.313183,401911,19541
1036.78,1.315651,398410,19261
1040.49,1.307439,396204,19520
1044.2,1.312478,394236,19199
1047.91,1.315448,392042,18962
1051.61,1.307883,389823,19186
1055.31,1.318042,388234,18666
1059,1.313786,387599,18819
1063.92,1.316147,386688,18673
1067.61,1.315976,386598,18676
1071.29,1.325873,387377,18292
1074.96,1.313245,388536,18888
1078.63,1.317647,389855,18761
1082.3,1.323674,391215,18567
1085.96,1.312303,393215,19157
1090.84,1.318210,396270,19045
1094.49,1.309321,398760,19561
1098.14,1.312873,400987,19510
1101.79,1.313629,403477,19597
1105.43,1.318393,406116,19510
1109.06,1.322428,407701,19405
1112.7,1.324833,409859,19400
1117.53,1.319851,412494,19750
1121.15,1.323112,414909,19717
1124.77,1.315229,416559,20158
1128.38,1.320091,418532,20028
1131.99,1.315815,419956,20295
1135.6,1.317419,421946,20316
1139.2,1.320519,423881,20264
1143.99,1.317800,426786,20531
1147.58,1.316204,428617,20695
1151.17,1.322491,431169,20519
1154.75,1.319715,433579,20766
1158.33,1.315426,436264,21102
1161.91,1.330587,439132,20512
1165.48,1.321934,442389,21080
1169.04,1.323918,446101,21160
1173.79,1.319492,451929,21656
1177.34,1.315089,456026,22075
1180.9,1.318380,461306,22162
1184.44,1.318556,467657,22458
1187.99,1.318730,473969,22752
1191.52,1.321313,479856,22898
1195.06,1.318756,487372,23394
1199.76,1.315490,497347,24053
1203.29,1.323574,504311,23940
1206.81,1.319881,511507,24489
1210.33,1.317206,519078,25005
1213.84,1.329107,527163,24708
1217.35,1.323989,534208,25335
1220.85,1.323940,540472,25635
1225.51,1.325300,549929,26002
1229.01,1.325680,556888,26308
1232.5,1.325974,562180,26540
1235.98,1.323674,567975,26956
1239.46,1.325742,574815,27151
1242.94,1.327724,582782,27402
1246.41,1.330965,591476,27604
1251.03,1.325153,604016,28569
1254.5,1.324573,612289,28999
1257.96,1.324274,619125,29343
1261.41,1.331556,624551,29108
1264.86,1.332167,629900,29316
1268.31,1.328168,634345,29796
1271.75,1.332733,638574,29681
1276.33,1.330303,642499,30031
1279.76,1.331126,645905,30133
1283.19,1.324006,648307,30745
1286.61,1.330352,650446,30399
1290.03,1.328415,652132,30614
1293.44,1.335826,653907,30178
1296.85,1.334692,655963,30352
1301.39,1.336396,657349,30297
1304.8,1.331773,657558,30631
1308.19,1.331654,658515,30684
1311.58,1.337500,658804,30287
1314.97,1.335305,659011,30450
1318.36,1.335746,658272,30385
1321.73,1.337558,658022,30247
1326.23,1.330705,657870,30721
1329.6,1.334850,656482,30365
1332.97,1.335108,654926,30275
1336.33,1.333195,653727,30353
1339.69,1.336214,652497,30086
1343.04,1.329311,649913,30447
1346.39,1.335088,647671,29941
1349.73,1.328029,645338,30322
1354.18,1.331131,641175,29912
1357.52,1.332072,638376,29717
1360.85,1.328758,635805,29824
1364.17,1.331629,633413,29516
1367.49,1.335960,631026,29113
1370.81,1.331201,628050,29295
1374.12,1.329807,625034,29248
1378.54,1.333688,620272,28767
1381.84,1.329477,616892,28889
1385.14,1.329619,613613,28726
1388.43,1.328790,611526,28683
1391.72,1.334752,610663,28252
1395.01,1.325741,610634,28843
1398.29,1.328384,611700,28718
1402.66,1.330883,614051,28663
1405.93,1.328902,616268,28898
1409.2,1.328746,617795,28980
1412.46,1.334977,618872,28617
1415.72,1.338563,619795,28424
1418.98,1.334826,620495,28702
1422.23,1.335407,621087,28691
1426.56,1.334791,621375,28745
1429.8,1.337855,621616,28554
1433.04,1.340730,622129,28389
1436.27,1.333058,621526,28867
1439.5,1.335077,621113,28714
1442.72,1.334278,620921,28758
1445.94,1.340488,620270,28320
1450.23,1.338764,618860,28368
1453.44,1.334774,617697,28576
1456.64,1.330193,616264,28812
1459.85,1.335234,614413,28394
1463.04,1.335091,612307,28306
1466.24,1.339857,610032,27893
1469.43,1.339063,607345,27821
1473.67,1.331391,603789,28151
1476.85,1.340000,601175,27479
1480.02,1.335035,597737,27636
1483.19,1.335594,594479,27450
1486.36,1.334674,591232,27358
1489.52,1.340082,587853,26865
1492.68,1.340297,583875,26670
1496.89,1.335854,578062,26676
1500.03,1.335803,574159,26499
1503.18,1.340434,570285,26041
1506.32,1.336582,565444,26050
1509.45,1.341087,560571,25559
1512.58,1.341077,555821,25343
1515.71,1.339044,550344,25211
1519.87,1.341361,543983,24787
1522.99,1.339036,538764,24681
1526.1,1.348457,533692,23924
1529.21,1.336429,527902,24329
1532.32,1.342186,521886,23735
1535.42,1.335523,515888,23825
1538.51,1.330271,509987,23839
1541.6,1.343489,503936,22850
1545.72,1.329786,494694,23150
1548.8,1.335455,488378,22558
1551.88,1.333560,481832,22353
1554.95,1.335784,474989,21923
1558.02,1.336549,467818,21554
1561.08,1.333744,460730,21365
1564.15,1.340347,454170,20743
1568.22,1.336082,444181,20487
1571.27,1.332291,436947,20330
1574.32,1.334362,429598,19893
1577.36,1.342889,422039,19163
1580.4,1.330085,414375,19378
1583.43,1.333754,406354,18843
1586.46,1.328374,398475,18708
1590.49,1.332395,388982,18094
1593.51,1.336736,380708,17533
1596.53,1.335332,372727,17221
1599.54,1.337883,365060,16768
1602.55,1.332201,357543,16639
1605.55,1.321271,349495,16679
1608.55,1.329646,341154,15970
1612.54,1.325652,330877,15632
1615.53,1.331335,322904,15057
1618.51,1.339686,315116,14414
1621.49,1.336781,307217,14147
1624.47,1.317374,299481,14421
1627.44,1.331947,292112,13602
1630.41,1.328374,284245,13345
1634.36,1.328297,274079,12870
1637.32,1.334075,266916,12368
1640.27,1.326260,259612,12248
1643.22,1.307081,251804,12416
1646.16,1.308213,244348,12017
1649.1,1.302359,236703,11799
1652.04,1.309508,228171,11188
1655.95,1.290765,215408,11028
1658.88,1.294921,204937,10392
1661.8,1.302278,193395,9642
1664.72,1.290686,179728,9203
1667.63,1.283404,163642,8521
1670.54,1.272851,146312,7806
1673.44,1.217200,128451,7790
1677.31,1.199417,105080,6639
1680.21,1.251702,88906,4980
1683.1,1.177326,75033,4988
1685.99,1.187066,63520,4129
1688.87,1.260855,53714,2946
1691.75,1.209682,45653,2817
1694.62,1.177781,39137,2599
1697.49,1.188561,33776,2188
1701.31,1.359253,28175,1232