File: ML/samples/unknown/Column 1_078840_20241121_172443.csv
Method:,Column 1,,
Host Date-Time:,21/11/24 @ 17:24:43,,
Header Version:,1,,
System Temp (C):,37.44,,
Detector Temp (C):,35.76,,
Humidity (%):,0.68,,
Lamp PD:,3797,,
Shift Vector Coefficients:,-10.5391,0.0761263,-0.000134223,,
Pixel to Wavelength Coefficients:,1775.68,-0.916766,-0.000235065,,
Serial Number:,5510004,,
Scan Config Name:,Column 1,,
Scan Config Type:,Slew,,
Section 1,,
Start wavelength (nm):,900,,
End wavelength (nm):,1700,,
Pattern Pixel Width (nm):,   7.03,,,,
Exposure (ms):,  0.635,,,,
Digital Resolution:,228,,
Num Repeats:,6,,
PGA Gain:,64,,
Total Measurement Time in sec:,  2.726,,
Wavelength (nm),Absorbance (AU),Reference Signal (unitless),Sample Signal (unitless)
901.51,1.300730,108485,5428
905.376,1.329075,121306,5686
909.237,1.320796,131909,6302
913.095,1.311455,143299,6995
916.948,1.312643,156982,7642
922.079,1.308079,179937,8852
925.923,1.316337,200504,9678
929.762,1.314178,222660,10801
933.597,1.318590,244426,11737
937.427,1.319467,263972,12650
941.254,1.320546,281845,13473
945.076,1.313315,297271,14449
950.165,1.302636,315605,15722
953.978,1.319432,328029,15721
957.786,1.310873,340470,16642
961.59,1.308737,352317,17306
965.389,1.304339,363056,18015
969.185,1.312017,373162,18192
972.976,1.305057,382632,18955
976.763,1.304062,391202,19424
981.806,1.307602,400190,19709
985.583,1.306138,406088,20067
989.355,1.300884,410162,20515
993.124,1.307055,412868,20359
996.888,1.307072,414263,20427
1000.65,1.309640,415476,20366
1004.4,1.300047,415479,20821
1009.41,1.302582,414358,20644
1013.15,1.308737,412923,20283
1016.89,1.309433,411526,20182
1020.63,1.307518,409066,20150
1024.36,1.306312,406777,20093
1028.09,1.306506,404427,19968
1031.82,1.302211,401911,20041
1036.78,1.314593,398410,19308
1040.49,1.302154,396204,19759
1044.2,1.308515,394236,19375
1047.91,1.300412,392042,19630
1051.61,1.306708,389823,19238
1055.31,1.314128,388234,18835
1059,1.311232,387599,18930
1063.92,1.308013,386688,19026
1067.61,1.311718,386598,18860
1071.29,1.311373,387377,18913
1074.96,1.312832,388536,18906
1078.63,1.312721,389855,18975
1082.3,1.305219,391215,19373
1085.96,1.311963,393215,19172
1090.84,1.315777,396270,19152
1094.49,1.314682,398760,19321
1098.14,1.315150,400987,19408
1101.79,1.301997,403477,20129
1105.43,1.306319,406116,20060
1109.06,1.314841,407701,19747
1112.7,1.310217,409859,20064
1117.53,1.309078,412494,20246
1121.15,1.312344,414909,20212
1124.77,1.310068,416559,20399
1128.38,1.320438,418532,20012
1131.99,1.325203,419956,19861
1135.6,1.326797,421946,19882
1139.2,1.309578,423881,20781
1143.99,1.308798,426786,20961
1147.58,1.315323,428617,20737
1151.17,1.315854,431169,20835
1154.75,1.310057,433579,21233
1158.33,1.315735,436264,21087
1161.91,1.308846,439132,21565
1165.48,1.308385,442389,21748
1169.04,1.317055,446101,21497
1173.79,1.314844,451929,21889
1177.34,1.314362,456026,22112
1180.9,1.316659,461306,22250
1184.44,1.309694,467657,22921
1187.99,1.314778,473969,22960
1191.52,1.319874,479856,22974
1195.06,1.315372,487372,23577
1199.76,1.313958,497347,24138
1203.29,1.310846,504311,24652
1206.81,1.315364,511507,24745
1210.33,1.317901,519078,24965
1213.84,1.318173,527163,25338
1217.35,1.323681,534208,25353
1220.85,1.316566,540472,26074
1225.51,1.320632,549929,26283
1229.01,1.323112,556888,26464
1232.5,1.317772,562180,27046
1235.98,1.316832,567975,27384
1239.46,1.321160,574815,27439
1242.94,1.321539,582782,27795
1246.41,1.321934,591476,28184
1251.03,1.314566,604016,29274
1254.5,1.315166,612289,29634
1257.96,1.324496,619125,29328
1261.41,1.318316,624551,30009
1264.86,1.325682,629900,29757
1268.31,1.322117,634345,30214
1271.75,1.319461,638574,30602
1276.33,1.322009,642499,30610
1279.76,1.320238,645905,30898
1283.19,1.324756,648307,30692
1286.61,1.322719,650446,30938
1290.03,1.332091,652132,30356
1293.44,1.327883,653907,30735
1296.85,1.322767,655963,31197
1301.39,1.327009,657349,30959
1304.8,1.323209,657558,31241
1308.19,1.326784,658515,31030
1311.58,1.332765,658804,30619
1314.97,1.326831,659011,31050
1318.36,1.324850,658272,31157
1321.73,1.330198,658022,30764
1326.23,1.330860,657870,30710
1329.6,1.332980,656482,30496
1332.97,1.329280,654926,30684
1336.33,1.327085,653727,30783
1339.69,1.328531,652497,30623
1343.04,1.328200,649913,30525
1346.39,1.330457,647671,30262
1349.73,1.325815,645338,30477
1354.18,1.325276,641175,30318
1357.52,1.321190,638376,30471
1360.85,1.327261,635805,29927
1364.17,1.325624,633413,29927
1367.49,1.327627,631026,29677
1370.81,1.320034,628050,30058
1374.12,1.324817,625034,29586
1378.54,1.329466,620272,29048
1381.84,1.324247,616892,29239
1385.14,1.322467,613613,29203
1388.43,1.322477,611526,29103
1391.72,1.323553,610663,28990
1395.01,1.323069,610634,29021
1398.29,1.323288,611700,29057
1402.66,1.323670,614051,29143
1405.93,1.329549,616268,28855
1409.2,1.329841,617795,28907
1412.46,1.322368,618872,29460
1415.72,1.325188,619795,29313
1418.98,1.326152,620495,29281
1422.23,1.329737,621087,29068
1426.56,1.325805,621375,29346
1429.8,1.330032,621616,29073
1433.04,1.332877,622129,28907
1436.27,1.329044,621526,29135
1439.5,1.324454,621113,29425
1442.72,1.328920,620921,29115
1445.94,1.327972,620270,29148
1450.23,1.336245,618860,28533
1453.44,1.325333,617697,29204
1456.64,1.324235,616264,29210
1459.85,1.326977,614413,28939
1463.04,1.332505,612307,28475
1466.24,1.331102,610032,28461
1469.43,1.332463,607345,28247
1473.67,1.331391,603789,28151
1476.85,1.326846,601175,28324
1480.02,1.332262,597737,27813
1483.19,1.333432,594479,27587
1486.36,1.332362,591232,27504
1489.52,1.335547,587853,27147
1492.68,1.335955,583875,26938
1496.89,1.332077,578062,26909
1500.03,1.339060,574159,26301
1503.18,1.329581,570285,26700
1506.32,1.327116,565444,26624
1509.45,1.331691,560571,26118
1512.58,1.332390,555821,25855
1515.71,1.331242,550344,25668
1519.87,1.332139,543983,25319
1522.99,1.325967,538764,25435
1526.1,1.334981,533692,24678
1529.21,1.332024,527902,24577
1532.32,1.337147,521886,24012
1535.42,1.329387,515888,24164
1538.51,1.333820,509987,23645
1541.6,1.326182,503936,23779
1545.72,1.333649,494694,22945
1548.8,1.326802,488378,23012
1551.88,1.334844,481832,22287
1554.95,1.325119,474989,22468
1558.02,1.329891,467818,21887
1561.08,1.321597,460730,21971
1564.15,1.329471,454170,21269
1568.22,1.325403,444181,20997
1571.27,1.322721,436947,20783
1574.32,1.332771,429598,19966
1577.36,1.329236,422039,19775
1580.4,1.335883,414375,19121
1583.43,1.325332,406354,19212
1586.46,1.330725,398475,18607
1590.49,1.320650,388982,18590
1593.51,1.322290,380708,18126
1596.53,1.331091,372727,17390
1599.54,1.322840,365060,17359
1602.55,1.312754,357543,17401
1605.55,1.314758,349495,16931
1608.55,1.320896,341154,16295
1612.54,1.311629,330877,16145
1615.53,1.317650,322904,15539
1618.51,1.312023,315116,15362
1621.49,1.326887,307217,14473
1624.47,1.316892,299481,14437
1627.44,1.322878,292112,13889
1630.41,1.301527,284245,14196
1634.36,1.301060,274079,13703
1637.32,1.309866,266916,13077
1640.27,1.317901,259612,12486
1643.22,1.311723,251804,12284
1646.16,1.318896,244348,11725
1649.1,1.304610,236703,11738
1652.04,1.304222,228171,11325
1655.95,1.281801,215408,11258
1658.88,1.286110,204937,10605
1661.8,1.281136,193395,10123
1664.72,1.257055,179728,9944
1667.63,1.246956,163642,9267
1670.54,1.207290,146312,9078
1673.44,1.189555,128451,8302
1677.31,1.154524,105080,7362
1680.21,1.159491,88906,6158
1683.1,1.146169,75033,5359
1685.99,1.129613,63520,4713
1688.87,1.125430,53714,4024
1691.75,1.159233,45653,3164
1694.62,1.165589,39137,2673
1697.49,1.094678,33776,2716
1701.31,1.072922,28175,2382