File: ML/samples/unknown/Column 1_078515_20241121_170627.csv
Method:,Column 1,,
Host Date-Time:,21/11/24 @ 17:6:27,,
Header Version:,1,,
System Temp (C):,34.67,,
Detector Temp (C):,33.88,,
Humidity (%):,1.86,,
Lamp PD:,3800,,
Shift Vector Coefficients:,-10.5391,0.0761263,-0.000134223,,
Pixel to Wavelength Coefficients:,1775.68,-0.916766,-0.000235065,,
Serial Number:,5510004,,
Scan Config Name:,Column 1,,
Scan Config Type:,Slew,,
Section 1,,
Start wavelength (nm):,900,,
End wavelength (nm):,1700,,
Pattern Pixel Width (nm):,   7.03,,,,
Exposure (ms):,  0.635,,,,
Digital Resolution:,228,,
Num Repeats:,6,,
PGA Gain:,64,,
Total Measurement Time in sec:,  2.730,,
Wavelength (nm),Absorbance (AU),Reference Signal (unitless),Sample Signal (unitless)
901.51,1.302253,108485,5409
905.376,1.300479,121306,6073
909.237,1.303901,131909,6552
913.095,1.312388,143299,6980
916.948,1.317673,156982,7554
922.079,1.303103,179937,8954
925.923,1.308863,200504,9846
929.762,1.320293,222660,10650
933.597,1.320519,244426,11685
937.427,1.313771,263972,12817
941.254,1.311960,281845,13742
945.076,1.312834,297271,14465
950.165,1.315305,315605,15270
953.978,1.318880,328029,15741
957.786,1.308661,340470,16727
961.59,1.311632,352317,17191
965.389,1.311853,363056,17706
969.185,1.311087,373162,18231
972.976,1.307700,382632,18840
976.763,1.304398,391202,19409
981.806,1.303042,400190,19917
985.583,1.310553,406088,19864
989.355,1.299151,410162,20597
993.124,1.298877,412868,20746
996.888,1.310080,414263,20286
1000.65,1.307301,415476,20476
1004.4,1.310903,415479,20307
1009.41,1.300818,414358,20728
1013.15,1.307881,412923,20323
1016.89,1.316746,411526,19845
1020.63,1.298517,409066,20572
1024.36,1.304801,406777,20163
1028.09,1.313058,404427,19669
1031.82,1.304122,401911,19953
1036.78,1.314503,398410,19312
1040.49,1.307461,396204,19519
1044.2,1.310041,394236,19307
1047.91,1.307415,392042,19316
1051.61,1.305445,389823,19294
1055.31,1.314982,388234,18798
1059,1.307804,387599,19080
1063.92,1.301488,386688,19314
1067.61,1.303800,386598,19207
1071.29,1.307829,387377,19068
1074.96,1.316870,388536,18731
1078.63,1.321904,389855,18578
1082.3,1.311291,391215,19104
1085.96,1.310290,393215,19246
1090.84,1.307378,396270,19526
1094.49,1.321204,398760,19033
1098.14,1.307915,400987,19734
1101.79,1.309592,403477,19780
1105.43,1.307816,406116,19991
1109.06,1.321221,407701,19459
1112.7,1.312583,409859,19955
1117.53,1.314583,412494,19991
1121.15,1.318097,414909,19946
1124.77,1.320235,416559,19927
1128.38,1.318662,418532,20094
1131.99,1.320570,419956,20074
1135.6,1.313800,421946,20486
1139.2,1.311106,423881,20708
1143.99,1.322030,426786,20332
1147.58,1.319131,428617,20556
1151.17,1.309686,431169,21133
1154.75,1.320218,433579,20742
1158.33,1.309072,436264,21413
1161.91,1.308664,439132,21574
1165.48,1.315127,442389,21413
1169.04,1.322320,446101,21238
1173.79,1.325632,451929,21352
1177.34,1.312382,456026,22213
1180.9,1.320088,461306,22075
1184.44,1.310263,467657,22891
1187.99,1.319552,473969,22709
1191.52,1.319232,479856,23008
1195.06,1.314489,487372,23625
1199.76,1.324134,497347,23579
1203.29,1.327145,504311,23744
1206.81,1.320147,511507,24474
1210.33,1.321342,519078,24768
1213.84,1.323345,527163,25038
1217.35,1.324882,534208,25283
1220.85,1.321389,540472,25786
1225.51,1.315050,549929,26623
1229.01,1.321066,556888,26589
1232.5,1.322714,562180,26740
1235.98,1.328648,567975,26649
1239.46,1.324193,574815,27248
1242.94,1.320587,582782,27856
1246.41,1.323849,591476,28060
1251.03,1.320948,604016,28847
1254.5,1.320089,612289,29300
1257.96,1.324718,619125,29313
1261.41,1.327753,624551,29364
1264.86,1.324138,629900,29863
1268.31,1.326117,634345,29937
1271.75,1.321382,638574,30467
1276.33,1.320324,642499,30729
1279.76,1.325399,645905,30533
1283.19,1.329550,648307,30355
1286.61,1.330438,650446,30393
1290.03,1.328657,652132,30597
1293.44,1.332228,653907,30429
1296.85,1.334778,655963,30346
1301.39,1.335537,657349,30357
1304.8,1.335375,657558,30378
1308.19,1.328860,658515,30882
1311.58,1.327212,658804,31013
1314.97,1.331783,659011,30698
1318.36,1.325296,658272,31125
1321.73,1.334896,658022,30433
1326.23,1.331568,657870,30660
1329.6,1.325931,656482,30995
1332.97,1.330755,654926,30580
1336.33,1.334499,653727,30262
1339.69,1.328474,652497,30627
1343.04,1.326226,649913,30664
1346.39,1.329496,647671,30329
1349.73,1.333927,645338,29913
1354.18,1.332702,641175,29804
1357.52,1.329028,638376,29926
1360.85,1.325986,635805,30015
1364.17,1.325914,633413,29907
1367.49,1.328594,631026,29611
1370.81,1.332359,628050,29217
1374.12,1.329436,625034,29273
1378.54,1.332196,620272,28866
1381.84,1.329913,616892,28860
1385.14,1.330225,613613,28686
1388.43,1.326510,611526,28834
1391.72,1.328677,610663,28650
1395.01,1.326977,610634,28761
1398.29,1.333679,611700,28370
1402.66,1.335437,614051,28364
1405.93,1.334072,616268,28556
1409.2,1.328386,617795,29004
1412.46,1.326545,618872,29178
1415.72,1.328848,619795,29067
1418.98,1.333497,620495,28790
1422.23,1.324894,621087,29394
1426.56,1.327971,621375,29200
1429.8,1.332865,621616,28884
1433.04,1.335711,622129,28719
1436.27,1.330358,621526,29047
1439.5,1.332077,621113,28913
1442.72,1.331073,620921,28971
1445.94,1.331307,620270,28925
1450.23,1.330289,618860,28927
1453.44,1.329547,617697,28922
1456.64,1.340319,616264,28148
1459.85,1.336904,614413,28285
1463.04,1.337475,612307,28151
1466.24,1.336538,610032,28107
1469.43,1.334652,607345,28105
1473.67,1.333867,603789,27991
1476.85,1.338927,601175,27547
1480.02,1.335695,597737,27594
1483.19,1.337084,594479,27356
1486.36,1.330330,591232,27633
1489.52,1.334971,587853,27183
1492.68,1.335439,583875,26970
1496.89,1.335463,578062,26700
1500.03,1.336836,574159,26436
1503.18,1.331014,570285,26612
1506.32,1.334951,565444,26148
1509.45,1.336792,560571,25813
1512.58,1.332458,555821,25851
1515.71,1.336280,550344,25372
1519.87,1.339421,543983,24898
1522.99,1.330395,538764,25177
1526.1,1.335809,533692,24631
1529.21,1.335448,527902,24384
1532.32,1.333384,521886,24221
1535.42,1.337258,515888,23730
1538.51,1.331000,509987,23799
1541.6,1.330514,503936,23543
1545.72,1.339729,494694,22626
1548.8,1.338159,488378,22418
1551.88,1.337581,481832,22147
1554.95,1.344852,474989,21470
1558.02,1.332179,467818,21772
1561.08,1.327527,460730,21673
1564.15,1.324618,454170,21508
1568.22,1.339679,444181,20318
1571.27,1.338206,436947,20055
1574.32,1.337759,429598,19738
1577.36,1.330512,422039,19717
1580.4,1.330847,414375,19344
1583.43,1.329192,406354,19042
1586.46,1.323939,398475,18900
1590.49,1.327241,388982,18310
1593.51,1.325488,380708,17993
1596.53,1.329571,372727,17451
1599.54,1.332887,365060,16962
1602.55,1.324159,357543,16950
1605.55,1.330481,349495,16329
1608.55,1.322846,341154,16222
1612.54,1.326514,330877,15601
1615.53,1.324780,322904,15286
1618.51,1.319724,315116,15092
1621.49,1.309966,307217,15048
1624.47,1.307312,299481,14759
1627.44,1.317719,292112,14055
1630.41,1.310584,284245,13903
1634.36,1.307993,274079,13486
1637.32,1.322263,266916,12709
1640.27,1.310624,259612,12697
1643.22,1.318529,251804,12093
1646.16,1.306517,244348,12064
1649.1,1.315209,236703,11455
1652.04,1.303418,228171,11346
1655.95,1.313689,215408,10461
1658.88,1.293378,204937,10429
1661.8,1.271673,193395,10346
1664.72,1.289179,179728,9235
1667.63,1.276076,163642,8666
1670.54,1.241466,146312,8391
1673.44,1.207552,128451,7965
1677.31,1.180474,105080,6935
1680.21,1.195348,88906,5670
1683.1,1.163867,75033,5145
1685.99,1.165821,63520,4336
1688.87,1.138133,53714,3908
1691.75,1.163925,45653,3130
1694.62,1.188096,39137,2538
1697.49,1.210545,33776,2080
1701.31,1.139808,28175,2042