File: ML/samples/unknown/Column 1_078209_20241121_165049.csv
Method:,Column 1,,
Host Date-Time:,21/11/24 @ 16:50:49,,
Header Version:,1,,
System Temp (C):,33.95,,
Detector Temp (C):,30.88,,
Humidity (%):,2.94,,
Lamp PD:,3803,,
Shift Vector Coefficients:,-10.5391,0.0761263,-0.000134223,,
Pixel to Wavelength Coefficients:,1775.68,-0.916766,-0.000235065,,
Serial Number:,5510004,,
Scan Config Name:,Column 1,,
Scan Config Type:,Slew,,
Section 1,,
Start wavelength (nm):,900,,
End wavelength (nm):,1700,,
Pattern Pixel Width (nm):,   7.03,,,,
Exposure (ms):,  0.635,,,,
Digital Resolution:,228,,
Num Repeats:,6,,
PGA Gain:,64,,
Total Measurement Time in sec:,  2.732,,
Wavelength (nm),Absorbance (AU),Reference Signal (unitless),Sample Signal (unitless)
901.51,1.331133,108485,5061
905.376,1.347486,121306,5450
909.237,1.331611,131909,6147
913.095,1.316012,143299,6922
916.948,1.332527,156982,7300
922.079,1.311824,179937,8776
925.923,1.327151,200504,9440
929.762,1.327322,222660,10479
933.597,1.320184,244426,11694
937.427,1.328171,263972,12399
941.254,1.313036,281845,13708
945.076,1.320131,297271,14224
950.165,1.318703,315605,15151
953.978,1.326422,328029,15470
957.786,1.320825,340470,16265
961.59,1.321004,352317,16824
965.389,1.309188,363056,17815
969.185,1.312758,373162,18161
972.976,1.314157,382632,18562
976.763,1.304667,391202,19397
981.806,1.310587,400190,19574
985.583,1.310335,406088,19874
989.355,1.311123,410162,20037
993.124,1.310009,412868,20221
996.888,1.314729,414263,20070
1000.65,1.306601,415476,20509
1004.4,1.309558,415479,20370
1009.41,1.308641,414358,20358
1013.15,1.304539,412923,20480
1016.89,1.314629,411526,19942
1020.63,1.311894,409066,19948
1024.36,1.319723,406777,19482
1028.09,1.309978,404427,19809
1031.82,1.311830,401911,19602
1036.78,1.312305,398410,19410
1040.49,1.316795,396204,19104
1044.2,1.315451,394236,19068
1047.91,1.315998,392042,18938
1051.61,1.318214,389823,18735
1055.31,1.320539,388234,18559
1059,1.320296,387599,18539
1063.92,1.320400,386688,18491
1067.61,1.331577,386598,18017
1071.29,1.315828,387377,18720
1074.96,1.308398,388536,19100
1078.63,1.318644,389855,18718
1082.3,1.313776,391215,18995
1085.96,1.316700,393215,18964
1090.84,1.324319,396270,18779
1094.49,1.315605,398760,19280
1098.14,1.316517,400987,19347
1101.79,1.317033,403477,19444
1105.43,1.308664,406116,19952
1109.06,1.318840,407701,19566
1112.7,1.324206,409859,19428
1117.53,1.321680,412494,19667
1121.15,1.318751,414909,19916
1124.77,1.320017,416559,19937
1128.38,1.319528,418532,20054
1131.99,1.324198,419956,19907
1135.6,1.334466,421946,19534
1139.2,1.322883,423881,20154
1143.99,1.321475,426786,20358
1147.58,1.322418,428617,20401
1151.17,1.315666,431169,20844
1154.75,1.320322,433579,20737
1158.33,1.330247,436264,20394
1161.91,1.319116,439132,21061
1165.48,1.328410,442389,20768
1169.04,1.314437,446101,21627
1173.79,1.323602,451929,21452
1177.34,1.323732,456026,21640
1180.9,1.318302,461306,22166
1184.44,1.332109,467657,21768
1187.99,1.321257,473969,22620
1191.52,1.321693,479856,22878
1195.06,1.328499,487372,22875
1199.76,1.329341,497347,23298
1203.29,1.328959,504311,23645
1206.81,1.320377,511507,24461
1210.33,1.328805,519078,24346
1213.84,1.329705,527163,24674
1217.35,1.328175,534208,25092
1220.85,1.320145,540472,25860
1225.51,1.329293,549929,25764
1229.01,1.327632,556888,26190
1232.5,1.326285,562180,26521
1235.98,1.329203,567975,26615
1239.46,1.330487,574815,26856
1242.94,1.325321,582782,27554
1246.41,1.325384,591476,27961
1251.03,1.327043,604016,28445
1254.5,1.330879,612289,28581
1257.96,1.331512,619125,28858
1261.41,1.328863,624551,29289
1264.86,1.328347,629900,29575
1268.31,1.331989,634345,29535
1271.75,1.326645,638574,30100
1276.33,1.331432,642499,29953
1279.76,1.333743,645905,29952
1283.19,1.334384,648307,30019
1286.61,1.324802,650446,30790
1290.03,1.335553,652132,30115
1293.44,1.329114,653907,30648
1296.85,1.331612,655963,30568
1301.39,1.332117,657349,30597
1304.8,1.338172,657558,30183
1308.19,1.332660,658515,30613
1311.58,1.334627,658804,30488
1314.97,1.340038,659011,30120
1318.36,1.331352,658272,30694
1321.73,1.337716,658022,30236
1326.23,1.332390,657870,30602
1329.6,1.333864,656482,30434
1332.97,1.335524,654926,30246
1336.33,1.331154,653727,30496
1339.69,1.337197,652497,30018
1343.04,1.337998,649913,29844
1346.39,1.333235,647671,30069
1349.73,1.338774,645338,29581
1354.18,1.332921,641175,29789
1357.52,1.328999,638376,29928
1360.85,1.333944,635805,29470
1364.17,1.336022,633413,29219
1367.49,1.330756,631026,29464
1370.81,1.329012,628050,29443
1374.12,1.328444,625034,29340
1378.54,1.332241,620272,28863
1381.84,1.332963,616892,28658
1385.14,1.334530,613613,28403
1388.43,1.335473,611526,28245
1391.72,1.335260,610663,28219
1395.01,1.338297,610634,28021
1398.29,1.324995,611700,28943
1402.66,1.332279,614051,28571
1405.93,1.332478,616268,28661
1409.2,1.336000,617795,28500
1412.46,1.333114,618872,28740
1415.72,1.332961,619795,28793
1418.98,1.338366,620495,28469
1422.23,1.335649,621087,28675
1426.56,1.342028,621375,28270
1429.8,1.338327,621616,28523
1433.04,1.334367,622129,28808
1436.27,1.339469,621526,28444
1439.5,1.340112,621113,28383
1442.72,1.338512,620921,28479
1445.94,1.336488,620270,28582
1450.23,1.341143,618860,28213
1453.44,1.331926,617697,28764
1456.64,1.339965,616264,28171
1459.85,1.335984,614413,28345
1463.04,1.339284,612307,28034
1466.24,1.338008,610032,28012
1469.43,1.333772,607345,28162
1473.67,1.338735,603789,27679
1476.85,1.338076,601175,27601
1480.02,1.336168,597737,27564
1483.19,1.340591,594479,27136
1486.36,1.334277,591232,27383
1489.52,1.343686,587853,26643
1492.68,1.337942,583875,26815
1496.89,1.338810,578062,26495
1500.03,1.343224,574159,26050
1503.18,1.342910,570285,25893
1506.32,1.334918,565444,26150
1509.45,1.340747,560571,25579
1512.58,1.342760,555821,25245
1515.71,1.336862,550344,25338
1519.87,1.338341,543983,24960
1522.99,1.336072,538764,24850
1526.1,1.339758,533692,24408
1529.21,1.333937,527902,24469
1532.32,1.336009,521886,24075
1535.42,1.335687,515888,23816
1538.51,1.337268,509987,23458
1541.6,1.344898,503936,22776
1545.72,1.341441,494694,22537
1548.8,1.330307,488378,22827
1551.88,1.341600,481832,21943
1554.95,1.342874,474989,21568
1558.02,1.339866,467818,21390
1561.08,1.340772,460730,21022
1564.15,1.331764,454170,21157
1568.22,1.337228,444181,20433
1571.27,1.334626,436947,20221
1574.32,1.333468,429598,19934
1577.36,1.336433,422039,19450
1580.4,1.334907,414375,19164
1583.43,1.323955,406354,19273
1586.46,1.336647,398475,18355
1590.49,1.339363,388982,17806
1593.51,1.339145,380708,17436
1596.53,1.336191,372727,17187
1599.54,1.330767,365060,17045
1602.55,1.337374,357543,16442
1605.55,1.340381,349495,15961
1608.55,1.335891,341154,15742
1612.54,1.330036,330877,15475
1615.53,1.340782,322904,14733
1618.51,1.338032,315116,14469
1621.49,1.317712,307217,14782
1624.47,1.321459,299481,14286
1627.44,1.328670,292112,13705
1630.41,1.320409,284245,13592
1634.36,1.327421,274079,12896
1637.32,1.318792,266916,12811
1640.27,1.316686,259612,12521
1643.22,1.326100,251804,11884
1646.16,1.320529,244348,11681
1649.1,1.320511,236703,11316
1652.04,1.316000,228171,11022
1655.95,1.332048,215408,10028
1658.88,1.299163,204937,10291
1661.8,1.283890,193395,10059
1664.72,1.300421,179728,8999
1667.63,1.277431,163642,8639
1670.54,1.264312,146312,7961
1673.44,1.273808,128451,6838
1677.31,1.260119,105080,5773
1680.21,1.252313,88906,4973
1683.1,1.227869,75033,4440
1685.99,1.204448,63520,3967
1688.87,1.215805,53714,3268
1691.75,1.220927,45653,2745
1694.62,1.262377,39137,2139
1697.49,1.245533,33776,1919
1701.31,1.399871,28175,1122