File: ML/samples/unknown/Column 1_078607_20241121_171101.csv
Method:,Column 1,,
Host Date-Time:,21/11/24 @ 17:11:1,,
Header Version:,1,,
System Temp (C):,37.08,,
Detector Temp (C):,35.01,,
Humidity (%):,0.98,,
Lamp PD:,3798,,
Shift Vector Coefficients:,-10.5391,0.0761263,-0.000134223,,
Pixel to Wavelength Coefficients:,1775.68,-0.916766,-0.000235065,,
Serial Number:,5510004,,
Scan Config Name:,Column 1,,
Scan Config Type:,Slew,,
Section 1,,
Start wavelength (nm):,900,,
End wavelength (nm):,1700,,
Pattern Pixel Width (nm):,   7.03,,,,
Exposure (ms):,  0.635,,,,
Digital Resolution:,228,,
Num Repeats:,6,,
PGA Gain:,64,,
Total Measurement Time in sec:,  2.706,,
Wavelength (nm),Absorbance (AU),Reference Signal (unitless),Sample Signal (unitless)
901.51,1.266140,108485,5878
905.376,1.272441,121306,6478
909.237,1.313484,131909,6409
913.095,1.318970,143299,6875
916.948,1.297289,156982,7917
922.079,1.304999,179937,8915
925.923,1.303123,200504,9977
929.762,1.309738,222660,10912
933.597,1.316670,244426,11789
937.427,1.315231,263972,12774
941.254,1.312308,281845,13731
945.076,1.314308,297271,14416
950.165,1.301533,315605,15762
953.978,1.296092,328029,16589
957.786,1.306744,340470,16801
961.59,1.290240,352317,18059
965.389,1.304556,363056,18006
969.185,1.300218,373162,18693
972.976,1.308000,382632,18827
976.763,1.303281,391202,19459
981.806,1.301519,400190,19987
985.583,1.300440,406088,20332
989.355,1.303368,410162,20398
993.124,1.300450,412868,20671
996.888,1.303915,414263,20576
1000.65,1.311585,415476,20275
1004.4,1.296930,415479,20971
1009.41,1.296461,414358,20937
1013.15,1.305112,412923,20453
1016.89,1.300868,411526,20584
1020.63,1.295592,409066,20711
1024.36,1.297814,406777,20490
1028.09,1.301897,404427,20181
1031.82,1.307728,401911,19788
1036.78,1.305181,398410,19731
1040.49,1.305419,396204,19611
1044.2,1.295900,394236,19946
1047.91,1.301697,392042,19572
1051.61,1.300432,389823,19518
1055.31,1.312241,388234,18917
1059,1.302713,387599,19305
1063.92,1.301061,386688,19333
1067.61,1.310522,386598,18912
1071.29,1.301386,387377,19353
1074.96,1.313199,388536,18890
1078.63,1.309802,389855,19103
1082.3,1.309205,391215,19196
1085.96,1.312620,393215,19143
1090.84,1.309362,396270,19437
1094.49,1.308965,398760,19577
1098.14,1.309458,400987,19664
1101.79,1.310120,403477,19756
1105.43,1.308076,406116,19979
1109.06,1.311620,407701,19894
1112.7,1.313127,409859,19930
1117.53,1.316521,412494,19902
1121.15,1.308770,414909,20379
1124.77,1.308537,416559,20471
1128.38,1.309848,418532,20506
1131.99,1.307632,419956,20681
1135.6,1.311305,421946,20604
1139.2,1.315257,423881,20511
1143.99,1.318435,426786,20501
1147.58,1.314110,428617,20795
1151.17,1.319749,431169,20649
1154.75,1.310876,433579,21193
1158.33,1.311737,436264,21282
1161.91,1.313502,439132,21335
1165.48,1.314762,442389,21431
1169.04,1.312893,446101,21704
1173.79,1.316713,451929,21795
1177.34,1.316310,456026,22013
1180.9,1.308404,461306,22677
1184.44,1.310225,467657,22893
1187.99,1.304590,473969,23505
1191.52,1.311487,479856,23422
1195.06,1.309717,487372,23886
1199.76,1.316937,497347,23973
1203.29,1.315255,504311,24403
1206.81,1.320555,511507,24451
1210.33,1.307978,519078,25542
1213.84,1.317282,527163,25390
1217.35,1.319013,534208,25627
1220.85,1.308006,540472,26593
1225.51,1.316815,549929,26515
1229.01,1.314629,556888,26986
1232.5,1.314573,562180,27246
1235.98,1.316198,567975,27424
1239.46,1.320954,574815,27452
1242.94,1.318969,582782,27960
1246.41,1.316757,591476,28522
1251.03,1.318306,604016,29023
1254.5,1.323332,612289,29082
1257.96,1.317679,619125,29792
1261.41,1.320086,624551,29887
1264.86,1.319811,629900,30162
1268.31,1.324163,634345,30072
1271.75,1.319263,638574,30616
1276.33,1.323359,642499,30515
1279.76,1.321519,645905,30807
1283.19,1.323696,648307,30767
1286.61,1.318361,650446,31250
1290.03,1.326081,652132,30779
1293.44,1.323510,653907,31046
1296.85,1.322655,655963,31205
1301.39,1.323641,657349,31200
1304.8,1.323696,657558,31206
1308.19,1.318865,658515,31601
1311.58,1.319674,658804,31556
1314.97,1.328976,659011,30897
1318.36,1.331635,658272,30674
1321.73,1.328873,658022,30858
1326.23,1.329026,657870,30840
1329.6,1.328418,656482,30818
1332.97,1.323153,654926,31120
1336.33,1.323951,653727,31006
1339.69,1.325591,652497,30831
1343.04,1.315718,649913,31415
1346.39,1.327981,647671,30435
1349.73,1.318552,645338,30991
1354.18,1.325405,641175,30309
1357.52,1.323849,638376,30285
1360.85,1.322426,635805,30262
1364.17,1.321838,633413,30189
1367.49,1.322232,631026,30048
1370.81,1.323181,628050,29841
1374.12,1.321250,625034,29830
1378.54,1.319957,620272,29691
1381.84,1.321301,616892,29438
1385.14,1.321784,613613,29249
1388.43,1.319103,611526,29330
1391.72,1.318504,610663,29329
1395.01,1.323248,610634,29009
1398.29,1.323377,611700,29051
1402.66,1.326271,614051,28969
1405.93,1.324164,616268,29215
1409.2,1.322940,617795,29370
1412.46,1.319942,618872,29625
1415.72,1.320560,619795,29627
1418.98,1.325974,620495,29293
1422.23,1.322536,621087,29554
1426.56,1.328417,621375,29170
1429.8,1.328839,621616,29153
1433.04,1.329436,622129,29137
1436.27,1.327274,621526,29254
1439.5,1.326896,621113,29260
1442.72,1.322317,620921,29561
1445.94,1.323968,620270,29418
1450.23,1.326567,618860,29176
1453.44,1.330539,617697,28856
1456.64,1.323270,616264,29275
1459.85,1.331654,614413,28629
1463.04,1.325516,612307,28937
1466.24,1.330996,610032,28468
1469.43,1.330530,607345,28373
1473.67,1.331129,603789,28168
1476.85,1.327644,601175,28272
1480.02,1.331919,597737,27835
1483.19,1.328750,594479,27886
1486.36,1.330126,591232,27646
1489.52,1.328234,587853,27608
1492.68,1.321853,583875,27827
1496.89,1.332982,578062,26853
1500.03,1.333596,574159,26634
1503.18,1.331194,570285,26601
1506.32,1.324466,565444,26787
1509.45,1.334292,560571,25962
1512.58,1.324055,555821,26356
1515.71,1.334469,550344,25478
1519.87,1.326430,543983,25654
1522.99,1.326975,538764,25376
1526.1,1.336779,533692,24576
1529.21,1.328978,527902,24750
1532.32,1.332721,521886,24258
1535.42,1.333468,515888,23938
1538.51,1.332078,509987,23740
1541.6,1.327041,503936,23732
1545.72,1.315485,494694,23925
1548.8,1.330117,488378,22837
1551.88,1.324238,481832,22838
1554.95,1.318806,474989,22797
1558.02,1.332278,467818,21767
1561.08,1.319113,460730,22097
1564.15,1.320219,454170,21727
1568.22,1.332934,444181,20636
1571.27,1.330012,436947,20437
1574.32,1.332228,429598,19991
1577.36,1.332676,422039,19619
1580.4,1.331049,414375,19335
1583.43,1.322673,406354,19330
1586.46,1.317439,398475,19185
1590.49,1.328809,388982,18244
1593.51,1.321883,380708,18143
1596.53,1.320922,372727,17802
1599.54,1.327240,365060,17184
1602.55,1.305969,357543,17675
1605.55,1.322392,349495,16636
1608.55,1.320656,341154,16304
1612.54,1.319692,330877,15848
1615.53,1.318490,322904,15509
1618.51,1.326627,315116,14854
1621.49,1.314755,307217,14883
1624.47,1.301438,299481,14960
1627.44,1.310943,292112,14276
1630.41,1.312839,284245,13831
1634.36,1.307156,274079,13512
1637.32,1.304355,266916,13244
1640.27,1.302625,259612,12933
1643.22,1.306417,251804,12435
1646.16,1.314804,244348,11836
1649.1,1.311697,236703,11548
1652.04,1.295415,228171,11557
1655.95,1.296274,215408,10889
1658.88,1.288244,204937,10553
1661.8,1.283200,193395,10075
1664.72,1.282320,179728,9382
1667.63,1.245552,163642,9297
1670.54,1.224813,146312,8719
1673.44,1.206245,128451,7989
1677.31,1.169650,105080,7110
1680.21,1.170418,88906,6005
1683.1,1.119225,75033,5702
1685.99,1.143565,63520,4564
1688.87,1.122954,53714,4047
1691.75,1.099323,45653,3632
1694.62,1.095381,39137,3142
1697.49,1.154777,33776,2365
1701.31,1.158495,28175,1956