File: ML/samples/unknown/Column 1_078059_20241121_164328.csv
Method:,Column 1,,
Host Date-Time:,21/11/24 @ 16:43:28,,
Header Version:,1,,
System Temp (C):,31.15,,
Detector Temp (C):,25.94,,
Humidity (%):,5.37,,
Lamp PD:,3810,,
Shift Vector Coefficients:,-10.5391,0.0761263,-0.000134223,,
Pixel to Wavelength Coefficients:,1775.68,-0.916766,-0.000235065,,
Serial Number:,5510004,,
Scan Config Name:,Column 1,,
Scan Config Type:,Slew,,
Section 1,,
Start wavelength (nm):,900,,
End wavelength (nm):,1700,,
Pattern Pixel Width (nm):,   7.03,,,,
Exposure (ms):,  0.635,,,,
Digital Resolution:,228,,
Num Repeats:,6,,
PGA Gain:,64,,
Total Measurement Time in sec:,  2.707,,
Wavelength (nm),Absorbance (AU),Reference Signal (unitless),Sample Signal (unitless)
901.51,1.311586,108485,5294
905.376,1.326107,121306,5725
909.237,1.320796,131909,6302
913.095,1.322969,143299,6812
916.948,1.320731,156982,7501
922.079,1.318205,179937,8648
925.923,1.307586,200504,9875
929.762,1.309658,222660,10914
933.597,1.328698,244426,11467
937.427,1.316491,263972,12737
941.254,1.314750,281845,13654
945.076,1.314398,297271,14413
950.165,1.307916,315605,15532
953.978,1.311684,328029,16004
957.786,1.309596,340470,16691
961.59,1.320359,352317,16849
965.389,1.308189,363056,17856
969.185,1.318099,373162,17939
972.976,1.308462,382632,18807
976.763,1.322375,391202,18622
981.806,1.307756,400190,19702
985.583,1.315103,406088,19657
989.355,1.315392,410162,19841
993.124,1.313719,412868,20049
996.888,1.310701,414263,20257
1000.65,1.324036,415476,19702
1004.4,1.319434,415479,19912
1009.41,1.316042,414358,20014
1013.15,1.316951,412923,19903
1016.89,1.315304,411526,19911
1020.63,1.310243,409066,20024
1024.36,1.314604,406777,19713
1028.09,1.312616,404427,19689
1031.82,1.311232,401911,19629
1036.78,1.310830,398410,19476
1040.49,1.310028,396204,19404
1044.2,1.307194,394236,19434
1047.91,1.313529,392042,19046
1051.61,1.308381,389823,19164
1055.31,1.311416,388234,18953
1059,1.317774,387599,18647
1063.92,1.311106,386688,18891
1067.61,1.309513,386598,18956
1071.29,1.325042,387377,18327
1074.96,1.319662,388536,18611
1078.63,1.307218,389855,19217
1082.3,1.317911,391215,18815
1085.96,1.315305,393215,19025
1090.84,1.319558,396270,18986
1094.49,1.319997,398760,19086
1098.14,1.318564,400987,19256
1101.79,1.313807,403477,19589
1105.43,1.319664,406116,19453
1109.06,1.317864,407701,19610
1112.7,1.324139,409859,19431
1117.53,1.320555,412494,19718
1121.15,1.325187,414909,19623
1124.77,1.323714,416559,19768
1128.38,1.324888,418532,19808
1131.99,1.324067,419956,19913
1135.6,1.328241,421946,19816
1139.2,1.322581,423881,20168
1143.99,1.321603,426786,20352
1147.58,1.328204,428617,20131
1151.17,1.324953,431169,20403
1154.75,1.327289,433579,20407
1158.33,1.320060,436264,20878
1161.91,1.328159,439132,20627
1165.48,1.322305,442389,21062
1169.04,1.325460,446101,21085
1173.79,1.320114,451929,21625
1177.34,1.328698,456026,21394
1180.9,1.321113,461306,22023
1184.44,1.322734,467657,22243
1187.99,1.320778,473969,22645
1191.52,1.320461,479856,22943
1195.06,1.322560,487372,23190
1199.76,1.326702,497347,23440
1203.29,1.322668,504311,23990
1206.81,1.328369,511507,24015
1210.33,1.330199,519078,24268
1213.84,1.323762,527163,25014
1217.35,1.321102,534208,25504
1220.85,1.327615,540472,25419
1225.51,1.326705,549929,25918
1229.01,1.322817,556888,26482
1232.5,1.328584,562180,26381
1235.98,1.324286,567975,26918
1239.46,1.324305,574815,27241
1242.94,1.332489,582782,27103
1246.41,1.324810,591476,27998
1251.03,1.325503,604016,28546
1254.5,1.328651,612289,28728
1257.96,1.330730,619125,28910
1261.41,1.329917,624551,29218
1264.86,1.331220,629900,29380
1268.31,1.330946,634345,29606
1271.75,1.326977,638574,30077
1276.33,1.329956,642499,30055
1279.76,1.330910,645905,30148
1283.19,1.327467,648307,30501
1286.61,1.329681,650446,30446
1290.03,1.336332,652132,30061
1293.44,1.333214,653907,30360
1296.85,1.335953,655963,30264
1301.39,1.331550,657349,30637
1304.8,1.334732,657558,30423
1308.19,1.328776,658515,30888
1311.58,1.329276,658804,30866
1314.97,1.337206,659011,30317
1318.36,1.334305,658272,30486
1321.73,1.330565,658022,30738
1326.23,1.333513,657870,30523
1329.6,1.339740,656482,30025
1332.97,1.334105,654926,30345
1336.33,1.330869,653727,30516
1339.69,1.330849,652497,30460
1343.04,1.337736,649913,29862
1346.39,1.331376,647671,30198
1349.73,1.331235,645338,30099
1354.18,1.335846,641175,29589
1357.52,1.333844,638376,29596
1360.85,1.335509,635805,29364
1364.17,1.333443,633413,29393
1367.49,1.326969,631026,29722
1370.81,1.325004,628050,29716
1374.12,1.329897,625034,29242
1378.54,1.333476,620272,28781
1381.84,1.334846,616892,28534
1385.14,1.328608,613613,28793
1388.43,1.329351,611526,28646
1391.72,1.342883,610663,27728
1395.01,1.331180,610634,28484
1398.29,1.326227,611700,28861
1402.66,1.331156,614051,28645
1405.93,1.336864,616268,28373
1409.2,1.325045,617795,29228
1412.46,1.336588,618872,28511
1415.72,1.328952,619795,29060
1418.98,1.337406,620495,28532
1422.23,1.332796,621087,28864
1426.56,1.336017,621375,28664
1429.8,1.334854,621616,28752
1433.04,1.330615,622129,29058
1436.27,1.337184,621526,28594
1439.5,1.341768,621113,28275
1442.72,1.339168,620921,28436
1445.94,1.340472,620270,28321
1450.23,1.339269,618860,28335
1453.44,1.333757,617697,28643
1456.64,1.331673,616264,28714
1459.85,1.334256,614413,28458
1463.04,1.336766,612307,28197
1466.24,1.336353,610032,28119
1469.43,1.334096,607345,28141
1473.67,1.333650,603789,28005
1476.85,1.342361,601175,27330
1480.02,1.342309,597737,27177
1483.19,1.341424,594479,27084
1486.36,1.334198,591232,27388
1489.52,1.338952,587853,26935
1492.68,1.336600,583875,26898
1496.89,1.336196,578062,26655
1500.03,1.344410,574159,25979
1503.18,1.340201,570285,26055
1506.32,1.340114,565444,25839
1509.45,1.342022,560571,25504
1512.58,1.338565,555821,25490
1515.71,1.340407,550344,25132
1519.87,1.339805,543983,24876
1522.99,1.338684,538764,24701
1526.1,1.340738,533692,24353
1529.21,1.339636,527902,24150
1532.32,1.337527,521886,23991
1535.42,1.334594,515888,23876
1538.51,1.347382,509987,22918
1541.6,1.338294,503936,23125
1545.72,1.344768,494694,22365
1548.8,1.343637,488378,22137
1551.88,1.332609,481832,22402
1554.95,1.338187,474989,21802
1558.02,1.335603,467818,21601
1561.08,1.342428,460730,20942
1564.15,1.340703,454170,20726
1568.22,1.333798,444181,20595
1571.27,1.339030,436947,20017
1574.32,1.334733,429598,19876
1577.36,1.333717,422039,19572
1580.4,1.339738,414375,18952
1583.43,1.332236,406354,18909
1586.46,1.341788,398475,18139
1590.49,1.340389,388982,17764
1593.51,1.329562,380708,17825
1596.53,1.337152,372727,17149
1599.54,1.332094,365060,16993
1602.55,1.325750,357543,16888
1605.55,1.333819,349495,16204
1608.55,1.339130,341154,15625
1612.54,1.330541,330877,15457
1615.53,1.325946,322904,15245
1618.51,1.336803,315116,14510
1621.49,1.324433,307217,14555
1624.47,1.332605,299481,13924
1627.44,1.329209,292112,13688
1630.41,1.330887,284245,13268
1634.36,1.323265,274079,13020
1637.32,1.312799,266916,12989
1640.27,1.312097,259612,12654
1643.22,1.321628,251804,12007
1646.16,1.325878,244348,11538
1649.1,1.324172,236703,11221
1652.04,1.314780,228171,11053
1655.95,1.324151,215408,10212
1658.88,1.334675,204937,9483
1661.8,1.353921,193395,8561
1664.72,1.321230,179728,8578
1667.63,1.314238,163642,7937
1670.54,1.306622,146312,7222
1673.44,1.334513,128451,5946
1677.31,1.343093,105080,4769
1680.21,1.324855,88906,4208
1683.1,1.383051,75033,3106
1685.99,1.313093,63520,3089
1688.87,1.279530,53714,2822
1691.75,1.427236,45653,1707
1694.62,1.443061,39137,1411
1697.49,1.258395,33776,1863
1701.31,1.275223,28175,1495