File: ML/samples/unknown/Column 1_078153_20241121_164804.csv
Method:,Column 1,,
Host Date-Time:,21/11/24 @ 16:48:4,,
Header Version:,1,,
System Temp (C):,33.29,,
Detector Temp (C):,29.38,,
Humidity (%):,3.22,,
Lamp PD:,3805,,
Shift Vector Coefficients:,-10.5391,0.0761263,-0.000134223,,
Pixel to Wavelength Coefficients:,1775.68,-0.916766,-0.000235065,,
Serial Number:,5510004,,
Scan Config Name:,Column 1,,
Scan Config Type:,Slew,,
Section 1,,
Start wavelength (nm):,900,,
End wavelength (nm):,1700,,
Pattern Pixel Width (nm):,   7.03,,,,
Exposure (ms):,  0.635,,,,
Digital Resolution:,228,,
Num Repeats:,6,,
PGA Gain:,64,,
Total Measurement Time in sec:,  2.734,,
Wavelength (nm),Absorbance (AU),Reference Signal (unitless),Sample Signal (unitless)
901.51,1.325252,108485,5130
905.376,1.319706,121306,5810
909.237,1.307829,131909,6493
913.095,1.329844,143299,6705
916.948,1.300704,156982,7855
922.079,1.322900,179937,8555
925.923,1.311207,200504,9793
929.762,1.325296,222660,10528
933.597,1.324626,244426,11575
937.427,1.317481,263972,12708
941.254,1.311013,281845,13772
945.076,1.316664,297271,14338
950.165,1.312018,315605,15386
953.978,1.308547,328029,16120
957.786,1.310873,340470,16642
961.59,1.311405,352317,17200
965.389,1.308165,363056,17857
969.185,1.298942,373162,18748
972.976,1.297517,382632,19287
976.763,1.309575,391202,19179
981.806,1.306809,400190,19745
985.583,1.305683,406088,20088
989.355,1.302390,410162,20444
993.124,1.313567,412868,20056
996.888,1.307008,414263,20430
1000.65,1.305692,415476,20552
1004.4,1.307856,415479,20450
1009.41,1.306640,414358,20452
1013.15,1.305388,412923,20440
1016.89,1.313367,411526,20000
1020.63,1.312700,409066,19911
1024.36,1.312560,406777,19806
1028.09,1.308686,404427,19868
1031.82,1.301063,401911,20094
1036.78,1.298758,398410,20025
1040.49,1.310587,396204,19379
1044.2,1.307015,394236,19442
1047.91,1.311209,392042,19148
1051.61,1.303446,389823,19383
1055.31,1.310294,388234,19002
1059,1.305557,387599,19179
1063.92,1.310738,386688,18907
1067.61,1.315929,386598,18678
1071.29,1.311167,387377,18922
1074.96,1.305881,388536,19211
1078.63,1.310963,389855,19052
1082.3,1.316138,391215,18892
1085.96,1.316883,393215,18956
1090.84,1.314848,396270,19193
1094.49,1.328290,398760,18725
1098.14,1.310564,400987,19614
1101.79,1.316899,403477,19450
1105.43,1.321476,406116,19372
1109.06,1.316074,407701,19691
1112.7,1.310780,409859,20038
1117.53,1.315279,412494,19959
1121.15,1.317270,414909,19984
1124.77,1.311326,416559,20340
1128.38,1.325986,418532,19758
1131.99,1.320354,419956,20084
1135.6,1.320896,421946,20154
1139.2,1.325520,423881,20032
1143.99,1.327403,426786,20082
1147.58,1.319025,428617,20561
1151.17,1.314273,431169,20911
1154.75,1.325505,433579,20491
1158.33,1.320977,436264,20834
1161.91,1.317798,439132,21125
1165.48,1.318998,442389,21223
1169.04,1.318229,446101,21439
1173.79,1.314567,451929,21903
1177.34,1.318090,456026,21923
1180.9,1.319616,461306,22099
1184.44,1.316184,467657,22581
1187.99,1.314381,473969,22981
1191.52,1.318195,479856,23063
1195.06,1.323798,487372,23124
1199.76,1.318116,497347,23908
1203.29,1.323012,504311,23971
1206.81,1.320093,511507,24477
1210.33,1.322096,519078,24725
1213.84,1.321459,527163,25147
1217.35,1.325415,534208,25252
1220.85,1.316632,540472,26070
1225.51,1.323683,549929,26099
1229.01,1.322506,556888,26501
1232.5,1.325288,562180,26582
1235.98,1.323545,567975,26964
1239.46,1.323493,574815,27292
1242.94,1.325984,582782,27512
1246.41,1.328267,591476,27776
1251.03,1.321053,604016,28840
1254.5,1.325098,612289,28964
1257.96,1.324940,619125,29298
1261.41,1.323880,624551,29627
1264.86,1.320503,629900,30114
1268.31,1.331753,634345,29551
1271.75,1.329526,638574,29901
1276.33,1.328528,642499,30154
1279.76,1.326667,645905,30444
1283.19,1.325407,648307,30646
1286.61,1.349677,650446,29076
1290.03,1.326815,652132,30727
1293.44,1.330761,653907,30532
1296.85,1.330222,655963,30666
1301.39,1.331805,657349,30619
1304.8,1.325397,657558,31084
1308.19,1.332490,658515,30625
1311.58,1.330163,658804,30803
1314.97,1.327741,659011,30985
1318.36,1.332343,658272,30624
1321.73,1.333528,658022,30529
1326.23,1.336082,657870,30343
1329.6,1.333650,656482,30449
1332.97,1.326149,654926,30906
1336.33,1.334155,653727,30286
1339.69,1.325915,652497,30808
1343.04,1.328684,649913,30491
1346.39,1.328210,647671,30419
1349.73,1.328976,645338,30256
1354.18,1.329928,641175,29995
1357.52,1.329972,638376,29861
1360.85,1.326811,635805,29958
1364.17,1.327514,633413,29797
1367.49,1.323520,631026,29959
1370.81,1.329558,628050,29406
1374.12,1.330923,625034,29173
1378.54,1.326174,620272,29269
1381.84,1.331541,616892,28752
1385.14,1.325781,613613,28981
1388.43,1.322626,611526,29093
1391.72,1.325611,610663,28853
1395.01,1.331699,610634,28450
1398.29,1.330552,611700,28575
1402.66,1.327863,614051,28863
1405.93,1.327312,616268,29004
1409.2,1.330879,617795,28838
1412.46,1.334309,618872,28661
1415.72,1.332690,619795,28811
1418.98,1.329697,620495,29043
1422.23,1.335150,621087,28708
1426.56,1.326872,621375,29274
1429.8,1.330795,621616,29022
1433.04,1.331872,622129,28974
1436.27,1.338660,621526,28497
1439.5,1.337169,621113,28576
1442.72,1.332966,620921,28845
1445.94,1.335229,620270,28665
1450.23,1.334498,618860,28648
1453.44,1.338514,617697,28331
1456.64,1.333978,616264,28562
1459.85,1.328375,614413,28846
1463.04,1.336089,612307,28241
1466.24,1.339157,610032,27938
1469.43,1.332755,607345,28228
1473.67,1.330405,603789,28215
1476.85,1.338580,601175,27569
1480.02,1.334878,597737,27646
1483.19,1.337147,594479,27352
1486.36,1.334594,591232,27363
1489.52,1.332677,587853,27327
1492.68,1.337182,583875,26862
1496.89,1.339795,578062,26435
1500.03,1.341477,574159,26155
1503.18,1.342557,570285,25914
1506.32,1.336699,565444,26043
1509.45,1.340221,560571,25610
1512.58,1.333181,555821,25808
1515.71,1.332870,550344,25572
1519.87,1.332139,543983,25319
1522.99,1.339124,538764,24676
1526.1,1.338799,533692,24462
1529.21,1.340897,527902,24080
1532.32,1.337183,521886,24010
1535.42,1.337880,515888,23696
1538.51,1.336214,509987,23515
1541.6,1.339384,503936,23067
1545.72,1.338904,494694,22669
1548.8,1.337462,488378,22454
1551.88,1.336015,481832,22227
1554.95,1.333787,474989,22024
1558.02,1.327733,467818,21996
1561.08,1.339658,460730,21076
1564.15,1.331149,454170,21187
1568.22,1.341500,444181,20233
1571.27,1.340246,436947,19961
1574.32,1.358304,429598,18826
1577.36,1.333185,422039,19596
1580.4,1.331881,414375,19298
1583.43,1.339322,406354,18603
1586.46,1.329280,398475,18669
1590.49,1.325537,388982,18382
1593.51,1.332815,380708,17692
1596.53,1.332342,372727,17340
1599.54,1.329978,365060,17076
1602.55,1.323595,357543,16972
1605.55,1.327011,349495,16460
1608.55,1.329319,341154,15982
1612.54,1.322193,330877,15757
1615.53,1.327916,322904,15176
1618.51,1.321049,315116,15046
1621.49,1.328631,307217,14415
1624.47,1.321307,299481,14291
1627.44,1.319576,292112,13995
1630.41,1.330004,284245,13295
1634.36,1.319181,274079,13143
1637.32,1.310066,266916,13071
1640.27,1.311514,259612,12671
1643.22,1.310663,251804,12314
1646.16,1.317011,244348,11776
1649.1,1.314527,236703,11473
1652.04,1.306992,228171,11253
1655.95,1.315019,215408,10429
1658.88,1.291301,204937,10479
1661.8,1.291600,193395,9882
1664.72,1.302211,179728,8962
1667.63,1.294607,163642,8304
1670.54,1.294467,146312,7427
1673.44,1.270203,128451,6895
1677.31,1.264048,105080,5721
1680.21,1.266876,88906,4809
1683.1,1.223780,75033,4482
1685.99,1.210956,63520,3908
1688.87,1.213420,53714,3286
1691.75,1.204777,45653,2849
1694.62,1.213101,39137,2396
1697.49,1.180888,33776,2227
1701.31,1.362793,28175,1222