File: ML/samples/unknown/Column 1_078226_20241121_165140.csv
Method:,Column 1,,
Host Date-Time:,21/11/24 @ 16:51:40,,
Header Version:,1,,
System Temp (C):,34.11,,
Detector Temp (C):,31.37,,
Humidity (%):,3.52,,
Lamp PD:,3803,,
Shift Vector Coefficients:,-10.5391,0.0761263,-0.000134223,,
Pixel to Wavelength Coefficients:,1775.68,-0.916766,-0.000235065,,
Serial Number:,5510004,,
Scan Config Name:,Column 1,,
Scan Config Type:,Slew,,
Section 1,,
Start wavelength (nm):,900,,
End wavelength (nm):,1700,,
Pattern Pixel Width (nm):,   7.03,,,,
Exposure (ms):,  0.635,,,,
Digital Resolution:,228,,
Num Repeats:,6,,
PGA Gain:,64,,
Total Measurement Time in sec:,  2.730,,
Wavelength (nm),Absorbance (AU),Reference Signal (unitless),Sample Signal (unitless)
901.51,1.295402,108485,5495
905.376,1.339355,121306,5553
909.237,1.286809,131909,6815
913.095,1.316200,143299,6919
916.948,1.323169,156982,7459
922.079,1.325140,179937,8511
925.923,1.324034,200504,9508
929.762,1.323608,222660,10569
933.597,1.318146,244426,11749
937.427,1.324717,263972,12498
941.254,1.328221,281845,13237
945.076,1.324303,297271,14088
950.165,1.318875,315605,15145
953.978,1.308925,328029,16106
957.786,1.310013,340470,16675
961.59,1.300238,352317,17648
965.389,1.311559,363056,17718
969.185,1.312327,373162,18179
972.976,1.311102,382632,18693
976.763,1.301832,391202,19524
981.806,1.309479,400190,19624
985.583,1.314396,406088,19689
989.355,1.301286,410162,20496
993.124,1.304651,412868,20472
996.888,1.299735,414263,20775
1000.65,1.310473,415476,20327
1004.4,1.315029,415479,20115
1009.41,1.306852,414358,20442
1013.15,1.305771,412923,20422
1016.89,1.309218,411526,20192
1020.63,1.310829,409066,19997
1024.36,1.305556,406777,20128
1028.09,1.309605,404427,19826
1031.82,1.314207,401911,19495
1036.78,1.303008,398410,19830
1040.49,1.307417,396204,19521
1044.2,1.312274,394236,19208
1047.91,1.312982,392042,19070
1051.61,1.306685,389823,19239
1055.31,1.316556,388234,18730
1059,1.313763,387599,18820
1063.92,1.313642,386688,18781
1067.61,1.311649,386598,18863
1071.29,1.308969,387377,19018
1074.96,1.312901,388536,18903
1078.63,1.319480,389855,18682
1082.3,1.316069,391215,18895
1085.96,1.321397,393215,18760
1090.84,1.312636,396270,19291
1094.49,1.316665,398760,19233
1098.14,1.326370,400987,18913
1101.79,1.316185,403477,19482
1105.43,1.310168,406116,19883
1109.06,1.315787,407701,19704
1112.7,1.313869,409859,19896
1117.53,1.313217,412494,20054
1121.15,1.317292,414909,19983
1124.77,1.319625,416559,19955
1128.38,1.311545,418532,20426
1131.99,1.312489,419956,20451
1135.6,1.314160,421946,20469
1139.2,1.320562,423881,20262
1143.99,1.322714,426786,20300
1147.58,1.322844,428617,20381
1151.17,1.327622,431169,20278
1154.75,1.323623,433579,20580
1158.33,1.316724,436264,21039
1161.91,1.317059,439132,21161
1165.48,1.319468,442389,21200
1169.04,1.314015,446101,21648
1173.79,1.314626,451929,21900
1177.34,1.321011,456026,21776
1180.9,1.315431,461306,22313
1184.44,1.311364,467657,22833
1187.99,1.319724,473969,22700
1191.52,1.315267,479856,23219
1195.06,1.319351,487372,23362
1199.76,1.327462,497347,23399
1203.29,1.326487,504311,23780
1206.81,1.323496,511507,24286
1210.33,1.318110,519078,24953
1213.84,1.328686,527163,24732
1217.35,1.325036,534208,25274
1220.85,1.326795,540472,25467
1225.51,1.324366,549929,26058
1229.01,1.321507,556888,26562
1232.5,1.325255,562180,26584
1235.98,1.317308,567975,27354
1239.46,1.322698,574815,27342
1242.94,1.319218,582782,27944
1246.41,1.323370,591476,28091
1251.03,1.325579,604016,28541
1254.5,1.327323,612289,28816
1257.96,1.323549,619125,29392
1261.41,1.330081,624551,29207
1264.86,1.328083,629900,29593
1268.31,1.329379,634345,29713
1271.75,1.330762,638574,29816
1276.33,1.327722,642499,30210
1279.76,1.334468,645905,29902
1283.19,1.333056,648307,30111
1286.61,1.329496,650446,30459
1290.03,1.327948,652132,30647
1293.44,1.327332,653907,30774
1296.85,1.332238,655963,30524
1301.39,1.329217,657349,30802
1304.8,1.322806,657558,31270
1308.19,1.329564,658515,30832
1311.58,1.330022,658804,30813
1314.97,1.327713,659011,30987
1318.36,1.333949,658272,30511
1321.73,1.331782,658022,30652
1326.23,1.334282,657870,30469
1329.6,1.331416,656482,30606
1332.97,1.329606,654926,30661
1336.33,1.331852,653727,30447
1339.69,1.330022,652497,30518
1343.04,1.325561,649913,30711
1346.39,1.332427,647671,30125
1349.73,1.327228,645338,30378
1354.18,1.330246,641175,29973
1357.52,1.328303,638376,29976
1360.85,1.327914,635805,29882
1364.17,1.327179,633413,29820
1367.49,1.324550,631026,29888
1370.81,1.326614,628050,29606
1374.12,1.330179,625034,29223
1378.54,1.331775,620272,28894
1381.84,1.320858,616892,29468
1385.14,1.325616,613613,28992
1388.43,1.335735,611526,28228
1391.72,1.329891,610663,28570
1395.01,1.331073,610634,28491
1398.29,1.322810,611700,29089
1402.66,1.327081,614051,28915
1405.93,1.320360,616268,29472
1409.2,1.330864,617795,28839
1412.46,1.330703,618872,28900
1415.72,1.328385,619795,29098
1418.98,1.333466,620495,28792
1422.23,1.336422,621087,28624
1426.56,1.322047,621375,29601
1429.8,1.335852,621616,28686
1433.04,1.333088,622129,28893
1436.27,1.332471,621526,28906
1439.5,1.330339,621113,29029
1442.72,1.334368,620921,28752
1445.94,1.334971,620270,28682
1450.23,1.335242,618860,28599
1453.44,1.324575,617697,29255
1456.64,1.338241,616264,28283
1459.85,1.331988,614413,28607
1463.04,1.335306,612307,28292
1466.24,1.336137,610032,28133
1469.43,1.333787,607345,28161
1473.67,1.329882,603789,28249
1476.85,1.335707,601175,27752
1480.02,1.328701,597737,28042
1483.19,1.339999,594479,27173
1486.36,1.339414,591232,27061
1489.52,1.336684,587853,27076
1492.68,1.337991,583875,26812
1496.89,1.340058,578062,26419
1500.03,1.335082,574159,26543
1503.18,1.331635,570285,26574
1506.32,1.338889,565444,25912
1509.45,1.338731,560571,25698
1512.58,1.339230,555821,25451
1515.71,1.337909,550344,25277
1519.87,1.335704,543983,25112
1522.99,1.336772,538764,24810
1526.1,1.339687,533692,24412
1529.21,1.334488,527902,24438
1532.32,1.334353,521886,24167
1535.42,1.339809,515888,23591
1538.51,1.336491,509987,23500
1541.6,1.337224,503936,23182
1545.72,1.335793,494694,22832
1548.8,1.330726,488378,22805
1551.88,1.328230,481832,22629
1554.95,1.335744,474989,21925
1558.02,1.333817,467818,21690
1561.08,1.331898,460730,21456
1564.15,1.336345,454170,20935
1568.22,1.331212,444181,20718
1571.27,1.334390,436947,20232
1574.32,1.336529,429598,19794
1577.36,1.327308,422039,19863
1580.4,1.338800,414375,18993
1583.43,1.328918,406354,19054
1586.46,1.330958,398475,18597
1590.49,1.330957,388982,18154
1593.51,1.332055,380708,17723
1596.53,1.322462,372727,17739
1599.54,1.341341,365060,16635
1602.55,1.331106,357543,16681
1605.55,1.334677,349495,16172
1608.55,1.339075,341154,15627
1612.54,1.331385,330877,15427
1615.53,1.332548,322904,15015
1618.51,1.322785,315116,14986
1621.49,1.331654,307217,14315
1624.47,1.313954,299481,14535
1627.44,1.319980,292112,13982
1630.41,1.325649,284245,13429
1634.36,1.329649,274079,12830
1637.32,1.321649,266916,12727
1640.27,1.312715,259612,12636
1643.22,1.309888,251804,12336
1646.16,1.312206,244348,11907
1649.1,1.305721,236703,11708
1652.04,1.317539,228171,10983
1655.95,1.303351,215408,10713
1658.88,1.296764,204937,10348
1661.8,1.310922,193395,9452
1664.72,1.304543,179728,8914
1667.63,1.271639,163642,8755
1670.54,1.268533,146312,7884
1673.44,1.275527,128451,6811
1677.31,1.235266,105080,6113
1680.21,1.207228,88906,5517
1683.1,1.202416,75033,4708
1685.99,1.215986,63520,3863
1688.87,1.232743,53714,3143
1691.75,1.205692,45653,2843
1694.62,1.228224,39137,2314
1697.49,1.248485,33776,1906
1701.31,1.162510,28175,1938