File: ML/samples/unknown/Column 1_078370_20241121_165842.csv
Method:,Column 1,,
Host Date-Time:,21/11/24 @ 16:58:42,,
Header Version:,1,,
System Temp (C):,35,,
Detector Temp (C):,33.48,,
Humidity (%):,1.91,,
Lamp PD:,3801,,
Shift Vector Coefficients:,-10.5391,0.0761263,-0.000134223,,
Pixel to Wavelength Coefficients:,1775.68,-0.916766,-0.000235065,,
Serial Number:,5510004,,
Scan Config Name:,Column 1,,
Scan Config Type:,Slew,,
Section 1,,
Start wavelength (nm):,900,,
End wavelength (nm):,1700,,
Pattern Pixel Width (nm):,   7.03,,,,
Exposure (ms):,  0.635,,,,
Digital Resolution:,228,,
Num Repeats:,6,,
PGA Gain:,64,,
Total Measurement Time in sec:,  2.708,,
Wavelength (nm),Absorbance (AU),Reference Signal (unitless),Sample Signal (unitless)
901.51,1.310848,108485,5303
905.376,1.330989,121306,5661
909.237,1.332389,131909,6136
913.095,1.308917,143299,7036
916.948,1.338095,156982,7207
922.079,1.332136,179937,8375
925.923,1.304955,200504,9935
929.762,1.323649,222660,10568
933.597,1.319628,244426,11709
937.427,1.322707,263972,12556
941.254,1.318424,281845,13539
945.076,1.321078,297271,14193
950.165,1.318044,315605,15174
953.978,1.325468,328029,15504
957.786,1.319891,340470,16300
961.59,1.306309,352317,17403
965.389,1.310262,363056,17771
969.185,1.297116,373162,18827
972.976,1.314508,382632,18547
976.763,1.316882,391202,18859
981.806,1.314532,400190,19397
985.583,1.309353,406088,19919
989.355,1.315567,410162,19833
993.124,1.311256,412868,20163
996.888,1.310444,414263,20269
1000.65,1.303689,415476,20647
1004.4,1.302264,415479,20715
1009.41,1.310329,414358,20279
1013.15,1.309315,412923,20256
1016.89,1.308767,411526,20213
1020.63,1.315150,409066,19799
1024.36,1.316149,406777,19643
1028.09,1.307071,404427,19942
1031.82,1.309884,401911,19690
1036.78,1.312305,398410,19410
1040.49,1.303629,396204,19692
1044.2,1.312025,394236,19219
1047.91,1.312254,392042,19102
1051.61,1.309902,389823,19097
1055.31,1.312218,388234,18918
1059,1.314132,387599,18804
1063.92,1.312142,386688,18846
1067.61,1.313310,386598,18791
1071.29,1.310112,387377,18968
1074.96,1.310152,388536,19023
1078.63,1.319829,389855,18667
1082.3,1.316161,391215,18891
1085.96,1.316219,393215,18985
1090.84,1.313448,396270,19255
1094.49,1.315988,398760,19263
1098.14,1.320168,400987,19185
1101.79,1.316922,403477,19449
1105.43,1.314272,406116,19696
1109.06,1.308444,407701,20040
1112.7,1.316650,409859,19769
1117.53,1.327347,412494,19412
1121.15,1.318664,414909,19920
1124.77,1.325497,416559,19687
1128.38,1.323138,418532,19888
1131.99,1.314255,419956,20368
1135.6,1.317611,421946,20307
1139.2,1.321205,423881,20232
1143.99,1.313967,426786,20713
1147.58,1.325623,428617,20251
1151.17,1.322640,431169,20512
1154.75,1.322653,433579,20626
1158.33,1.314624,436264,21141
1161.91,1.318807,439132,21076
1165.48,1.308845,442389,21725
1169.04,1.317986,446101,21451
1173.79,1.323279,451929,21468
1177.34,1.314499,456026,22105
1180.9,1.320718,461306,22043
1184.44,1.319699,467657,22399
1187.99,1.319552,473969,22709
1191.52,1.322396,479856,22841
1195.06,1.319853,487372,23335
1199.76,1.325056,497347,23529
1203.29,1.326030,504311,23805
1206.81,1.324606,511507,24224
1210.33,1.327754,519078,24405
1213.84,1.325920,527163,24890
1217.35,1.327121,534208,25153
1220.85,1.328436,540472,25371
1225.51,1.324232,549929,26066
1229.01,1.324658,556888,26370
1232.5,1.329920,562180,26300
1235.98,1.320895,567975,27129
1239.46,1.322396,574815,27361
1242.94,1.327851,582782,27394
1246.41,1.324469,591476,28020
1251.03,1.326691,604016,28468
1254.5,1.329968,612289,28641
1257.96,1.331708,619125,28845
1261.41,1.329784,624551,29227
1264.86,1.323571,629900,29902
1268.31,1.329511,634345,29704
1271.75,1.329627,638574,29894
1276.33,1.332608,642499,29872
1279.76,1.332382,645905,30046
1283.19,1.334978,648307,29978
1286.61,1.331998,650446,30284
1290.03,1.337171,652132,30003
1293.44,1.327572,653907,30757
1296.85,1.327821,655963,30836
1301.39,1.333795,657349,30479
1304.8,1.334604,657558,30432
1308.19,1.334180,658515,30506
1311.58,1.334214,658804,30517
1314.97,1.336048,659011,30398
1318.36,1.336891,658272,30305
1321.73,1.332860,658022,30576
1326.23,1.341555,657870,29963
1329.6,1.334850,656482,30365
1332.97,1.334836,654926,30294
1336.33,1.330613,653727,30534
1339.69,1.327072,652497,30726
1343.04,1.330625,649913,30355
1346.39,1.334769,647671,29963
1349.73,1.333521,645338,29941
1354.18,1.330536,641175,29953
1357.52,1.326856,638376,30076
1360.85,1.322283,635805,30272
1364.17,1.326859,633413,29842
1367.49,1.331464,631026,29416
1370.81,1.327996,628050,29512
1374.12,1.328532,625034,29334
1378.54,1.328018,620272,29145
1381.84,1.328486,616892,28955
1385.14,1.335066,613613,28368
1388.43,1.329321,611526,28648
1391.72,1.330043,610663,28560
1395.01,1.328808,610634,28640
1398.29,1.333434,611700,28386
1402.66,1.326766,614051,28936
1405.93,1.323213,616268,29279
1409.2,1.333871,617795,28640
1412.46,1.336467,618872,28519
1415.72,1.330825,619795,28935
1418.98,1.326138,620495,29282
1422.23,1.332194,621087,28904
1426.56,1.337778,621375,28548
1429.8,1.326092,621616,29338
1433.04,1.334910,622129,28772
1436.27,1.337397,621526,28580
1439.5,1.335349,621113,28696
1442.72,1.332364,620921,28885
1445.94,1.338605,620270,28443
1450.23,1.335272,618860,28597
1453.44,1.335169,617697,28550
1456.64,1.333598,616264,28587
1459.85,1.333661,614413,28497
1463.04,1.336982,612307,28183
1466.24,1.336461,610032,28112
1469.43,1.332371,607345,28253
1473.67,1.335779,603789,27868
1476.85,1.339542,601175,27508
1480.02,1.337020,597737,27510
1483.19,1.338850,594479,27245
1486.36,1.335516,591232,27305
1489.52,1.340033,587853,26868
1492.68,1.342059,583875,26562
1496.89,1.336962,578062,26608
1500.03,1.338202,574159,26353
1503.18,1.334636,570285,26391
1506.32,1.344031,565444,25607
1509.45,1.336170,560571,25850
1512.58,1.332996,555821,25819
1515.71,1.332700,550344,25582
1519.87,1.346508,543983,24495
1522.99,1.333632,538764,24990
1526.1,1.343781,533692,24183
1529.21,1.335146,527902,24401
1532.32,1.333402,521886,24220
1535.42,1.336545,515888,23769
1538.51,1.333122,509987,23683
1541.6,1.334033,503936,23353
1545.72,1.341132,494694,22553
1548.8,1.330821,488378,22800
1551.88,1.337385,481832,22157
1554.95,1.331879,474989,22121
1558.02,1.339257,467818,21420
1561.08,1.333317,460730,21386
1564.15,1.339197,454170,20798
1568.22,1.334685,444181,20553
1571.27,1.335551,436947,20178
1574.32,1.330450,429598,20073
1577.36,1.331416,422039,19676
1580.4,1.342820,414375,18818
1583.43,1.337179,406354,18695
1586.46,1.331239,398475,18585
1590.49,1.320557,388982,18594
1593.51,1.332006,380708,17725
1596.53,1.329496,372727,17454
1599.54,1.325399,365060,17257
1602.55,1.339227,357543,16372
1605.55,1.332801,349495,16242
1608.55,1.330544,341154,15937
1612.54,1.325180,330877,15649
1615.53,1.316450,322904,15582
1618.51,1.322611,315116,14992
1621.49,1.328691,307217,14413
1624.47,1.331515,299481,13959
1627.44,1.324821,292112,13827
1630.41,1.317258,284245,13691
1634.36,1.308025,274079,13485
1637.32,1.319980,266916,12776
1640.27,1.304038,259612,12891
1643.22,1.324495,251804,11928
1646.16,1.329849,244348,11433
1649.1,1.326851,236703,11152
1652.04,1.308151,228171,11223
1655.95,1.295437,215408,10910
1658.88,1.288656,204937,10543
1661.8,1.294688,193395,9812
1664.72,1.297871,179728,9052
1667.63,1.257582,163642,9043
1670.54,1.248826,146312,8250
1673.44,1.245474,128451,7299
1677.31,1.221835,105080,6305
1680.21,1.177050,88906,5914
1683.1,1.220691,75033,4514
1685.99,1.190551,63520,4096
1688.87,1.165540,53714,3669
1691.75,1.162401,45653,3141
1694.62,1.211834,39137,2403
1697.49,1.194356,33776,2159
1701.31,1.168376,28175,1912