File: ML/samples/unknown/Column 1_078006_20241121_164053.csv
Method:,Column 1,,
Host Date-Time:,21/11/24 @ 16:40:53,,
Header Version:,1,,
System Temp (C):,29.2,,
Detector Temp (C):,25.26,,
Humidity (%):,7.83,,
Lamp PD:,3817,,
Shift Vector Coefficients:,-10.5391,0.0761263,-0.000134223,,
Pixel to Wavelength Coefficients:,1775.68,-0.916766,-0.000235065,,
Serial Number:,5510004,,
Scan Config Name:,Column 1,,
Scan Config Type:,Slew,,
Section 1,,
Start wavelength (nm):,900,,
End wavelength (nm):,1700,,
Pattern Pixel Width (nm):,   7.03,,,,
Exposure (ms):,  0.635,,,,
Digital Resolution:,228,,
Num Repeats:,6,,
PGA Gain:,64,,
Total Measurement Time in sec:,  2.722,,
Wavelength (nm),Absorbance (AU),Reference Signal (unitless),Sample Signal (unitless)
901.51,1.320537,108485,5186
905.376,1.311854,121306,5916
909.237,1.323284,131909,6266
913.095,1.327583,143299,6740
916.948,1.312586,156982,7643
922.079,1.305097,179937,8913
925.923,1.318722,200504,9625
929.762,1.307198,222660,10976
933.597,1.321598,244426,11656
937.427,1.302929,263972,13141
941.254,1.308717,281845,13845
945.076,1.308383,297271,14614
950.165,1.305352,315605,15624
953.978,1.308089,328029,16137
957.786,1.319785,340470,16304
961.59,1.314090,352317,17094
965.389,1.307388,363056,17889
969.185,1.299592,373162,18720
972.976,1.313946,382632,18571
976.763,1.306394,391202,19320
981.806,1.308970,400190,19647
985.583,1.301253,406088,20294
989.355,1.305738,410162,20287
993.124,1.307076,412868,20358
996.888,1.315270,414263,20045
1000.65,1.312722,415476,20222
1004.4,1.309174,415479,20388
1009.41,1.313014,414358,20154
1013.15,1.310926,412923,20181
1016.89,1.309067,411526,20199
1020.63,1.310459,409066,20014
1024.36,1.309827,406777,19931
1028.09,1.303839,404427,20091
1031.82,1.308211,401911,19766
1036.78,1.318661,398410,19128
1040.49,1.309558,396204,19425
1044.2,1.318674,394236,18927
1047.91,1.307640,392042,19306
1051.61,1.305580,389823,19288
1055.31,1.319254,388234,18614
1059,1.318613,387599,18611
1063.92,1.313341,386688,18794
1067.61,1.309490,386598,18957
1071.29,1.307555,387377,19080
1074.96,1.309992,388536,19030
1078.63,1.321087,389855,18613
1082.3,1.314463,391215,18965
1085.96,1.314052,393215,19080
1090.84,1.319970,396270,18968
1094.49,1.318974,398760,19131
1098.14,1.316562,400987,19345
1101.79,1.322834,403477,19186
1105.43,1.319619,406116,19455
1109.06,1.308249,407701,20049
1112.7,1.321754,409859,19538
1117.53,1.323184,412494,19599
1121.15,1.315774,414909,20053
1124.77,1.321260,416559,19880
1128.38,1.314040,418532,20309
1131.99,1.323021,419956,19961
1135.6,1.324705,421946,19978
1139.2,1.314940,423881,20526
1143.99,1.324966,426786,20195
1147.58,1.318329,428617,20594
1151.17,1.322111,431169,20537
1154.75,1.320553,433579,20726
1158.33,1.322752,436264,20749
1161.91,1.318107,439132,21110
1165.48,1.322986,442389,21029
1169.04,1.322565,446101,21226
1173.79,1.314269,451929,21918
1177.34,1.319936,456026,21830
1180.9,1.319263,461306,22117
1184.44,1.322890,467657,22235
1187.99,1.315725,473969,22910
1191.52,1.323157,479856,22801
1195.06,1.320207,487372,23316
1199.76,1.328782,497347,23328
1203.29,1.326085,504311,23802
1206.81,1.326114,511507,24140
1210.33,1.320623,519078,24809
1213.84,1.324874,527163,24950
1217.35,1.325088,534208,25271
1220.85,1.322350,540472,25729
1225.51,1.322669,549929,26160
1229.01,1.318688,556888,26735
1232.5,1.325467,562180,26571
1235.98,1.320815,567975,27134
1239.46,1.324401,574815,27235
1242.94,1.322384,582782,27741
1246.41,1.324919,591476,27991
1251.03,1.326875,604016,28456
1254.5,1.325999,612289,28904
1257.96,1.330190,619125,28946
1261.41,1.325937,624551,29487
1264.86,1.334469,629900,29161
1268.31,1.328386,634345,29781
1271.75,1.327439,638574,30045
1276.33,1.324285,642499,30450
1279.76,1.323823,645905,30644
1283.19,1.331070,648307,30249
1286.61,1.331167,650446,30342
1290.03,1.328983,652132,30574
1293.44,1.332271,653907,30426
1296.85,1.330166,655963,30670
1301.39,1.330262,657349,30728
1304.8,1.329242,657558,30810
1308.19,1.333725,658515,30538
1311.58,1.330177,658804,30802
1314.97,1.328892,659011,30903
1318.36,1.326988,658272,31004
1321.73,1.334653,658022,30450
1326.23,1.334296,657870,30468
1329.6,1.332695,656482,30516
1332.97,1.332291,654926,30472
1336.33,1.328626,653727,30674
1339.69,1.329781,652497,30535
1343.04,1.337082,649913,29907
1346.39,1.332399,647671,30127
1349.73,1.328173,645338,30312
1354.18,1.330348,641175,29966
1357.52,1.329754,638376,29876
1360.85,1.326145,635805,30004
1364.17,1.331409,633413,29531
1367.49,1.328286,631026,29632
1370.81,1.328231,628050,29496
1374.12,1.326141,625034,29496
1378.54,1.330409,620272,28985
1381.84,1.332040,616892,28719
1385.14,1.328020,613613,28832
1388.43,1.328336,611526,28713
1391.72,1.322252,610663,29077
1395.01,1.333473,610634,28334
1398.29,1.331343,611700,28523
1402.66,1.331413,614051,28628
1405.93,1.326773,616268,29040
1409.2,1.325670,617795,29186
1412.46,1.328873,618872,29022
1415.72,1.331621,619795,28882
1418.98,1.329772,620495,29038
1422.23,1.335528,621087,28683
1426.56,1.333148,621375,28854
1429.8,1.336291,621616,28657
1433.04,1.334488,622129,28800
1436.27,1.332051,621526,28934
1439.5,1.333462,621113,28821
1442.72,1.330354,620921,29019
1445.94,1.334563,620270,28709
1450.23,1.339929,618860,28292
1453.44,1.335276,617697,28543
1456.64,1.337827,616264,28310
1459.85,1.344181,614413,27815
1463.04,1.337892,612307,28124
1466.24,1.332325,610032,28381
1469.43,1.336805,607345,27966
1473.67,1.339080,603789,27657
1476.85,1.347139,601175,27031
1480.02,1.330408,597737,27932
1483.19,1.328906,594479,27876
1486.36,1.338725,591232,27104
1489.52,1.343083,587853,26680
1492.68,1.340932,583875,26631
1496.89,1.334537,578062,26757
1500.03,1.339192,574159,26293
1503.18,1.344136,570285,25820
1506.32,1.340148,565444,25837
1509.45,1.339730,560571,25639
1512.58,1.334664,555821,25720
1515.71,1.336536,550344,25357
1519.87,1.333651,543983,25231
1522.99,1.336474,538764,24827
1526.1,1.342776,533692,24239
1529.21,1.336715,527902,24313
1532.32,1.334820,521886,24141
1535.42,1.338027,515888,23688
1538.51,1.331256,509987,23785
1541.6,1.340742,503936,22995
1545.72,1.342560,494694,22479
1548.8,1.341250,488378,22259
1551.88,1.339625,481832,22043
1554.95,1.332862,474989,22071
1558.02,1.339055,467818,21430
1561.08,1.330483,460730,21526
1564.15,1.344174,454170,20561
1568.22,1.341822,444181,20218
1571.27,1.332655,436947,20313
1574.32,1.326101,429598,20275
1577.36,1.335541,422039,19490
1580.4,1.337567,414375,19047
1583.43,1.340818,406354,18539
1586.46,1.340616,398475,18188
1590.49,1.331651,388982,18125
1593.51,1.326431,380708,17954
1596.53,1.333747,372727,17284
1599.54,1.334760,365060,16889
1602.55,1.334163,357543,16564
1605.55,1.329048,349495,16383
1608.55,1.337937,341154,15668
1612.54,1.333304,330877,15359
1615.53,1.335625,322904,14909
1618.51,1.324207,315116,14937
1621.49,1.341690,307217,13988
1624.47,1.329838,299481,14013
1627.44,1.330640,292112,13643
1630.41,1.325682,284245,13428
1634.36,1.315824,274079,13245
1637.32,1.330857,266916,12460
1640.27,1.316998,259612,12512
1643.22,1.330692,251804,11759
1646.16,1.325427,244348,11550
1649.1,1.329468,236703,11085
1652.04,1.321991,228171,10871
1655.95,1.303878,215408,10700
1658.88,1.337938,204937,9412
1661.8,1.322044,193395,9213
1664.72,1.328428,179728,8437
1667.63,1.344252,163642,7407
1670.54,1.315492,146312,7076
1673.44,1.334075,128451,5952
1677.31,1.372283,105080,4459
1680.21,1.370177,88906,3791
1683.1,1.369018,75033,3208
1685.99,1.387770,63520,2601
1688.87,1.319310,53714,2575
1691.75,1.314096,45653,2215
1694.62,1.340463,39137,1787
1697.49,1.272853,33776,1802
1701.31,1.308101,28175,1386