File: ML/samples/unknown/Column 1_078237_20241121_165213.csv
Method:,Column 1,,
Host Date-Time:,21/11/24 @ 16:52:13,,
Header Version:,1,,
System Temp (C):,34.2,,
Detector Temp (C):,31.53,,
Humidity (%):,2.84,,
Lamp PD:,3803,,
Shift Vector Coefficients:,-10.5391,0.0761263,-0.000134223,,
Pixel to Wavelength Coefficients:,1775.68,-0.916766,-0.000235065,,
Serial Number:,5510004,,
Scan Config Name:,Column 1,,
Scan Config Type:,Slew,,
Section 1,,
Start wavelength (nm):,900,,
End wavelength (nm):,1700,,
Pattern Pixel Width (nm):,   7.03,,,,
Exposure (ms):,  0.635,,,,
Digital Resolution:,228,,
Num Repeats:,6,,
PGA Gain:,64,,
Total Measurement Time in sec:,  2.726,,
Wavelength (nm),Absorbance (AU),Reference Signal (unitless),Sample Signal (unitless)
901.51,1.312078,108485,5288
905.376,1.318065,121306,5832
909.237,1.325159,131909,6239
913.095,1.321695,143299,6832
916.948,1.305038,156982,7777
922.079,1.316001,179937,8692
925.923,1.317191,200504,9659
929.762,1.307000,222660,10981
933.597,1.323502,244426,11605
937.427,1.326144,263972,12457
941.254,1.318199,281845,13546
945.076,1.310379,297271,14547
950.165,1.311849,315605,15392
953.978,1.313315,328029,15944
957.786,1.310952,340470,16639
961.59,1.303821,352317,17503
965.389,1.316316,363056,17525
969.185,1.319336,373162,17888
972.976,1.303502,382632,19023
976.763,1.304555,391202,19402
981.806,1.303108,400190,19914
985.583,1.304065,406088,20163
989.355,1.307604,410162,20200
993.124,1.302661,412868,20566
996.888,1.304380,414263,20554
1000.65,1.308618,415476,20414
1004.4,1.311567,415479,20276
1009.41,1.309687,414358,20309
1013.15,1.302635,412923,20570
1016.89,1.304512,411526,20412
1020.63,1.308576,409066,20101
1024.36,1.317699,406777,19573
1028.09,1.311735,404427,19729
1031.82,1.304405,401911,19940
1036.78,1.305688,398410,19708
1040.49,1.310924,396204,19364
1044.2,1.305232,394236,19522
1047.91,1.313164,392042,19062
1051.61,1.310062,389823,19090
1055.31,1.303199,388234,19315
1059,1.313740,387599,18821
1063.92,1.312118,386688,18847
1067.61,1.318074,386598,18586
1071.29,1.315944,387377,18715
1074.96,1.311730,388536,18954
1078.63,1.314648,389855,18891
1082.3,1.314142,391215,18979
1085.96,1.311080,393215,19211
1090.84,1.307356,396270,19527
1094.49,1.318180,398760,19166
1098.14,1.323463,400987,19040
1101.79,1.313120,403477,19620
1105.43,1.325462,406116,19195
1109.06,1.310399,407701,19950
1112.7,1.324072,409859,19434
1117.53,1.324049,412494,19560
1121.15,1.327985,414909,19497
1124.77,1.323582,416559,19774
1128.38,1.315604,418532,20236
1131.99,1.315986,419956,20287
1135.6,1.328438,421946,19807
1139.2,1.317656,423881,20398
1143.99,1.323871,426786,20246
1147.58,1.325709,428617,20247
1151.17,1.316459,431169,20806
1154.75,1.317608,433579,20867
1158.33,1.310983,436264,21319
1161.91,1.322407,439132,20902
1165.48,1.319796,442389,21184
1169.04,1.314196,446101,21639
1173.79,1.324413,451929,21412
1177.34,1.306942,456026,22493
1180.9,1.317284,461306,22218
1184.44,1.321584,467657,22302
1187.99,1.319935,473969,22689
1191.52,1.313457,479856,23316
1195.06,1.309445,487372,23901
1199.76,1.323122,497347,23634
1203.29,1.323429,504311,23948
1206.81,1.324158,511507,24249
1210.33,1.319086,519078,24897
1213.84,1.323085,527163,25053
1217.35,1.317625,534208,25709
1220.85,1.319708,540472,25886
1225.51,1.322918,549929,26145
1229.01,1.330628,556888,26010
1232.5,1.325876,562180,26546
1235.98,1.325175,567975,26863
1239.46,1.320195,574815,27500
1242.94,1.324204,582782,27625
1246.41,1.326271,591476,27904
1251.03,1.315829,604016,29189
1254.5,1.325248,612289,28954
1257.96,1.321118,619125,29557
1261.41,1.324643,624551,29575
1264.86,1.323165,629900,29930
1268.31,1.328620,634345,29765
1271.75,1.328524,638574,29970
1276.33,1.328960,642499,30124
1279.76,1.324774,645905,30577
1283.19,1.326017,648307,30603
1286.61,1.332687,650446,30236
1290.03,1.324012,652132,30926
1293.44,1.332471,653907,30412
1296.85,1.329713,655963,30702
1301.39,1.327177,657349,30947
1304.8,1.322834,657558,31268
1308.19,1.326518,658515,31049
1311.58,1.331590,658804,30702
1314.97,1.330568,659011,30784
1318.36,1.335961,658272,30370
1321.73,1.333499,658022,30531
1326.23,1.334068,657870,30484
1329.6,1.329689,656482,30728
1332.97,1.328743,654926,30722
1336.33,1.330912,653727,30513
1339.69,1.334399,652497,30212
1343.04,1.330096,649913,30392
1346.39,1.333481,647671,30052
1349.73,1.332160,645338,30035
1354.18,1.329306,641175,30038
1357.52,1.326034,638376,30133
1360.85,1.325133,635805,30074
1364.17,1.328185,633413,29751
1367.49,1.322405,631026,30036
1370.81,1.329455,628050,29413
1374.12,1.329466,625034,29271
1378.54,1.328361,620272,29122
1381.84,1.326899,616892,29061
1385.14,1.329166,613613,28756
1388.43,1.332653,611526,28429
1391.72,1.324363,610663,28936
1395.01,1.326524,610634,28791
1398.29,1.323093,611700,29070
1402.66,1.327262,614051,28903
1405.93,1.330121,616268,28817
1409.2,1.329601,617795,28923
1412.46,1.329967,618872,28949
1415.72,1.334200,619795,28711
1418.98,1.322769,620495,29510
1422.23,1.337805,621087,28533
1426.56,1.329476,621375,29099
1429.8,1.323862,621616,29489
1433.04,1.335469,622129,28735
1436.27,1.334731,621526,28756
1439.5,1.337215,621113,28573
1442.72,1.336261,620921,28627
1445.94,1.331157,620270,28935
1450.23,1.332668,618860,28769
1453.44,1.340480,617697,28203
1456.64,1.336816,616264,28376
1459.85,1.329702,614413,28758
1463.04,1.331363,612307,28550
1466.24,1.334011,610032,28271
1469.43,1.334343,607345,28125
1473.67,1.340354,603789,27576
1476.85,1.330991,601175,28055
1480.02,1.331997,597737,27830
1483.19,1.340111,594479,27166
1486.36,1.338532,591232,27116
1489.52,1.333408,587853,27281
1492.68,1.335085,583875,26992
1496.89,1.331609,578062,26938
1500.03,1.334118,574159,26602
1503.18,1.332551,570285,26518
1506.32,1.341680,565444,25746
1509.45,1.338157,560571,25732
1512.58,1.336559,555821,25608
1515.71,1.341307,550344,25080
1519.87,1.334668,543983,25172
1522.99,1.336125,538764,24847
1526.1,1.339492,533692,24423
1529.21,1.344974,527902,23855
1532.32,1.336027,521886,24074
1535.42,1.334903,515888,23859
1538.51,1.332316,509987,23727
1541.6,1.332566,503936,23432
1545.72,1.340651,494694,22578
1548.8,1.336883,488378,22484
1551.88,1.327655,481832,22659
1554.95,1.333787,474989,22024
1558.02,1.334739,467818,21644
1561.08,1.329033,460730,21598
1564.15,1.336221,454170,20941
1568.22,1.339529,444181,20325
1571.27,1.324228,436947,20711
1574.32,1.335389,429598,19846
1577.36,1.328929,422039,19789
1580.4,1.335384,414375,19143
1583.43,1.334239,406354,18822
1586.46,1.331519,398475,18573
1590.49,1.324734,388982,18416
1593.51,1.328467,380708,17870
1596.53,1.333822,372727,17281
1599.54,1.326937,365060,17196
1602.55,1.320104,357543,17109
1605.55,1.323516,349495,16593
1608.55,1.314914,341154,16521
1612.54,1.324570,330877,15671
1615.53,1.318854,322904,15496
1618.51,1.320732,315116,15057
1621.49,1.324165,307217,14564
1624.47,1.323409,299481,14222
1627.44,1.336472,292112,13461
1630.41,1.314633,284245,13774
1634.36,1.323565,274079,13011
1637.32,1.310132,266916,13069
1640.27,1.306335,259612,12823
1643.22,1.307116,251804,12415
1646.16,1.317269,244348,11769
1649.1,1.299863,236703,11867
1652.04,1.308268,228171,11220
1655.95,1.307096,215408,10621
1658.88,1.307557,204937,10094
1661.8,1.301738,193395,9654
1664.72,1.289744,179728,9223
1667.63,1.267541,163642,8838
1670.54,1.245940,146312,8305
1673.44,1.231539,128451,7537
1677.31,1.215815,105080,6393
1680.21,1.187229,88906,5777
1683.1,1.242289,75033,4295
1685.99,1.241213,63520,3645
1688.87,1.229165,53714,3169
1691.75,1.156087,45653,3187
1694.62,1.131089,39137,2894
1697.49,1.167447,33776,2297
1701.31,1.233698,28175,1645