File: ML/samples/unknown/Column 1_078293_20241121_165457.csv
Method:,Column 1,,
Host Date-Time:,21/11/24 @ 16:54:57,,
Header Version:,1,,
System Temp (C):,34.42,,
Detector Temp (C):,32.51,,
Humidity (%):,2.25,,
Lamp PD:,3802,,
Shift Vector Coefficients:,-10.5391,0.0761263,-0.000134223,,
Pixel to Wavelength Coefficients:,1775.68,-0.916766,-0.000235065,,
Serial Number:,5510004,,
Scan Config Name:,Column 1,,
Scan Config Type:,Slew,,
Section 1,,
Start wavelength (nm):,900,,
End wavelength (nm):,1700,,
Pattern Pixel Width (nm):,   7.03,,,,
Exposure (ms):,  0.635,,,,
Digital Resolution:,228,,
Num Repeats:,6,,
PGA Gain:,64,,
Total Measurement Time in sec:,  2.729,,
Wavelength (nm),Absorbance (AU),Reference Signal (unitless),Sample Signal (unitless)
901.51,1.295481,108485,5494
905.376,1.317767,121306,5836
909.237,1.313755,131909,6405
913.095,1.303519,143299,7124
916.948,1.324219,156982,7441
922.079,1.301554,179937,8986
925.923,1.317371,200504,9655
929.762,1.316759,222660,10737
933.597,1.329152,244426,11455
937.427,1.309288,263972,12950
941.254,1.320707,281845,13468
945.076,1.314067,297271,14424
950.165,1.328120,315605,14826
953.978,1.316431,328029,15830
957.786,1.302269,340470,16975
961.59,1.307985,352317,17336
965.389,1.318128,363056,17452
969.185,1.307954,373162,18363
972.976,1.306388,382632,18897
976.763,1.306979,391202,19294
981.806,1.304549,400190,19848
985.583,1.310160,406088,19882
989.355,1.309846,410162,20096
993.124,1.305777,412868,20419
996.888,1.313195,414263,20141
1000.65,1.308235,415476,20432
1004.4,1.305167,415479,20577
1009.41,1.315456,414358,20041
1013.15,1.313668,412923,20054
1016.89,1.309541,411526,20177
1020.63,1.311633,409066,19960
1024.36,1.313591,406777,19759
1028.09,1.304509,404427,20060
1031.82,1.305190,401911,19904
1036.78,1.306747,398410,19660
1040.49,1.311979,396204,19317
1044.2,1.304543,394236,19553
1047.91,1.310801,392042,19166
1051.61,1.308404,389823,19163
1055.31,1.309723,388234,19027
1059,1.304765,387599,19214
1063.92,1.308424,386688,19008
1067.61,1.315790,386598,18684
1071.29,1.315063,387377,18753
1074.96,1.314212,388536,18846
1078.63,1.319829,389855,18667
1082.3,1.319831,391215,18732
1085.96,1.316059,393215,18992
1090.84,1.309496,396270,19431
1094.49,1.324641,398760,18883
1098.14,1.309591,400987,19658
1101.79,1.310714,403477,19729
1105.43,1.321386,406116,19376
1109.06,1.322294,407701,19411
1112.7,1.316870,409859,19759
1117.53,1.317613,412494,19852
1121.15,1.315925,414909,20046
1124.77,1.314971,416559,20170
1128.38,1.321307,418532,19972
1131.99,1.324591,419956,19889
1135.6,1.313503,421946,20500
1139.2,1.319192,423881,20326
1143.99,1.316638,426786,20586
1147.58,1.314633,428617,20770
1151.17,1.320148,431169,20630
1154.75,1.327800,433579,20383
1158.33,1.332553,436264,20286
1161.91,1.324782,439132,20788
1165.48,1.308625,442389,21736
1169.04,1.308850,446101,21907
1173.79,1.322430,451929,21510
1177.34,1.319121,456026,21871
1180.9,1.321093,461306,22024
1184.44,1.318266,467657,22473
1187.99,1.323625,473969,22497
1191.52,1.323386,479856,22789
1195.06,1.322878,487372,23173
1199.76,1.326683,497347,23441
1203.29,1.316967,504311,24307
1206.81,1.323549,511507,24283
1210.33,1.329323,519078,24317
1213.84,1.325467,527163,24916
1217.35,1.328504,534208,25073
1220.85,1.327410,540472,25431
1225.51,1.322022,549929,26199
1229.01,1.323014,556888,26470
1232.5,1.332603,562180,26138
1235.98,1.323722,567975,26953
1239.46,1.323286,574815,27305
1242.94,1.321555,582782,27794
1246.41,1.317717,591476,28459
1251.03,1.318740,604016,28994
1254.5,1.327443,612289,28808
1257.96,1.325000,619125,29294
1261.41,1.327058,624551,29411
1264.86,1.335408,629900,29098
1268.31,1.327396,634345,29849
1271.75,1.332104,638574,29724
1276.33,1.328902,642499,30128
1279.76,1.328425,645905,30321
1283.19,1.335297,648307,29956
1286.61,1.331754,650446,30301
1290.03,1.329979,652132,30504
1293.44,1.334346,653907,30281
1296.85,1.326991,655963,30895
1301.39,1.331281,657349,30656
1304.8,1.332156,657558,30604
1308.19,1.331201,658515,30716
1311.58,1.333361,658804,30577
1314.97,1.329694,659011,30846
1318.36,1.337996,658272,30228
1321.73,1.333087,658022,30560
1326.23,1.325380,657870,31100
1329.6,1.335379,656482,30328
1332.97,1.334578,654926,30312
1336.33,1.336426,653727,30128
1339.69,1.329397,652497,30562
1343.04,1.338013,649913,29843
1346.39,1.327453,647671,30472
1349.73,1.335717,645338,29790
1354.18,1.330826,641175,29933
1357.52,1.333154,638376,29643
1360.85,1.328118,635805,29868
1364.17,1.327252,633413,29815
1367.49,1.331552,631026,29410
1370.81,1.328570,628050,29473
1374.12,1.329644,625034,29259
1378.54,1.324427,620272,29387
1381.84,1.325854,616892,29131
1385.14,1.328517,613613,28799
1388.43,1.329988,611526,28604
1391.72,1.329587,610663,28590
1395.01,1.326373,610634,28801
1398.29,1.329808,611700,28624
1402.66,1.323253,614051,29171
1405.93,1.331102,616268,28752
1409.2,1.329916,617795,28902
1412.46,1.333190,618872,28735
1415.72,1.332916,619795,28796
1418.98,1.328219,620495,29142
1422.23,1.333579,621087,28812
1426.56,1.334716,621375,28750
1429.8,1.326417,621616,29316
1433.04,1.332187,622129,28953
1436.27,1.336289,621526,28653
1439.5,1.333145,621113,28842
1442.72,1.332620,620921,28868
1445.94,1.332691,620270,28833
1450.23,1.327625,618860,29105
1453.44,1.333712,617697,28646
1456.64,1.338011,616264,28298
1459.85,1.335509,614413,28376
1463.04,1.335521,612307,28278
1466.24,1.335258,610032,28190
1469.43,1.333865,607345,28156
1473.67,1.337169,603789,27779
1476.85,1.331037,601175,28052
1480.02,1.337146,597737,27502
1483.19,1.334378,594479,27527
1486.36,1.339478,591232,27057
1489.52,1.335419,587853,27155
1492.68,1.335745,583875,26951
1496.89,1.341045,578062,26359
1500.03,1.337379,574159,26403
1503.18,1.338288,570285,26170
1506.32,1.338453,565444,25938
1509.45,1.333006,560571,26039
1512.58,1.340495,555821,25377
1515.71,1.335271,550344,25431
1519.87,1.333565,543983,25236
1522.99,1.347852,538764,24185
1526.1,1.338408,533692,24484
1529.21,1.335644,527902,24373
1532.32,1.339051,521886,23907
1535.42,1.333740,515888,23923
1538.51,1.340334,509987,23293
1541.6,1.343128,503936,22869
1545.72,1.346324,494694,22285
1548.8,1.335899,488378,22535
1551.88,1.336836,481832,22185
1554.95,1.337014,474989,21861
1558.02,1.332218,467818,21770
1561.08,1.336006,460730,21254
1564.15,1.331990,454170,21146
1568.22,1.340663,444181,20272
1571.27,1.337990,436947,20065
1574.32,1.342983,429598,19502
1577.36,1.328359,422039,19815
1580.4,1.337544,414375,19048
1583.43,1.326192,406354,19174
1586.46,1.336221,398475,18373
1590.49,1.328334,388982,18264
1593.51,1.329100,380708,17844
1596.53,1.326323,372727,17582
1599.54,1.329749,365060,17085
1602.55,1.317775,357543,17201
1605.55,1.319141,349495,16761
1608.55,1.324402,341154,16164
1612.54,1.324182,330877,15685
1615.53,1.337201,322904,14855
1618.51,1.318230,315116,15144
1621.49,1.330412,307217,14356
1624.47,1.315781,299481,14474
1627.44,1.313047,292112,14207
1630.41,1.315106,284245,13759
1634.36,1.324969,274079,12969
1637.32,1.318961,266916,12806
1640.27,1.309667,259612,12725
1643.22,1.314774,251804,12198
1646.16,1.303647,244348,12144
1649.1,1.313922,236703,11489
1652.04,1.304683,228171,11313
1655.95,1.293570,215408,10957
1658.88,1.300727,204937,10254
1661.8,1.293803,193395,9832
1664.72,1.276253,179728,9514
1667.63,1.265824,163642,8873
1670.54,1.262299,146312,7998
1673.44,1.241093,128451,7373
1677.31,1.234840,105080,6119
1680.21,1.196498,88906,5655
1683.1,1.192025,75033,4822
1685.99,1.230736,63520,3734
1688.87,1.162826,53714,3692
1691.75,1.193343,45653,2925
1694.62,1.189810,39137,2528
1697.49,1.157725,33776,2349
1701.31,1.238210,28175,1628