File: ML/samples/unknown/Column 1_078988_20241121_173150.csv
Method:,Column 1,,
Host Date-Time:,21/11/24 @ 17:31:50,,
Header Version:,1,,
System Temp (C):,37.66,,
Detector Temp (C):,36.9,,
Humidity (%):,0.78,,
Lamp PD:,3795,,
Shift Vector Coefficients:,-10.5391,0.0761263,-0.000134223,,
Pixel to Wavelength Coefficients:,1775.68,-0.916766,-0.000235065,,
Serial Number:,5510004,,
Scan Config Name:,Column 1,,
Scan Config Type:,Slew,,
Section 1,,
Start wavelength (nm):,900,,
End wavelength (nm):,1700,,
Pattern Pixel Width (nm):,   7.03,,,,
Exposure (ms):,  0.635,,,,
Digital Resolution:,228,,
Num Repeats:,6,,
PGA Gain:,64,,
Total Measurement Time in sec:,  2.725,,
Wavelength (nm),Absorbance (AU),Reference Signal (unitless),Sample Signal (unitless)
901.51,1.331219,108485,5060
905.376,1.349162,121306,5429
909.237,1.296539,131909,6664
913.095,1.331142,143299,6685
916.948,1.326383,156982,7404
922.079,1.317653,179937,8659
925.923,1.316203,200504,9681
929.762,1.313656,222660,10814
933.597,1.314356,244426,11852
937.427,1.313602,263972,12822
941.254,1.319677,281845,13500
945.076,1.322427,297271,14149
950.165,1.314084,315605,15313
953.978,1.308197,328029,16133
957.786,1.316336,340470,16434
961.59,1.312821,352317,17144
965.389,1.308774,363056,17832
969.185,1.300753,373162,18670
972.976,1.300703,382632,19146
976.763,1.306147,391202,19331
981.806,1.306655,400190,19752
985.583,1.309527,406088,19911
989.355,1.298330,410162,20636
993.124,1.304439,412868,20482
996.888,1.301222,414263,20704
1000.65,1.297611,415476,20938
1004.4,1.310604,415479,20321
1009.41,1.315283,414358,20049
1013.15,1.305686,412923,20426
1016.89,1.315522,411526,19901
1020.63,1.301801,409066,20417
1024.36,1.298663,406777,20450
1028.09,1.307529,404427,19921
1031.82,1.307158,401911,19814
1036.78,1.298714,398410,20027
1040.49,1.308352,396204,19479
1044.2,1.296750,394236,19907
1047.91,1.311686,392042,19127
1051.61,1.311566,389823,19024
1055.31,1.299460,388234,19482
1059,1.306940,387599,19118
1063.92,1.310394,386688,18922
1067.61,1.307935,386598,19025
1071.29,1.318504,387377,18605
1074.96,1.305023,388536,19249
1078.63,1.319410,389855,18685
1082.3,1.306116,391215,19333
1085.96,1.314257,393215,19071
1090.84,1.311692,396270,19333
1094.49,1.310076,398760,19527
1098.14,1.316292,400987,19357
1101.79,1.311154,403477,19709
1105.43,1.316704,406116,19586
1109.06,1.309442,407701,19994
1112.7,1.315531,409859,19820
1117.53,1.310583,412494,20176
1121.15,1.316641,414909,20013
1124.77,1.325519,416559,19686
1128.38,1.309044,418532,20544
1131.99,1.315066,419956,20330
1135.6,1.320314,421946,20181
1139.2,1.309076,423881,20805
1143.99,1.323099,426786,20282
1147.58,1.309106,428617,21036
1151.17,1.318321,431169,20717
1154.75,1.317005,433579,20896
1158.33,1.307594,436264,21486
1161.91,1.311877,439132,21415
1165.48,1.309185,442389,21708
1169.04,1.314256,446101,21636
1173.79,1.319171,451929,21672
1177.34,1.313067,456026,22178
1180.9,1.310054,461306,22591
1184.44,1.315665,467657,22608
1187.99,1.317910,473969,22795
1191.52,1.317988,479856,23074
1195.06,1.321531,487372,23245
1199.76,1.318044,497347,23912
1203.29,1.318542,504311,24219
1206.81,1.319721,511507,24498
1210.33,1.317884,519078,24966
1213.84,1.322877,527163,25065
1217.35,1.318657,534208,25648
1220.85,1.319289,540472,25911
1225.51,1.317454,549929,26476
1229.01,1.316840,556888,26849
1232.5,1.319687,562180,26927
1235.98,1.317372,567975,27350
1239.46,1.312820,574815,27971
1242.94,1.313275,582782,28329
1246.41,1.311701,591476,28856
1251.03,1.320181,604016,28898
1254.5,1.316546,612289,29540
1257.96,1.327229,619125,29144
1261.41,1.321177,624551,29812
1264.86,1.318302,629900,30267
1268.31,1.323298,634345,30132
1271.75,1.326876,638574,30084
1276.33,1.323573,642499,30500
1279.76,1.320435,645905,30884
1283.19,1.318462,648307,31140
1286.61,1.322930,650446,30923
1290.03,1.326490,652132,30750
1293.44,1.324954,653907,30943
1296.85,1.327864,655963,30833
1301.39,1.325427,657349,31072
1304.8,1.320631,657558,31427
1308.19,1.323730,658515,31249
1311.58,1.328039,658804,30954
1314.97,1.330187,659011,30811
1318.36,1.327548,658272,30964
1321.73,1.331753,658022,30654
1326.23,1.324139,657870,31189
1329.6,1.324393,656482,31105
1332.97,1.323921,654926,31065
1336.33,1.327156,653727,30778
1339.69,1.328191,652497,30647
1343.04,1.328114,649913,30531
1346.39,1.327981,647671,30435
1349.73,1.333361,645338,29952
1354.18,1.325706,641175,30288
1357.52,1.323304,638376,30323
1360.85,1.325595,635805,30042
1364.17,1.327412,633413,29804
1367.49,1.322362,631026,30039
1370.81,1.324172,628050,29773
1374.12,1.325317,625034,29552
1378.54,1.327229,620272,29198
1381.84,1.325020,616892,29187
1385.14,1.323390,613613,29141
1388.43,1.324706,611526,28954
1391.72,1.329815,610663,28575
1395.01,1.328808,610634,28640
1398.29,1.326814,611700,28822
1402.66,1.332325,614051,28568
1405.93,1.331086,616268,28753
1409.2,1.332615,617795,28723
1412.46,1.331982,618872,28815
1415.72,1.329117,619795,29049
1418.98,1.329234,620495,29074
1422.23,1.325811,621087,29332
1426.56,1.326664,621375,29288
1429.8,1.325234,621616,29396
1433.04,1.325489,622129,29403
1436.27,1.331676,621526,28959
1439.5,1.331042,621113,28982
1442.72,1.329696,620921,29063
1445.94,1.331758,620270,28895
1450.23,1.332607,618860,28773
1453.44,1.328812,617697,28971
1456.64,1.327998,616264,28958
1459.85,1.330624,614413,28697
1463.04,1.333238,612307,28427
1466.24,1.330218,610032,28519
1469.43,1.332079,607345,28272
1473.67,1.353513,603789,26753
1476.85,1.332697,601175,27945
1480.02,1.336073,597737,27570
1483.19,1.340415,594479,27147
1486.36,1.332299,591232,27508
1489.52,1.334349,587853,27222
1492.68,1.344436,583875,26417
1496.89,1.335772,578062,26681
1500.03,1.336147,574159,26478
1503.18,1.334044,570285,26427
1506.32,1.340383,565444,25823
1509.45,1.339594,560571,25647
1512.58,1.328311,555821,26099
1515.71,1.333720,550344,25522
1519.87,1.331522,543983,25355
1522.99,1.329068,538764,25254
1526.1,1.336691,533692,24581
1529.21,1.335448,527902,24384
1532.32,1.331451,521886,24329
1535.42,1.336672,515888,23762
1538.51,1.333893,509987,23641
1541.6,1.331788,503936,23474
1545.72,1.322955,494694,23517
1548.8,1.330174,488378,22834
1551.88,1.336249,481832,22215
1554.95,1.336934,474989,21865
1558.02,1.331760,467818,21793
1561.08,1.330968,460730,21502
1564.15,1.328798,454170,21302
1568.22,1.328766,444181,20835
1571.27,1.321489,436947,20842
1574.32,1.332315,429598,19987
1577.36,1.332809,422039,19613
1580.4,1.329681,414375,19396
1583.43,1.327099,406354,19134
1586.46,1.335914,398475,18386
1590.49,1.327787,388982,18287
1593.51,1.321907,380708,18142
1596.53,1.321190,372727,17791
1599.54,1.318681,365060,17526
1602.55,1.327554,357543,16818
1605.55,1.324014,349495,16574
1608.55,1.318928,341154,16369
1612.54,1.316090,330877,15980
1615.53,1.326288,322904,15233
1618.51,1.317829,315116,15158
1621.49,1.321459,307217,14655
1624.47,1.310621,299481,14647
1627.44,1.317997,292112,14046
1630.41,1.314885,284245,13766
1634.36,1.322332,274079,13048
1637.32,1.306294,266916,13185
1640.27,1.306572,259612,12816
1643.22,1.301555,251804,12575
1646.16,1.313668,244348,11867
1649.1,1.317756,236703,11388
1652.04,1.300480,228171,11423
1655.95,1.312321,215408,10494
1658.88,1.299839,204937,10275
1661.8,1.276824,193395,10224
1664.72,1.269414,179728,9665
1667.63,1.241090,163642,9393
1670.54,1.218828,146312,8840
1673.44,1.190655,128451,8281
1677.31,1.143171,105080,7557
1680.21,1.156329,88906,6203
1683.1,1.112949,75033,5785
1685.99,1.113424,63520,4892
1688.87,1.117198,53714,4101
1691.75,1.136504,45653,3334
1694.62,1.121443,39137,2959
1697.49,1.081605,33776,2799
1701.31,1.129925,28175,2089