File: ML/samples/unknown/Column 1_078677_20241121_171651.csv
Method:,Column 1,,
Host Date-Time:,21/11/24 @ 17:16:51,,
Header Version:,1,,
System Temp (C):,34.51,,
Detector Temp (C):,35.12,,
Humidity (%):,1.51,,
Lamp PD:,3802,,
Shift Vector Coefficients:,-10.5391,0.0761263,-0.000134223,,
Pixel to Wavelength Coefficients:,1775.68,-0.916766,-0.000235065,,
Serial Number:,5510004,,
Scan Config Name:,Column 1,,
Scan Config Type:,Slew,,
Section 1,,
Start wavelength (nm):,900,,
End wavelength (nm):,1700,,
Pattern Pixel Width (nm):,   7.03,,,,
Exposure (ms):,  0.635,,,,
Digital Resolution:,228,,
Num Repeats:,6,,
PGA Gain:,64,,
Total Measurement Time in sec:,  2.728,,
Wavelength (nm),Absorbance (AU),Reference Signal (unitless),Sample Signal (unitless)
901.51,1.322636,108485,5161
905.376,1.302702,121306,6042
909.237,1.315182,131909,6384
913.095,1.293456,143299,7291
916.948,1.325095,156982,7426
922.079,1.329190,179937,8432
925.923,1.332102,200504,9333
929.762,1.318096,222660,10704
933.597,1.321561,244426,11657
937.427,1.316354,263972,12741
941.254,1.320288,281845,13481
945.076,1.318485,297271,14278
950.165,1.314538,315605,15297
953.978,1.319653,328029,15713
957.786,1.298956,340470,17105
961.59,1.316561,352317,16997
965.389,1.306127,363056,17941
969.185,1.317084,373162,17981
972.976,1.303731,382632,19013
976.763,1.311027,391202,19115
981.806,1.306150,400190,19775
985.583,1.305294,406088,20106
989.355,1.296335,410162,20731
993.124,1.302429,412868,20577
996.888,1.306540,414263,20452
1000.65,1.307258,415476,20478
1004.4,1.302705,415479,20694
1009.41,1.309794,414358,20304
1013.15,1.302466,412923,20578
1016.89,1.306602,411526,20314
1020.63,1.309722,409066,20048
1024.36,1.312077,406777,19828
1028.09,1.311801,404427,19726
1031.82,1.308453,401911,19755
1036.78,1.304741,398410,19751
1040.49,1.305308,396204,19616
1044.2,1.306837,394236,19450
1047.91,1.312868,392042,19075
1051.61,1.310016,389823,19092
1055.31,1.306358,388234,19175
1059,1.314433,387599,18791
1063.92,1.304784,386688,19168
1067.61,1.309903,386598,18939
1071.29,1.315109,387377,18751
1074.96,1.314581,388536,18830
1078.63,1.317856,389855,18752
1082.3,1.313776,391215,18995
1085.96,1.311103,393215,19210
1090.84,1.311737,396270,19331
1094.49,1.300529,398760,19961
1098.14,1.312228,400987,19539
1101.79,1.315762,403477,19501
1105.43,1.315575,406116,19637
1109.06,1.309703,407701,19982
1112.7,1.317772,409859,19718
1117.53,1.309959,412494,20205
1121.15,1.313376,414909,20164
1124.77,1.315897,416559,20127
1128.38,1.313207,418532,20348
1131.99,1.313297,419956,20413
1135.6,1.312044,421946,20569
1139.2,1.315067,423881,20520
1143.99,1.315311,426786,20649
1147.58,1.313881,428617,20806
1151.17,1.320401,431169,20618
1154.75,1.322022,433579,20656
1158.33,1.317489,436264,21002
1161.91,1.321287,439132,20956
1165.48,1.325097,442389,20927
1169.04,1.311874,446101,21755
1173.79,1.314547,451929,21904
1177.34,1.314067,456026,22127
1180.9,1.315314,461306,22319
1184.44,1.314629,467657,22662
1187.99,1.305552,473969,23453
1191.52,1.312657,479856,23359
1195.06,1.308591,487372,23948
1199.76,1.318462,497347,23889
1203.29,1.320663,504311,24101
1206.81,1.311798,511507,24949
1210.33,1.314695,519078,25150
1213.84,1.324300,527163,24983
1217.35,1.319912,534208,25574
1220.85,1.323060,540472,25687
1225.51,1.322420,549929,26175
1229.01,1.317422,556888,26813
1232.5,1.319381,562180,26946
1235.98,1.319569,567975,27212
1239.46,1.327505,574815,27041
1242.94,1.322181,582782,27754
1246.41,1.321842,591476,28190
1251.03,1.318710,604016,28996
1254.5,1.323571,612289,29066
1257.96,1.321294,619125,29545
1261.41,1.318013,624551,30030
1264.86,1.326749,629900,29684
1268.31,1.321945,634345,30226
1271.75,1.321025,638574,30492
1276.33,1.319026,642499,30821
1279.76,1.328010,645905,30350
1283.19,1.320083,648307,31024
1286.61,1.323534,650446,30880
1290.03,1.323773,652132,30943
1293.44,1.328590,653907,30685
1296.85,1.330222,655963,30666
1301.39,1.327795,657349,30903
1304.8,1.325160,657558,31101
1308.19,1.325205,658515,31143
1311.58,1.330361,658804,30789
1314.97,1.334920,659011,30477
1318.36,1.329150,658272,30850
1321.73,1.327243,658022,30974
1326.23,1.331285,657870,30680
1329.6,1.326099,656482,30983
1332.97,1.326698,654926,30867
1336.33,1.333997,653727,30297
1339.69,1.324185,652497,30931
1343.04,1.324939,649913,30755
1346.39,1.328424,647671,30404
1349.73,1.325673,645338,30487
1354.18,1.327819,641175,30141
1357.52,1.322632,638376,30370
1360.85,1.323303,635805,30201
1364.17,1.325421,633413,29941
1367.49,1.326137,631026,29779
1370.81,1.323181,628050,29841
1374.12,1.325302,625034,29553
1378.54,1.330544,620272,28976
1381.84,1.326092,616892,29115
1385.14,1.319031,613613,29435
1388.43,1.326962,611526,28804
1391.72,1.322357,610663,29070
1395.01,1.327249,610634,28743
1398.29,1.321513,611700,29176
1402.66,1.324237,614051,29105
1405.93,1.331570,616268,28721
1409.2,1.323992,617795,29299
1412.46,1.322899,618872,29424
1415.72,1.334003,619795,28724
1418.98,1.329443,620495,29060
1422.23,1.327086,621087,29246
1426.56,1.322693,621375,29557
1429.8,1.333482,621616,28843
1433.04,1.328126,622129,29225
1436.27,1.332426,621526,28909
1439.5,1.330623,621113,29010
1442.72,1.336579,620921,28606
1445.94,1.328852,620270,29089
1450.23,1.337617,618860,28443
1453.44,1.335139,617697,28552
1456.64,1.329696,616264,28845
1459.85,1.330700,614413,28692
1463.04,1.332734,612307,28460
1466.24,1.334642,610032,28230
1469.43,1.338470,607345,27859
1473.67,1.332411,603789,28085
1476.85,1.329183,601175,28172
1480.02,1.326970,597737,28154
1483.19,1.335120,594479,27480
1486.36,1.330408,591232,27628
1489.52,1.333074,587853,27302
1492.68,1.329490,583875,27342
1496.89,1.333257,578062,26836
1500.03,1.336410,574159,26462
1503.18,1.332420,570285,26526
1506.32,1.330112,565444,26441
1509.45,1.328873,560571,26288
1512.58,1.330012,555821,25997
1515.71,1.338510,550344,25242
1519.87,1.330478,543983,25416
1522.99,1.331690,538764,25102
1526.1,1.327911,533692,25083
1529.21,1.338433,527902,24217
1532.32,1.334389,521886,24165
1535.42,1.331603,515888,24041
1538.51,1.336473,509987,23501
1541.6,1.333085,503936,23404
1545.72,1.334482,494694,22901
1548.8,1.333190,488378,22676
1551.88,1.333113,481832,22376
1554.95,1.337053,474989,21859
1558.02,1.335462,467818,21608
1561.08,1.332647,460730,21419
1564.15,1.333327,454170,21081
1568.22,1.332640,444181,20650
1571.27,1.328633,436947,20502
1574.32,1.328098,429598,20182
1577.36,1.331063,422039,19692
1580.4,1.324119,414375,19646
1583.43,1.323055,406354,19313
1586.46,1.333253,398475,18499
1590.49,1.325301,388982,18392
1593.51,1.328856,380708,17854
1596.53,1.310199,372727,18247
1599.54,1.329571,365060,17092
1602.55,1.321884,357543,17039
1605.55,1.321636,349495,16665
1608.55,1.321483,341154,16273
1612.54,1.312841,330877,16100
1615.53,1.312317,322904,15731
1618.51,1.315913,315116,15225
1621.49,1.321341,307217,14659
1624.47,1.321519,299481,14284
1627.44,1.320353,292112,13970
1630.41,1.322748,284245,13519
1634.36,1.315005,274079,13270
1637.32,1.323427,266916,12675
1640.27,1.328571,259612,12183
1643.22,1.321700,251804,12005
1646.16,1.318600,244348,11733
1649.1,1.307915,236703,11649
1652.04,1.325360,228171,10787
1655.95,1.296793,215408,10876
1658.88,1.310969,204937,10015
1661.8,1.272387,193395,10329
1664.72,1.274521,179728,9552
1667.63,1.258015,163642,9034
1670.54,1.230075,146312,8614
1673.44,1.205213,128451,8008
1677.31,1.195640,105080,6697
1680.21,1.180219,88906,5871
1683.1,1.182229,75033,4932
1685.99,1.187066,63520,4129
1688.87,1.170301,53714,3629
1691.75,1.161711,45653,3146
1694.62,1.231238,39137,2298
1697.49,1.159950,33776,2337
1701.31,1.248467,28175,1590