File: ML/samples/unknown/Column 1_078650_20241121_171309.csv
Method:,Column 1,,
Host Date-Time:,21/11/24 @ 17:13:9,,
Header Version:,1,,
System Temp (C):,36.31,,
Detector Temp (C):,35.27,,
Humidity (%):,0.68,,
Lamp PD:,3797,,
Shift Vector Coefficients:,-10.5391,0.0761263,-0.000134223,,
Pixel to Wavelength Coefficients:,1775.68,-0.916766,-0.000235065,,
Serial Number:,5510004,,
Scan Config Name:,Column 1,,
Scan Config Type:,Slew,,
Section 1,,
Start wavelength (nm):,900,,
End wavelength (nm):,1700,,
Pattern Pixel Width (nm):,   7.03,,,,
Exposure (ms):,  0.635,,,,
Digital Resolution:,228,,
Num Repeats:,6,,
PGA Gain:,64,,
Total Measurement Time in sec:,  2.674,,
Wavelength (nm),Absorbance (AU),Reference Signal (unitless),Sample Signal (unitless)
901.51,1.301290,108485,5421
905.376,1.329687,121306,5678
909.237,1.315318,131909,6382
913.095,1.323990,143299,6796
916.948,1.336051,156982,7241
922.079,1.311329,179937,8786
925.923,1.320712,200504,9581
929.762,1.330609,222660,10400
933.597,1.334531,244426,11314
937.427,1.300589,263972,13212
941.254,1.314305,281845,13668
945.076,1.318546,297271,14276
950.165,1.312329,315605,15375
953.978,1.316788,328029,15817
957.786,1.308479,340470,16734
961.59,1.308060,352317,17333
965.389,1.308360,363056,17849
969.185,1.313021,373162,18150
972.976,1.303959,382632,19003
976.763,1.300810,391202,19570
981.806,1.307029,400190,19735
985.583,1.314374,406088,19690
989.355,1.314342,410162,19889
993.124,1.304142,412868,20496
996.888,1.302756,414263,20631
1000.65,1.303269,415476,20667
1004.4,1.308472,415479,20421
1009.41,1.305728,414358,20495
1013.15,1.306771,412923,20375
1016.89,1.292902,411526,20965
1020.63,1.308122,409066,20122
1024.36,1.307437,406777,20041
1028.09,1.297402,404427,20391
1031.82,1.304035,401911,19957
1036.78,1.296853,398410,20113
1040.49,1.304556,396204,19650
1044.2,1.300453,394236,19738
1047.91,1.309037,392042,19244
1051.61,1.303805,389823,19367
1055.31,1.302031,388234,19367
1059,1.305851,387599,19166
1063.92,1.308996,386688,18983
1067.61,1.315999,386598,18675
1071.29,1.305920,387377,19152
1074.96,1.301697,388536,19397
1078.63,1.312104,389855,19002
1082.3,1.306678,391215,19308
1085.96,1.301599,393215,19635
1090.84,1.307489,396270,19521
1094.49,1.312194,398760,19432
1098.14,1.295677,400987,20298
1101.79,1.319677,403477,19326
1105.43,1.310059,406116,19888
1109.06,1.305507,407701,20176
1112.7,1.315202,409859,19835
1117.53,1.312373,412494,20093
1121.15,1.314714,414909,20102
1124.77,1.309132,416559,20443
1128.38,1.323924,418532,19852
1131.99,1.316650,419956,20256
1135.6,1.310106,421946,20661
1139.2,1.309536,423881,20783
1143.99,1.323249,426786,20275
1147.58,1.319744,428617,20527
1151.17,1.324805,431169,20410
1154.75,1.303742,433579,21544
1158.33,1.321206,436264,20823
1161.91,1.316464,439132,21190
1165.48,1.312015,442389,21567
1169.04,1.311994,446101,21749
1173.79,1.315659,451929,21848
1177.34,1.302964,456026,22700
1180.9,1.308787,461306,22657
1184.44,1.312755,467657,22760
1187.99,1.317453,473969,22819
1191.52,1.315642,479856,23199
1195.06,1.313717,487372,23667
1199.76,1.318643,497347,23879
1203.29,1.315807,504311,24372
1206.81,1.314715,511507,24782
1210.33,1.319941,519078,24848
1213.84,1.313671,527163,25602
1217.35,1.318521,534208,25656
1220.85,1.321507,540472,25779
1225.51,1.316913,549929,26509
1229.01,1.310832,556888,27223
1232.5,1.321595,562180,26809
1235.98,1.314807,567975,27512
1239.46,1.320243,574815,27497
1242.94,1.323450,582782,27673
1246.41,1.317580,591476,28468
1251.03,1.317409,604016,29083
1254.5,1.322929,612289,29109
1257.96,1.320545,619125,29596
1261.41,1.316699,624551,30121
1264.86,1.324138,629900,29863
1268.31,1.324597,634345,30042
1271.75,1.319518,638574,30598
1276.33,1.322321,642499,30588
1279.76,1.325015,645905,30560
1283.19,1.321148,648307,30948
1286.61,1.328228,650446,30548
1290.03,1.323492,652132,30963
1293.44,1.322351,653907,31129
1296.85,1.321293,655963,31303
1301.39,1.325832,657349,31043
1304.8,1.325202,657558,31098
1308.19,1.328537,658515,30905
1311.58,1.327465,658804,30995
1314.97,1.325462,659011,31148
1318.36,1.328700,658272,30882
1321.73,1.326599,658022,31020
1326.23,1.332234,657870,30613
1329.6,1.327897,656482,30855
1332.97,1.320981,654926,31276
1336.33,1.330428,653727,30547
1339.69,1.328417,652497,30631
1343.04,1.320039,649913,31104
1346.39,1.326471,647671,30541
1349.73,1.330414,645338,30156
1354.18,1.324675,641175,30360
1357.52,1.320392,638376,30527
1360.85,1.323188,635805,30209
1364.17,1.329853,633413,29637
1367.49,1.322290,631026,30044
1370.81,1.325340,628050,29693
1374.12,1.320087,625034,29910
1378.54,1.326204,620272,29267
1381.84,1.322705,616892,29343
1385.14,1.321680,613613,29256
1388.43,1.322850,611526,29078
1391.72,1.323673,610663,28982
1395.01,1.326117,610634,28818
1398.29,1.328520,611700,28709
1402.66,1.326481,614051,28955
1405.93,1.325877,616268,29100
1409.2,1.326534,617795,29128
1412.46,1.326828,618872,29159
1415.72,1.324374,619795,29368
1418.98,1.330610,620495,28982
1422.23,1.324968,621087,29389
1426.56,1.326857,621375,29275
1429.8,1.329301,621616,29122
1433.04,1.325666,622129,29391
1436.27,1.330777,621526,29019
1439.5,1.324380,621113,29430
1442.72,1.333373,620921,28818
1445.94,1.327808,620270,29159
1450.23,1.326135,618860,29205
1453.44,1.327614,617697,29051
1456.64,1.327324,616264,29003
1459.85,1.330004,614413,28738
1463.04,1.331804,612307,28521
1466.24,1.332248,610032,28386
1469.43,1.328118,607345,28531
1473.67,1.332968,603789,28049
1476.85,1.329739,601175,28136
1480.02,1.333639,597737,27725
1483.19,1.332410,594479,27652
1486.36,1.338981,591232,27088
1489.52,1.330331,587853,27475
1492.68,1.333431,583875,27095
1496.89,1.335057,578062,26725
1500.03,1.331579,574159,26758
1503.18,1.326986,570285,26860
1506.32,1.331741,565444,26342
1509.45,1.326714,560571,26419
1512.58,1.335881,555821,25648
1515.71,1.331564,550344,25649
1519.87,1.332533,543983,25296
1522.99,1.329860,538764,25208
1526.1,1.330029,533692,24961
1529.21,1.330173,527902,24682
1532.32,1.337003,521886,24020
1535.42,1.331856,515888,24027
1538.51,1.323009,509987,24241
1541.6,1.320863,503936,24072
1545.72,1.328905,494694,23197
1548.8,1.332443,488378,22715
1551.88,1.334669,481832,22296
1554.95,1.323980,474989,22527
1558.02,1.330288,467818,21867
1561.08,1.319447,460730,22080
1564.15,1.325811,454170,21449
1568.22,1.332787,444181,20643
1571.27,1.328908,436947,20489
1574.32,1.324455,429598,20352
1577.36,1.329346,422039,19770
1580.4,1.325093,414375,19602
1583.43,1.322965,406354,19317
1586.46,1.325435,398475,18835
1590.49,1.318274,388982,18692
1593.51,1.327521,380708,17909
1596.53,1.319023,372727,17880
1599.54,1.322714,365060,17364
1602.55,1.320053,357543,17111
1605.55,1.317873,349495,16810
1608.55,1.318637,341154,16380
1612.54,1.329391,330877,15498
1615.53,1.320004,322904,15455
1618.51,1.316198,315116,15215
1621.49,1.298348,307217,15456
1624.47,1.326289,299481,14128
1627.44,1.310730,292112,14283
1630.41,1.318274,284245,13659
1634.36,1.297085,274079,13829
1637.32,1.305735,266916,13202
1640.27,1.315716,259612,12549
1643.22,1.304848,251804,12480
1646.16,1.303897,244348,12137
1649.1,1.297636,236703,11928
1652.04,1.295829,228171,11546
1655.95,1.297032,215408,10870
1658.88,1.276952,204937,10831
1661.8,1.288055,193395,9963
1664.72,1.281211,179728,9406
1667.63,1.255905,163642,9078
1670.54,1.223570,146312,8744
1673.44,1.210726,128451,7907
1677.31,1.156712,105080,7325
1680.21,1.152982,88906,6251
1683.1,1.147142,75033,5347
1685.99,1.133036,63520,4676
1688.87,1.145078,53714,3846
1691.75,1.116271,45653,3493
1694.62,1.154203,39137,2744
1697.49,1.209086,33776,2087
1701.31,1.258692,28175,1553