File: ML/samples/unknown/Column 1_078123_20241121_164635.csv
Method:,Column 1,,
Host Date-Time:,21/11/24 @ 16:46:35,,
Header Version:,1,,
System Temp (C):,32.79,,
Detector Temp (C):,28.32,,
Humidity (%):,3.81,,
Lamp PD:,3806,,
Shift Vector Coefficients:,-10.5391,0.0761263,-0.000134223,,
Pixel to Wavelength Coefficients:,1775.68,-0.916766,-0.000235065,,
Serial Number:,5510004,,
Scan Config Name:,Column 1,,
Scan Config Type:,Slew,,
Section 1,,
Start wavelength (nm):,900,,
End wavelength (nm):,1700,,
Pattern Pixel Width (nm):,   7.03,,,,
Exposure (ms):,  0.635,,,,
Digital Resolution:,228,,
Num Repeats:,6,,
PGA Gain:,64,,
Total Measurement Time in sec:,  2.723,,
Wavelength (nm),Absorbance (AU),Reference Signal (unitless),Sample Signal (unitless)
901.51,1.308724,108485,5329
905.376,1.308272,121306,5965
909.237,1.280796,131909,6910
913.095,1.303215,143299,7129
916.948,1.304201,156982,7792
922.079,1.304853,179937,8918
925.923,1.319309,200504,9612
929.762,1.307832,222660,10960
933.597,1.312199,244426,11911
937.427,1.314653,263972,12791
941.254,1.313068,281845,13707
945.076,1.312324,297271,14482
950.165,1.302885,315605,15713
953.978,1.304872,328029,16257
957.786,1.312259,340470,16589
961.59,1.310800,352317,17224
965.389,1.313869,363056,17624
969.185,1.309993,373162,18277
972.976,1.308901,382632,18788
976.763,1.308490,391202,19227
981.806,1.303653,400190,19889
985.583,1.298501,406088,20423
989.355,1.305952,410162,20277
993.124,1.301438,412868,20624
996.888,1.310380,414263,20272
1000.65,1.300712,415476,20789
1004.4,1.304324,415479,20617
1009.41,1.313403,414358,20136
1013.15,1.313711,412923,20052
1016.89,1.305492,411526,20366
1020.63,1.310373,409066,20018
1024.36,1.317233,406777,19594
1028.09,1.309255,404427,19842
1031.82,1.311298,401911,19626
1036.78,1.302701,398410,19844
1040.49,1.297258,396204,19983
1044.2,1.309974,394236,19310
1047.91,1.314328,392042,19011
1051.61,1.309811,389823,19101
1055.31,1.303356,388234,19308
1059,1.311668,387599,18911
1063.92,1.309660,386688,18954
1067.61,1.306567,386598,19085
1071.29,1.317269,387377,18658
1074.96,1.312120,388536,18937
1078.63,1.310097,389855,19090
1082.3,1.311769,391215,19083
1085.96,1.322347,393215,18719
1090.84,1.314057,396270,19228
1094.49,1.317682,398760,19188
1098.14,1.311251,400987,19583
1101.79,1.319340,403477,19341
1105.43,1.316860,406116,19579
1109.06,1.310747,407701,19934
1112.7,1.319626,409859,19634
1117.53,1.314670,412494,19987
1121.15,1.319602,414909,19877
1124.77,1.327398,416559,19601
1128.38,1.313399,418532,20339
1131.99,1.319101,419956,20142
1135.6,1.316735,421946,20348
1139.2,1.317699,423881,20396
1143.99,1.311625,426786,20825
1147.58,1.324039,428617,20325
1151.17,1.316897,431169,20785
1154.75,1.315988,433579,20945
1158.33,1.319208,436264,20919
1161.91,1.310743,439132,21471
1165.48,1.331916,442389,20601
1169.04,1.317217,446101,21489
1173.79,1.324819,451929,21392
1177.34,1.318526,456026,21901
1180.9,1.314323,461306,22370
1184.44,1.315492,467657,22617
1187.99,1.319724,473969,22700
1191.52,1.317349,479856,23108
1195.06,1.323985,487372,23114
1199.76,1.320740,497347,23764
1203.29,1.314473,504311,24447
1206.81,1.325449,511507,24177
1210.33,1.322887,519078,24680
1213.84,1.326234,527163,24872
1217.35,1.320404,534208,25545
1220.85,1.325620,540472,25536
1225.51,1.320301,549929,26303
1229.01,1.326126,556888,26281
1232.5,1.316842,562180,27104
1235.98,1.322146,567975,27051
1239.46,1.324385,574815,27236
1242.94,1.320151,582782,27884
1246.41,1.321288,591476,28226
1251.03,1.321897,604016,28784
1254.5,1.324214,612289,29023
1257.96,1.333791,619125,28707
1261.41,1.330408,624551,29185
1264.86,1.324953,629900,29807
1268.31,1.326306,634345,29924
1271.75,1.323425,638574,30324
1276.33,1.325571,642499,30360
1279.76,1.329932,645905,30216
1283.19,1.331486,648307,30220
1286.61,1.331754,650446,30301
1290.03,1.326293,652132,30764
1293.44,1.335854,653907,30176
1296.85,1.333249,655963,30453
1301.39,1.324924,657349,31108
1304.8,1.327512,657558,30933
1308.19,1.331229,658515,30714
1311.58,1.331335,658804,30720
1314.97,1.324376,659011,31226
1318.36,1.333551,658272,30539
1321.73,1.326543,658022,31024
1326.23,1.333257,657870,30541
1329.6,1.333479,656482,30461
1332.97,1.333733,654926,30371
1336.33,1.330030,653727,30575
1339.69,1.328956,652497,30593
1343.04,1.329083,649913,30463
1346.39,1.326770,647671,30520
1349.73,1.336534,645338,29734
1354.18,1.328684,641175,30081
1357.52,1.332891,638376,29661
1360.85,1.329064,635805,29803
1364.17,1.324986,633413,29971
1367.49,1.331227,631026,29432
1370.81,1.325135,628050,29707
1374.12,1.323396,625034,29683
1378.54,1.328868,620272,29088
1381.84,1.329582,616892,28882
1385.14,1.328487,613613,28801
1388.43,1.325697,611526,28888
1391.72,1.332973,610663,28368
1395.01,1.330464,610634,28531
1398.29,1.326679,611700,28831
1402.66,1.323670,614051,29143
1405.93,1.330498,616268,28792
1409.2,1.332494,617795,28731
1412.46,1.330613,618872,28906
1415.72,1.335321,619795,28637
1418.98,1.329129,620495,29081
1422.23,1.335513,621087,28684
1426.56,1.335472,621375,28700
1429.8,1.331184,621616,28996
1433.04,1.334337,622129,28810
1436.27,1.335018,621526,28737
1439.5,1.330413,621113,29024
1442.72,1.327728,620921,29195
1445.94,1.332872,620270,28821
1450.23,1.334059,618860,28677
1453.44,1.333848,617697,28637
1456.64,1.335410,616264,28468
1459.85,1.337842,614413,28224
1463.04,1.341381,612307,27899
1466.24,1.339313,610032,27928
1469.43,1.341850,607345,27643
1473.67,1.339709,603789,27617
1476.85,1.335660,601175,27755
1480.02,1.332200,597737,27817
1483.19,1.338786,594479,27249
1486.36,1.338709,591232,27105
1489.52,1.334939,587853,27185
1492.68,1.335471,583875,26968
1496.89,1.332400,578062,26889
1500.03,1.334118,574159,26602
1503.18,1.334916,570285,26374
1506.32,1.333989,565444,26206
1509.45,1.337803,560571,25753
1512.58,1.332525,555821,25847
1515.71,1.341688,550344,25058
1519.87,1.339526,543983,24892
1522.99,1.337192,538764,24786
1526.1,1.335791,533692,24632
1529.21,1.341565,527902,24043
1532.32,1.325882,521886,24643
1535.42,1.336362,515888,23779
1538.51,1.338938,509987,23368
1541.6,1.335728,503936,23262
1545.72,1.339806,494694,22622
1548.8,1.327274,488378,22987
1551.88,1.330752,481832,22498
1554.95,1.338367,474989,21793
1558.02,1.325429,467818,22113
1561.08,1.333418,460730,21381
1564.15,1.334090,454170,21044
1568.22,1.339871,444181,20309
1571.27,1.324542,436947,20696
1574.32,1.327926,429598,20190
1577.36,1.336924,422039,19428
1580.4,1.331634,414375,19309
1583.43,1.319226,406354,19484
1586.46,1.335914,398475,18386
1590.49,1.329667,388982,18208
1593.51,1.332422,380708,17708
1596.53,1.330318,372727,17421
1599.54,1.328531,365060,17133
1602.55,1.323902,357543,16960
1605.55,1.312558,349495,17017
1608.55,1.328369,341154,16017
1612.54,1.328579,330877,15527
1615.53,1.324865,322904,15283
1618.51,1.325109,315116,14906
1621.49,1.320808,307217,14677
1624.47,1.320699,299481,14311
1627.44,1.319328,292112,14003
1630.41,1.313845,284245,13799
1634.36,1.326277,274079,12930
1637.32,1.316054,266916,12892
1640.27,1.307183,259612,12798
1643.22,1.318313,251804,12099
1646.16,1.301435,244348,12206
1649.1,1.310833,236703,11571
1652.04,1.321472,228171,10884
1655.95,1.316228,215408,10400
1658.88,1.303745,204937,10183
1661.8,1.290547,193395,9906
1664.72,1.289555,179728,9227
1667.63,1.281878,163642,8551
1670.54,1.300650,146312,7322
1673.44,1.288733,128451,6607
1677.31,1.263593,105080,5727
1680.21,1.275634,88906,4713
1683.1,1.261728,75033,4107
1685.99,1.278514,63520,3345
1688.87,1.260855,53714,2946
1691.75,1.231821,45653,2677
1694.62,1.213826,39137,2392
1697.49,1.204120,33776,2111
1701.31,1.191706,28175,1812