File: ML/samples/unknown/Column 1_078534_20241121_170724.csv
Method:,Column 1,,
Host Date-Time:,21/11/24 @ 17:7:24,,
Header Version:,1,,
System Temp (C):,35.71,,
Detector Temp (C):,34.15,,
Humidity (%):,1.77,,
Lamp PD:,3800,,
Shift Vector Coefficients:,-10.5391,0.0761263,-0.000134223,,
Pixel to Wavelength Coefficients:,1775.68,-0.916766,-0.000235065,,
Serial Number:,5510004,,
Scan Config Name:,Column 1,,
Scan Config Type:,Slew,,
Section 1,,
Start wavelength (nm):,900,,
End wavelength (nm):,1700,,
Pattern Pixel Width (nm):,   7.03,,,,
Exposure (ms):,  0.635,,,,
Digital Resolution:,228,,
Num Repeats:,6,,
PGA Gain:,64,,
Total Measurement Time in sec:,  2.726,,
Wavelength (nm),Absorbance (AU),Reference Signal (unitless),Sample Signal (unitless)
901.51,1.323562,108485,5150
905.376,1.330682,121306,5665
909.237,1.313823,131909,6404
913.095,1.315635,143299,6928
916.948,1.304759,156982,7782
922.079,1.305340,179937,8908
925.923,1.319219,200504,9614
929.762,1.322705,222660,10591
933.597,1.321151,244426,11668
937.427,1.321394,263972,12594
941.254,1.308435,281845,13854
945.076,1.321997,297271,14163
950.165,1.323893,315605,14971
953.978,1.307578,328029,16156
957.786,1.309466,340470,16696
961.59,1.302483,352317,17557
965.389,1.304484,363056,18009
969.185,1.300009,373162,18702
972.976,1.302157,382632,19082
976.763,1.307677,391202,19263
981.806,1.300997,400190,20011
985.583,1.305014,406088,20119
989.355,1.314714,410162,19872
993.124,1.302915,412868,20554
996.888,1.302440,414263,20646
1000.65,1.299544,415476,20845
1004.4,1.301594,415479,20747
1009.41,1.305452,414358,20508
1013.15,1.297138,412923,20832
1016.89,1.313324,411526,20002
1020.63,1.306937,409066,20177
1024.36,1.308631,406777,19986
1028.09,1.300458,404427,20248
1031.82,1.303122,401911,19999
1036.78,1.309495,398410,19536
1040.49,1.298826,396204,19911
1044.2,1.309592,394236,19327
1047.91,1.304815,392042,19432
1051.61,1.309834,389823,19100
1055.31,1.306993,388234,19147
1059,1.307782,387599,19081
1063.92,1.302682,386688,19261
1067.61,1.308437,386598,19003
1071.29,1.310295,387377,18960
1074.96,1.307399,388536,19144
1078.63,1.317531,389855,18766
1082.3,1.312247,391215,19062
1085.96,1.311510,393215,19192
1090.84,1.309966,396270,19410
1094.49,1.313223,398760,19386
1098.14,1.312561,400987,19524
1101.79,1.315717,403477,19503
1105.43,1.316593,406116,19591
1109.06,1.310660,407701,19938
1112.7,1.312648,409859,19952
1117.53,1.303134,412494,20525
1121.15,1.316402,414909,20024
1124.77,1.318082,416559,20026
1128.38,1.306977,418532,20642
1131.99,1.319425,419956,20127
1135.6,1.305069,421946,20902
1139.2,1.309619,423881,20779
1143.99,1.323421,426786,20267
1147.58,1.316057,428617,20702
1151.17,1.315250,431169,20864
1154.75,1.308587,433579,21305
1158.33,1.310921,436264,21322
1161.91,1.312344,439132,21392
1165.48,1.312821,442389,21527
1169.04,1.315442,446101,21577
1173.79,1.310855,451929,22091
1177.34,1.310821,456026,22293
1180.9,1.309958,461306,22596
1184.44,1.308729,467657,22972
1187.99,1.324128,473969,22471
1191.52,1.310764,479856,23461
1195.06,1.316941,487372,23492
1199.76,1.316937,497347,23973
1203.29,1.311146,504311,24635
1206.81,1.319154,511507,24530
1210.33,1.320221,519078,24832
1213.84,1.318584,527163,25314
1217.35,1.316748,534208,25761
1220.85,1.321036,540472,25807
1225.51,1.318324,549929,26423
1229.01,1.319387,556888,26692
1232.5,1.321271,562180,26829
1235.98,1.315344,567975,27478
1239.46,1.318257,574815,27623
1242.94,1.323466,582782,27672
1246.41,1.323416,591476,28088
1251.03,1.320361,604016,28886
1254.5,1.319985,612289,29307
1257.96,1.316761,619125,29855
1261.41,1.325775,624551,29498
1264.86,1.320013,629900,30148
1268.31,1.323745,634345,30101
1271.75,1.321467,638574,30461
1276.33,1.320847,642499,30692
1279.76,1.319747,645905,30933
1283.19,1.323385,648307,30789
1286.61,1.321653,650446,31014
1290.03,1.322134,652132,31060
1293.44,1.326542,653907,30830
1296.85,1.324496,655963,31073
1301.39,1.325399,657349,31074
1304.8,1.327035,657558,30967
1308.19,1.331357,658515,30705
1311.58,1.328334,658804,30933
1314.97,1.323918,659011,31259
1318.36,1.326484,658272,31040
1321.73,1.326837,658022,31003
1326.23,1.329477,657870,30808
1329.6,1.329448,656482,30745
1332.97,1.328502,654926,30739
1336.33,1.325635,653727,30886
1339.69,1.321093,652497,31152
1343.04,1.327361,649913,30584
1346.39,1.324612,647671,30672
1349.73,1.328201,645338,30310
1354.18,1.322848,641175,30488
1357.52,1.327406,638376,30038
1360.85,1.325552,635805,30045
1364.17,1.327325,633413,29810
1367.49,1.327803,631026,29665
1370.81,1.325121,628050,29708
1374.12,1.324832,625034,29585
1378.54,1.320338,620272,29665
1381.84,1.326525,616892,29086
1385.14,1.327899,613613,28840
1388.43,1.323388,611526,29042
1391.72,1.323688,610663,28981
1395.01,1.322605,610634,29052
1398.29,1.324920,611700,28948
1402.66,1.326451,614051,28957
1405.93,1.326175,616268,29080
1409.2,1.331346,617795,28807
1412.46,1.329712,618872,28966
1415.72,1.322205,619795,29515
1418.98,1.329308,620495,29069
1422.23,1.324126,621087,29446
1426.56,1.327005,621375,29265
1429.8,1.329390,621616,29116
1433.04,1.332502,622129,28932
1436.27,1.333600,621526,28831
1439.5,1.328785,621113,29133
1442.72,1.330983,620921,28977
1445.94,1.332616,620270,28838
1450.23,1.327759,618860,29096
1453.44,1.328842,617697,28969
1456.64,1.325337,616264,29136
1459.85,1.323375,614413,29180
1463.04,1.322331,612307,29150
1466.24,1.328076,610032,28660
1469.43,1.326099,607345,28664
1473.67,1.331654,603789,28134
1476.85,1.337494,601175,27638
1480.02,1.327897,597737,28094
1483.19,1.334725,594479,27505
1486.36,1.330346,591232,27632
1489.52,1.337648,587853,27016
1492.68,1.333800,583875,27072
1496.89,1.335935,578062,26671
1500.03,1.337774,574159,26379
1503.18,1.334883,570285,26376
1506.32,1.329882,565444,26455
1509.45,1.335381,560571,25897
1512.58,1.329044,555821,26055
1515.71,1.334264,550344,25490
1519.87,1.336379,543983,25073
1522.99,1.331846,538764,25093
1526.1,1.330900,533692,24911
1529.21,1.335555,527902,24378
1532.32,1.331791,521886,24310
1535.42,1.331567,515888,24043
1538.51,1.327095,509987,24014
1541.6,1.329574,503936,23594
1545.72,1.329167,494694,23183
1548.8,1.331279,488378,22776
1551.88,1.335819,481832,22237
1554.95,1.333669,474989,22030
1558.02,1.325862,467818,22091
1561.08,1.328953,460730,21602
1564.15,1.337550,454170,20877
1568.22,1.324411,444181,21045
1571.27,1.321531,436947,20840
1574.32,1.328227,429598,20176
1577.36,1.336813,422039,19433
1580.4,1.328050,414375,19469
1583.43,1.328782,406354,19060
1586.46,1.330025,398475,18637
1590.49,1.330360,388982,18179
1593.51,1.327327,380708,17917
1596.53,1.318756,372727,17891
1599.54,1.316778,365060,17603
1602.55,1.331862,357543,16652
1605.55,1.322967,349495,16614
1608.55,1.321109,341154,16287
1612.54,1.315981,330877,15984
1615.53,1.333243,322904,14991
1618.51,1.320530,315116,15064
1621.49,1.309015,307217,15081
1624.47,1.320123,299481,14330
1627.44,1.318708,292112,14023
1630.41,1.311241,284245,13882
1634.36,1.304560,274079,13593
1637.32,1.321376,266916,12735
1640.27,1.328499,259612,12185
1643.22,1.312077,251804,12274
1646.16,1.307238,244348,12044
1649.1,1.310983,236703,11567
1652.04,1.307649,228171,11236
1655.95,1.308366,215408,10590
1658.88,1.291632,204937,10471
1661.8,1.293230,193395,9845
1664.72,1.270944,179728,9631
1667.63,1.257198,163642,9051
1670.54,1.250672,146312,8215
1673.44,1.218708,128451,7763
1677.31,1.195316,105080,6702
1680.21,1.191611,88906,5719
1683.1,1.188169,75033,4865
1685.99,1.185072,63520,4148
1688.87,1.108807,53714,4181
1691.75,1.143860,45653,3278
1694.62,1.177113,39137,2603
1697.49,1.207217,33776,2096
1701.31,1.171339,28175,1899