File: ML/samples/unknown/Column 1_078465_20241121_170400.csv
Method:,Column 1,,
Host Date-Time:,21/11/24 @ 17:4:0,,
Header Version:,1,,
System Temp (C):,34.69,,
Detector Temp (C):,33.75,,
Humidity (%):,1.86,,
Lamp PD:,3802,,
Shift Vector Coefficients:,-10.5391,0.0761263,-0.000134223,,
Pixel to Wavelength Coefficients:,1775.68,-0.916766,-0.000235065,,
Serial Number:,5510004,,
Scan Config Name:,Column 1,,
Scan Config Type:,Slew,,
Section 1,,
Start wavelength (nm):,900,,
End wavelength (nm):,1700,,
Pattern Pixel Width (nm):,   7.03,,,,
Exposure (ms):,  0.635,,,,
Digital Resolution:,228,,
Num Repeats:,6,,
PGA Gain:,64,,
Total Measurement Time in sec:,  2.726,,
Wavelength (nm),Absorbance (AU),Reference Signal (unitless),Sample Signal (unitless)
901.51,1.314714,108485,5256
905.376,1.332141,121306,5646
909.237,1.331258,131909,6152
913.095,1.287188,143299,7397
916.948,1.326149,156982,7408
922.079,1.318758,179937,8637
925.923,1.320350,200504,9589
929.762,1.314460,222660,10794
933.597,1.323240,244426,11612
937.427,1.319811,263972,12640
941.254,1.329601,281845,13195
945.076,1.305156,297271,14723
950.165,1.321867,315605,15041
953.978,1.319708,328029,15711
957.786,1.328149,340470,15993
961.59,1.313887,352317,17102
965.389,1.323336,363056,17244
969.185,1.308214,373162,18352
972.976,1.320663,382632,18286
976.763,1.308106,391202,19244
981.806,1.311875,400190,19516
985.583,1.312504,406088,19775
989.355,1.317234,410162,19757
993.124,1.306522,412868,20384
996.888,1.309930,414263,20293
1000.65,1.303163,415476,20672
1004.4,1.311203,415479,20293
1009.41,1.318435,414358,19904
1013.15,1.302149,412923,20593
1016.89,1.309089,411526,20198
1020.63,1.310308,409066,20021
1024.36,1.306485,406777,20085
1028.09,1.317965,404427,19448
1031.82,1.308013,401911,19775
1036.78,1.306570,398410,19668
1040.49,1.315523,396204,19160
1044.2,1.304632,394236,19549
1047.91,1.310529,392042,19178
1051.61,1.315004,389823,18874
1055.31,1.319417,388234,18607
1059,1.308784,387599,19037
1063.92,1.309477,386688,18962
1067.61,1.305794,386598,19119
1071.29,1.315248,387377,18745
1074.96,1.310061,388536,19027
1078.63,1.314418,389855,18901
1082.3,1.315150,391215,18935
1085.96,1.317181,393215,18943
1090.84,1.316208,396270,19133
1094.49,1.314772,398760,19317
1098.14,1.315866,400987,19376
1101.79,1.321636,403477,19239
1105.43,1.311809,406116,19808
1109.06,1.319684,407701,19528
1112.7,1.316123,409859,19793
1117.53,1.310604,412494,20175
1121.15,1.321814,414909,19776
1124.77,1.314928,416559,20172
1128.38,1.326998,418532,19712
1131.99,1.324678,419956,19885
1135.6,1.315669,421946,20398
1139.2,1.322151,423881,20188
1143.99,1.308550,426786,20973
1147.58,1.319342,428617,20546
1151.17,1.313318,431169,20957
1154.75,1.324447,433579,20541
1158.33,1.322983,436264,20738
1161.91,1.312852,439132,21367
1165.48,1.319161,442389,21215
1169.04,1.315684,446101,21565
1173.79,1.315937,451929,21834
1177.34,1.321171,456026,21768
1180.9,1.317773,461306,22193
1184.44,1.314668,467657,22660
1187.99,1.320682,473969,22650
1191.52,1.318139,479856,23066
1195.06,1.316405,487372,23521
1199.76,1.318098,497347,23909
1203.29,1.322180,504311,24017
1206.81,1.318729,511507,24554
1210.33,1.321184,519078,24777
1213.84,1.316992,527163,25407
1217.35,1.324401,534208,25311
1220.85,1.322283,540472,25733
1225.51,1.320698,549929,26279
1229.01,1.316937,556888,26843
1232.5,1.323429,562180,26696
1235.98,1.322596,567975,27023
1239.46,1.321778,574815,27400
1242.94,1.322870,582782,27710
1246.41,1.327596,591476,27819
1251.03,1.320060,604016,28906
1254.5,1.327232,612289,28822
1257.96,1.327647,619125,29116
1261.41,1.326424,624551,29454
1264.86,1.331146,629900,29385
1268.31,1.327760,634345,29824
1271.75,1.331432,638574,29770
1276.33,1.331403,642499,29955
1279.76,1.336682,645905,29750
1283.19,1.327253,648307,30516
1286.61,1.327603,650446,30592
1290.03,1.333309,652132,30271
1293.44,1.328859,653907,30666
1296.85,1.333107,655963,30463
1301.39,1.331125,657349,30667
1304.8,1.324867,657558,31122
1308.19,1.337195,658515,30295
1311.58,1.329740,658804,30833
1314.97,1.327671,659011,30990
1318.36,1.330236,658272,30773
1321.73,1.329098,658022,30842
1326.23,1.332901,657870,30566
1329.6,1.330226,656482,30690
1332.97,1.330755,654926,30580
1336.33,1.330897,653727,30514
1339.69,1.327299,652497,30710
1343.04,1.331269,649913,30310
1346.39,1.330084,647671,30288
1349.73,1.329062,645338,30250
1354.18,1.329074,641175,30054
1357.52,1.332803,638376,29667
1360.85,1.325870,635805,30023
1364.17,1.322385,633413,30151
1367.49,1.326152,631026,29778
1370.81,1.329957,628050,29379
1374.12,1.331563,625034,29130
1378.54,1.330364,620272,28988
1381.84,1.330319,616892,28833
1385.14,1.327689,613613,28854
1388.43,1.327294,611526,28782
1391.72,1.326877,610663,28769
1395.01,1.328944,610634,28631
1398.29,1.327448,611700,28780
1402.66,1.324819,614051,29066
1405.93,1.331963,616268,28695
1409.2,1.324748,617795,29248
1412.46,1.327977,618872,29082
1415.72,1.331546,619795,28887
1418.98,1.329921,620495,29028
1422.23,1.340875,621087,28332
1426.56,1.331600,621375,28957
1429.8,1.336034,621616,28674
1433.04,1.326554,622129,29331
1436.27,1.334957,621526,28741
1439.5,1.339012,621113,28455
1442.72,1.329457,620921,29079
1445.94,1.339798,620270,28365
1450.23,1.340297,618860,28268
1453.44,1.338330,617697,28343
1456.64,1.329877,616264,28833
1459.85,1.337319,614413,28258
1463.04,1.339222,612307,28038
1466.24,1.337033,610032,28075
1469.43,1.336215,607345,28004
1473.67,1.333154,603789,28037
1476.85,1.328136,601175,28240
1480.02,1.336325,597737,27554
1483.19,1.330874,594479,27750
1486.36,1.343170,591232,26828
1489.52,1.340050,587853,26867
1492.68,1.330603,583875,27272
1496.89,1.341375,578062,26339
1500.03,1.331027,574159,26792
1503.18,1.341737,570285,25963
1506.32,1.335666,565444,26105
1509.45,1.338427,560571,25716
1512.58,1.337612,555821,25546
1515.71,1.340494,550344,25127
1519.87,1.336639,543983,25058
1522.99,1.342126,538764,24506
1526.1,1.340970,533692,24340
1529.21,1.338828,527902,24195
1532.32,1.336100,521886,24070
1535.42,1.338890,515888,23641
1538.51,1.333471,509987,23664
1541.6,1.338388,503936,23120
1545.72,1.340055,494694,22609
1548.8,1.340062,488378,22320
1551.88,1.338012,481832,22125
1554.95,1.334933,474989,21966
1558.02,1.336046,467818,21579
1561.08,1.339782,460730,21070
1564.15,1.337779,454170,20866
1568.22,1.335023,444181,20537
1571.27,1.338639,436947,20035
1574.32,1.339965,429598,19638
1577.36,1.332012,422039,19649
1580.4,1.330129,414375,19376
1583.43,1.332949,406354,18878
1586.46,1.330561,398475,18614
1590.49,1.339119,388982,17816
1593.51,1.331663,380708,17739
1596.53,1.326669,372727,17568
1599.54,1.340846,365060,16654
1602.55,1.332776,357543,16617
1605.55,1.328279,349495,16412
1608.55,1.321349,341154,16278
1612.54,1.322800,330877,15735
1615.53,1.333562,322904,14980
1618.51,1.324702,315116,14920
1621.49,1.322201,307217,14630
1624.47,1.322646,299481,14247
1627.44,1.343530,292112,13244
1630.41,1.324777,284245,13456
1634.36,1.320041,274079,13117
1637.32,1.305045,266916,13223
1640.27,1.325303,259612,12275
1643.22,1.328482,251804,11819
1646.16,1.307924,244348,12025
1649.1,1.302506,236703,11795
1652.04,1.299303,228171,11454
1655.95,1.305220,215408,10667
1658.88,1.281183,204937,10726
1661.8,1.281995,193395,10103
1664.72,1.285899,179728,9305
1667.63,1.278337,163642,8621
1670.54,1.255724,146312,8120
1673.44,1.216587,128451,7801
1677.31,1.208340,105080,6504
1680.21,1.160409,88906,6145
1683.1,1.157582,75033,5220
1685.99,1.174930,63520,4246
1688.87,1.161417,53714,3704
1691.75,1.128502,45653,3396
1694.62,1.206089,39137,2435
1697.49,1.169912,33776,2284
1701.31,1.208317,28175,1744